#                                                           
#  **    **    **     ****     ****  ******     *******     
# //**  **    ****   /**/**   **/** /*////**   **/////**    
#  //****    **//**  /**//** ** /** /*   /**  **     //**   
#   //**    **  //** /** //***  /** /******  /**      /**   
#    /**   **********/**  //*   /** /*//// **/**      /**   
#    /**  /**//////**/**   /    /** /*    /**//**     **    
#    /**  /**     /**/**        /** /*******  //*******     
#    //   //      // //         //  ///////    ///////      
#                                                           
#        Version 4.3.0 Revision 15624 Hash 7ed12fb          
#                      MPI+SLK Build                        
#                http://www.yambo-code.org                  
#
# Joint density of states @ Q(1) [q->0 direction] :0.1000E-4  0.000     0.000   
#
# - Energies      are Teter 93(XC)
# - The Green`s function is Retarded -
#
#   BSK|Identifier              :5179
#      |Dimension               :49
#      |Bands                   :1 - 50
#      |Exchange           [res]: yes
#      |Correlation        [res]: no
#      |Kernel`s coupling       : no
#      |Exchange           [cpl]: no
#      |Correlation        [cpl]: no
#      |W interaction is bare   : no
#      |ALDA kernel in R-space  : no
#      |RL vectors    [exchange]:4067
#      |E/h energy range    [ev]:-1.000000 - -1.000000
#      |Coupling range     [o/o]: 100.0000 -  100.0000
#
#    E/ev[1]      jdos-Im[2]   jdos-Re[3]   jdoso-Im[4]  jdoso-Re[5]  jdos`-Im[6]  jdos`-Re[7]
#
    0.000000     0.000000     1.093917     0.000000     1.108381
   0.1502E-1    0.1126E-4     1.094       0.1175E-4     1.108   
   0.3003E-1    0.2251E-4     1.094       0.2349E-4     1.108   
   0.4505E-1    0.3377E-4     1.094       0.3524E-4     1.108   
   0.6006E-1    0.4502E-4     1.094       0.4698E-4     1.108   
   0.7508E-1    0.5628E-4     1.094       0.5873E-4     1.108   
   0.9009E-1    0.6753E-4     1.094       0.7048E-4     1.108   
   0.1051       0.7879E-4     1.094       0.8223E-4     1.108   
   0.1201       0.9005E-4     1.094       0.9397E-4     1.108   
   0.1351       0.1013E-3     1.094       0.1057E-3     1.108   
   0.1502       0.1126E-3     1.094       0.1175E-3     1.108   
   0.1652       0.1238E-3     1.094       0.1292E-3     1.108   
   0.1802       0.1351E-3     1.094       0.1410E-3     1.109   
   0.1952       0.1464E-3     1.094       0.1527E-3     1.109   
   0.2102       0.1576E-3     1.094       0.1645E-3     1.109   
   0.2252       0.1689E-3     1.094       0.1763E-3     1.109   
   0.2402       0.1802E-3     1.094       0.1880E-3     1.109   
   0.2553       0.1914E-3     1.094       0.1998E-3     1.109   
   0.2703       0.2027E-3     1.094       0.2115E-3     1.109   
   0.2853       0.2140E-3     1.094       0.2233E-3     1.109   
   0.3003       0.2253E-3     1.094       0.2351E-3     1.109   
   0.3153       0.2365E-3     1.094       0.2469E-3     1.109   
   0.3303       0.2478E-3     1.094       0.2586E-3     1.109   
   0.3453       0.2591E-3     1.094       0.2704E-3     1.109   
   0.3604       0.2704E-3     1.094       0.2822E-3     1.109   
   0.3754       0.2817E-3     1.094       0.2940E-3     1.109   
   0.3904       0.2930E-3     1.094       0.3058E-3     1.109   
   0.4054       0.3043E-3     1.095       0.3176E-3     1.109   
   0.4204       0.3156E-3     1.095       0.3294E-3     1.109   
   0.4354       0.3269E-3     1.095       0.3412E-3     1.109   
   0.4505       0.3382E-3     1.095       0.3530E-3     1.109   
   0.4655       0.3495E-3     1.095       0.3648E-3     1.109   
   0.4805       0.3608E-3     1.095       0.3766E-3     1.109   
   0.4955       0.3721E-3     1.095       0.3884E-3     1.109   
   0.5105       0.3835E-3     1.095       0.4002E-3     1.109   
   0.5255       0.3948E-3     1.095       0.4120E-3     1.109   
   0.5405       0.4061E-3     1.095       0.4239E-3     1.110   
   0.5556       0.4175E-3     1.095       0.4357E-3     1.110   
   0.5706       0.4288E-3     1.095       0.4475E-3     1.110   
   0.5856       0.4401E-3     1.095       0.4594E-3     1.110   
   0.6006       0.4515E-3     1.095       0.4712E-3     1.110   
   0.6156       0.4629E-3     1.095       0.4831E-3     1.110   
   0.6306       0.4742E-3     1.095       0.4949E-3     1.110   
   0.6456       0.4856E-3     1.095       0.5068E-3     1.110   
   0.6607       0.4970E-3     1.096       0.5187E-3     1.110   
   0.6757       0.5083E-3     1.096       0.5306E-3     1.110   
   0.6907       0.5197E-3     1.096       0.5424E-3     1.110   
   0.7057       0.5311E-3     1.096       0.5543E-3     1.110   
   0.7207       0.5425E-3     1.096       0.5662E-3     1.110   
   0.7357       0.5539E-3     1.096       0.5781E-3     1.111   
   0.7508       0.5653E-3     1.096       0.5900E-3     1.111   
   0.7658       0.5767E-3     1.096       0.6019E-3     1.111   
   0.7808       0.5881E-3     1.096       0.6139E-3     1.111   
   0.7958       0.5995E-3     1.096       0.6258E-3     1.111   
   0.8108       0.6110E-3     1.096       0.6377E-3     1.111   
   0.8258       0.6224E-3     1.096       0.6497E-3     1.111   
   0.8408       0.6339E-3     1.097       0.6616E-3     1.111   
   0.8559       0.6453E-3     1.097       0.6736E-3     1.111   
   0.8709       0.6568E-3     1.097       0.6855E-3     1.111   
   0.8859       0.6682E-3     1.097       0.6975E-3     1.111   
   0.9009       0.6797E-3     1.097       0.7095E-3     1.112   
   0.9159       0.6912E-3     1.097       0.7215E-3     1.112   
   0.9309       0.7027E-3     1.097       0.7335E-3     1.112   
   0.9459       0.7142E-3     1.097       0.7455E-3     1.112   
   0.9610       0.7257E-3     1.097       0.7575E-3     1.112   
   0.9760       0.7372E-3     1.097       0.7695E-3     1.112   
   0.9910       0.7487E-3     1.098       0.7816E-3     1.112   
    1.006       0.7602E-3     1.098       0.7936E-3     1.112   
    1.021       0.7718E-3     1.098       0.8057E-3     1.112   
    1.036       0.7833E-3     1.098       0.8177E-3     1.113   
    1.051       0.7949E-3     1.098       0.8298E-3     1.113   
    1.066       0.8064E-3     1.098       0.8419E-3     1.113   
    1.081       0.8180E-3     1.098       0.8539E-3     1.113   
    1.096       0.8296E-3     1.098       0.8660E-3     1.113   
    1.111       0.8412E-3     1.099       0.8782E-3     1.113   
    1.126       0.8528E-3     1.099       0.8903E-3     1.113   
    1.141       0.8644E-3     1.099       0.9024E-3     1.114   
    1.156       0.8760E-3     1.099       0.9145E-3     1.114   
    1.171       0.8876E-3     1.099       0.9267E-3     1.114   
    1.186       0.8993E-3     1.099       0.9388E-3     1.114   
    1.201       0.9109E-3     1.099       0.9510E-3     1.114   
    1.216       0.9226E-3     1.099       0.9632E-3     1.114   
    1.231       0.9342E-3     1.100       0.9754E-3     1.114   
    1.246       0.9459E-3     1.100       0.9876E-3     1.114   
    1.261       0.9576E-3     1.100       0.9998E-3     1.115   
    1.276       0.9693E-3     1.100       0.1012E-2     1.115   
    1.291       0.9810E-3     1.100       0.1024E-2     1.115   
    1.306       0.9927E-3     1.100       0.1037E-2     1.115   
    1.321       0.1004E-2     1.101       0.1049E-2     1.115   
    1.336       0.1016E-2     1.101       0.1061E-2     1.115   
    1.351       0.1028E-2     1.101       0.1073E-2     1.116   
    1.366       0.1040E-2     1.101       0.1086E-2     1.116   
    1.381       0.1052E-2     1.101       0.1098E-2     1.116   
    1.396       0.1063E-2     1.101       0.1110E-2     1.116   
    1.411       0.1075E-2     1.101       0.1123E-2     1.116   
    1.426       0.1087E-2     1.102       0.1135E-2     1.116   
    1.441       0.1099E-2     1.102       0.1147E-2     1.117   
    1.456       0.1111E-2     1.102       0.1160E-2     1.117   
    1.471       0.1122E-2     1.102       0.1172E-2     1.117   
    1.486       0.1134E-2     1.102       0.1184E-2     1.117   
    1.502       0.1146E-2     1.102       0.1197E-2     1.117   
    1.517       0.1158E-2     1.103       0.1209E-2     1.117   
    1.532       0.1170E-2     1.103       0.1222E-2     1.118   
    1.547       0.1182E-2     1.103       0.1234E-2     1.118   
    1.562       0.1194E-2     1.103       0.1247E-2     1.118   
    1.577       0.1206E-2     1.103       0.1259E-2     1.118   
    1.592       0.1218E-2     1.104       0.1272E-2     1.118   
    1.607       0.1230E-2     1.104       0.1284E-2     1.119   
    1.622       0.1242E-2     1.104       0.1297E-2     1.119   
    1.637       0.1254E-2     1.104       0.1309E-2     1.119   
    1.652       0.1266E-2     1.104       0.1322E-2     1.119   
    1.667       0.1278E-2     1.104       0.1334E-2     1.119   
    1.682       0.1290E-2     1.105       0.1347E-2     1.120   
    1.697       0.1302E-2     1.105       0.1360E-2     1.120   
    1.712       0.1314E-2     1.105       0.1372E-2     1.120   
    1.727       0.1326E-2     1.105       0.1385E-2     1.120   
    1.742       0.1338E-2     1.105       0.1398E-2     1.120   
    1.757       0.1350E-2     1.106       0.1410E-2     1.121   
    1.772       0.1362E-2     1.106       0.1423E-2     1.121   
    1.787       0.1374E-2     1.106       0.1436E-2     1.121   
    1.802       0.1387E-2     1.106       0.1448E-2     1.121   
    1.817       0.1399E-2     1.106       0.1461E-2     1.121   
    1.832       0.1411E-2     1.107       0.1474E-2     1.122   
    1.847       0.1423E-2     1.107       0.1487E-2     1.122   
    1.862       0.1435E-2     1.107       0.1499E-2     1.122   
    1.877       0.1448E-2     1.107       0.1512E-2     1.122   
    1.892       0.1460E-2     1.108       0.1525E-2     1.123   
    1.907       0.1472E-2     1.108       0.1538E-2     1.123   
    1.922       0.1484E-2     1.108       0.1551E-2     1.123   
    1.937       0.1497E-2     1.108       0.1564E-2     1.123   
    1.952       0.1509E-2     1.108       0.1577E-2     1.124   
    1.967       0.1521E-2     1.109       0.1590E-2     1.124   
    1.982       0.1534E-2     1.109       0.1602E-2     1.124   
    1.997       0.1546E-2     1.109       0.1615E-2     1.124   
    2.012       0.1559E-2     1.109       0.1628E-2     1.124   
    2.027       0.1571E-2     1.110       0.1641E-2     1.125   
    2.042       0.1583E-2     1.110       0.1654E-2     1.125   
    2.057       0.1596E-2     1.110       0.1667E-2     1.125   
    2.072       0.1608E-2     1.110       0.1681E-2     1.125   
    2.087       0.1621E-2     1.111       0.1694E-2     1.126   
    2.102       0.1633E-2     1.111       0.1707E-2     1.126   
    2.117       0.1646E-2     1.111       0.1720E-2     1.126   
    2.132       0.1658E-2     1.111       0.1733E-2     1.127   
    2.147       0.1671E-2     1.112       0.1746E-2     1.127   
    2.162       0.1684E-2     1.112       0.1759E-2     1.127   
    2.177       0.1696E-2     1.112       0.1773E-2     1.127   
    2.192       0.1709E-2     1.112       0.1786E-2     1.128   
    2.207       0.1721E-2     1.113       0.1799E-2     1.128   
    2.222       0.1734E-2     1.113       0.1812E-2     1.128   
    2.237       0.1747E-2     1.113       0.1826E-2     1.128   
    2.252       0.1759E-2     1.113       0.1839E-2     1.129   
    2.267       0.1772E-2     1.114       0.1852E-2     1.129   
    2.282       0.1785E-2     1.114       0.1866E-2     1.129   
    2.297       0.1798E-2     1.114       0.1879E-2     1.129   
    2.312       0.1810E-2     1.114       0.1892E-2     1.130   
    2.327       0.1823E-2     1.115       0.1906E-2     1.130   
    2.342       0.1836E-2     1.115       0.1919E-2     1.130   
    2.357       0.1849E-2     1.115       0.1933E-2     1.131   
    2.372       0.1862E-2     1.115       0.1946E-2     1.131   
    2.387       0.1875E-2     1.116       0.1960E-2     1.131   
    2.402       0.1888E-2     1.116       0.1973E-2     1.132   
    2.417       0.1901E-2     1.116       0.1987E-2     1.132   
    2.432       0.1914E-2     1.117       0.2000E-2     1.132   
    2.447       0.1927E-2     1.117       0.2014E-2     1.132   
    2.462       0.1940E-2     1.117       0.2028E-2     1.133   
    2.477       0.1953E-2     1.117       0.2041E-2     1.133   
    2.492       0.1966E-2     1.118       0.2055E-2     1.133   
    2.508       0.1979E-2     1.118       0.2069E-2     1.134   
    2.523       0.1992E-2     1.118       0.2083E-2     1.134   
    2.538       0.2005E-2     1.119       0.2096E-2     1.134   
    2.553       0.2018E-2     1.119       0.2110E-2     1.135   
    2.568       0.2031E-2     1.119       0.2124E-2     1.135   
    2.583       0.2044E-2     1.120       0.2138E-2     1.135   
    2.598       0.2058E-2     1.120       0.2152E-2     1.136   
    2.613       0.2071E-2     1.120       0.2166E-2     1.136   
    2.628       0.2084E-2     1.121       0.2180E-2     1.136   
    2.643       0.2098E-2     1.121       0.2193E-2     1.137   
    2.658       0.2111E-2     1.121       0.2207E-2     1.137   
    2.673       0.2124E-2     1.121       0.2221E-2     1.137   
    2.688       0.2138E-2     1.122       0.2236E-2     1.138   
    2.703       0.2151E-2     1.122       0.2250E-2     1.138   
    2.718       0.2164E-2     1.122       0.2264E-2     1.138   
    2.733       0.2178E-2     1.123       0.2278E-2     1.139   
    2.748       0.2191E-2     1.123       0.2292E-2     1.139   
    2.763       0.2205E-2     1.123       0.2306E-2     1.139   
    2.778       0.2218E-2     1.124       0.2320E-2     1.140   
    2.793       0.2232E-2     1.124       0.2335E-2     1.140   
    2.808       0.2246E-2     1.124       0.2349E-2     1.140   
    2.823       0.2259E-2     1.125       0.2363E-2     1.141   
    2.838       0.2273E-2     1.125       0.2378E-2     1.141   
    2.853       0.2286E-2     1.125       0.2392E-2     1.141   
    2.868       0.2300E-2     1.126       0.2406E-2     1.142   
    2.883       0.2314E-2     1.126       0.2421E-2     1.142   
    2.898       0.2328E-2     1.126       0.2435E-2     1.142   
    2.913       0.2341E-2     1.127       0.2450E-2     1.143   
    2.928       0.2355E-2     1.127       0.2464E-2     1.143   
    2.943       0.2369E-2     1.128       0.2479E-2     1.144   
    2.958       0.2383E-2     1.128       0.2493E-2     1.144   
    2.973       0.2397E-2     1.128       0.2508E-2     1.144   
    2.988       0.2411E-2     1.129       0.2523E-2     1.145   
    3.003       0.2425E-2     1.129       0.2537E-2     1.145   
    3.018       0.2439E-2     1.129       0.2552E-2     1.145   
    3.033       0.2453E-2     1.130       0.2567E-2     1.146   
    3.048       0.2467E-2     1.130       0.2582E-2     1.146   
    3.063       0.2481E-2     1.130       0.2596E-2     1.147   
    3.078       0.2495E-2     1.131       0.2611E-2     1.147   
    3.093       0.2509E-2     1.131       0.2626E-2     1.147   
    3.108       0.2523E-2     1.132       0.2641E-2     1.148   
    3.123       0.2538E-2     1.132       0.2656E-2     1.148   
    3.138       0.2552E-2     1.132       0.2671E-2     1.149   
    3.153       0.2566E-2     1.133       0.2686E-2     1.149   
    3.168       0.2580E-2     1.133       0.2701E-2     1.149   
    3.183       0.2595E-2     1.134       0.2716E-2     1.150   
    3.198       0.2609E-2     1.134       0.2731E-2     1.150   
    3.213       0.2623E-2     1.134       0.2746E-2     1.151   
    3.228       0.2638E-2     1.135       0.2762E-2     1.151   
    3.243       0.2652E-2     1.135       0.2777E-2     1.151   
    3.258       0.2667E-2     1.135       0.2792E-2     1.152   
    3.273       0.2681E-2     1.136       0.2807E-2     1.152   
    3.288       0.2696E-2     1.136       0.2823E-2     1.153   
    3.303       0.2711E-2     1.137       0.2838E-2     1.153   
    3.318       0.2725E-2     1.137       0.2854E-2     1.154   
    3.333       0.2740E-2     1.138       0.2869E-2     1.154   
    3.348       0.2755E-2     1.138       0.2885E-2     1.154   
    3.363       0.2769E-2     1.138       0.2900E-2     1.155   
    3.378       0.2784E-2     1.139       0.2916E-2     1.155   
    3.393       0.2799E-2     1.139       0.2931E-2     1.156   
    3.408       0.2814E-2     1.140       0.2947E-2     1.156   
    3.423       0.2829E-2     1.140       0.2963E-2     1.157   
    3.438       0.2844E-2     1.140       0.2978E-2     1.157   
    3.453       0.2859E-2     1.141       0.2994E-2     1.157   
    3.468       0.2874E-2     1.141       0.3010E-2     1.158   
    3.483       0.2889E-2     1.142       0.3026E-2     1.158   
    3.498       0.2904E-2     1.142       0.3042E-2     1.159   
    3.514       0.2919E-2     1.143       0.3058E-2     1.159   
    3.529       0.2934E-2     1.143       0.3074E-2     1.160   
    3.544       0.2949E-2     1.143       0.3090E-2     1.160   
    3.559       0.2965E-2     1.144       0.3106E-2     1.161   
    3.574       0.2980E-2     1.144       0.3122E-2     1.161   
    3.589       0.2995E-2     1.145       0.3138E-2     1.162   
    3.604       0.3010E-2     1.145       0.3154E-2     1.162   
    3.619       0.3026E-2     1.146       0.3171E-2     1.163   
    3.634       0.3041E-2     1.146       0.3187E-2     1.163   
    3.649       0.3057E-2     1.147       0.3203E-2     1.164   
    3.664       0.3072E-2     1.147       0.3220E-2     1.164   
    3.679       0.3088E-2     1.148       0.3236E-2     1.164   
    3.694       0.3103E-2     1.148       0.3253E-2     1.165   
    3.709       0.3119E-2     1.148       0.3269E-2     1.165   
    3.724       0.3135E-2     1.149       0.3286E-2     1.166   
    3.739       0.3151E-2     1.149       0.3302E-2     1.166   
    3.754       0.3166E-2     1.150       0.3319E-2     1.167   
    3.769       0.3182E-2     1.150       0.3336E-2     1.167   
    3.784       0.3198E-2     1.151       0.3352E-2     1.168   
    3.799       0.3214E-2     1.151       0.3369E-2     1.168   
    3.814       0.3230E-2     1.152       0.3386E-2     1.169   
    3.829       0.3246E-2     1.152       0.3403E-2     1.169   
    3.844       0.3262E-2     1.153       0.3420E-2     1.170   
    3.859       0.3278E-2     1.153       0.3437E-2     1.170   
    3.874       0.3294E-2     1.154       0.3454E-2     1.171   
    3.889       0.3310E-2     1.154       0.3471E-2     1.172   
    3.904       0.3326E-2     1.155       0.3488E-2     1.172   
    3.919       0.3343E-2     1.155       0.3505E-2     1.173   
    3.934       0.3359E-2     1.156       0.3523E-2     1.173   
    3.949       0.3375E-2     1.156       0.3540E-2     1.174   
    3.964       0.3392E-2     1.157       0.3557E-2     1.174   
    3.979       0.3408E-2     1.157       0.3575E-2     1.175   
    3.994       0.3425E-2     1.158       0.3592E-2     1.175   
    4.009       0.3441E-2     1.158       0.3610E-2     1.176   
    4.024       0.3458E-2     1.159       0.3627E-2     1.176   
    4.039       0.3474E-2     1.159       0.3645E-2     1.177   
    4.054       0.3491E-2     1.160       0.3662E-2     1.177   
    4.069       0.3508E-2     1.160       0.3680E-2     1.178   
    4.084       0.3525E-2     1.161       0.3698E-2     1.179   
    4.099       0.3541E-2     1.161       0.3716E-2     1.179   
    4.114       0.3558E-2     1.162       0.3734E-2     1.180   
    4.129       0.3575E-2     1.163       0.3752E-2     1.180   
    4.144       0.3592E-2     1.163       0.3770E-2     1.181   
    4.159       0.3609E-2     1.164       0.3788E-2     1.181   
    4.174       0.3626E-2     1.164       0.3806E-2     1.182   
    4.189       0.3643E-2     1.165       0.3824E-2     1.182   
    4.204       0.3661E-2     1.165       0.3842E-2     1.183   
    4.219       0.3678E-2     1.166       0.3860E-2     1.184   
    4.234       0.3695E-2     1.166       0.3879E-2     1.184   
    4.249       0.3713E-2     1.167       0.3897E-2     1.185   
    4.264       0.3730E-2     1.167       0.3916E-2     1.185   
    4.279       0.3747E-2     1.168       0.3934E-2     1.186   
    4.294       0.3765E-2     1.169       0.3953E-2     1.187   
    4.309       0.3783E-2     1.169       0.3971E-2     1.187   
    4.324       0.3800E-2     1.170       0.3990E-2     1.188   
    4.339       0.3818E-2     1.170       0.4009E-2     1.188   
    4.354       0.3836E-2     1.171       0.4028E-2     1.189   
    4.369       0.3853E-2     1.171       0.4046E-2     1.190   
    4.384       0.3871E-2     1.172       0.4065E-2     1.190   
    4.399       0.3889E-2     1.173       0.4084E-2     1.191   
    4.414       0.3907E-2     1.173       0.4103E-2     1.191   
    4.429       0.3925E-2     1.174       0.4123E-2     1.192   
    4.444       0.3943E-2     1.174       0.4142E-2     1.193   
    4.459       0.3961E-2     1.175       0.4161E-2     1.193   
    4.474       0.3979E-2     1.176       0.4180E-2     1.194   
    4.489       0.3998E-2     1.176       0.4200E-2     1.195   
    4.505       0.4016E-2     1.177       0.4219E-2     1.195   
    4.520       0.4034E-2     1.177       0.4239E-2     1.196   
    4.535       0.4053E-2     1.178       0.4258E-2     1.196   
    4.550       0.4071E-2     1.179       0.4278E-2     1.197   
    4.565       0.4090E-2     1.179       0.4298E-2     1.198   
    4.580       0.4109E-2     1.180       0.4318E-2     1.198   
    4.595       0.4127E-2     1.180       0.4337E-2     1.199   
    4.610       0.4146E-2     1.181       0.4357E-2     1.200   
    4.625       0.4165E-2     1.182       0.4377E-2     1.200   
    4.640       0.4184E-2     1.182       0.4397E-2     1.201   
    4.655       0.4203E-2     1.183       0.4418E-2     1.202   
    4.670       0.4222E-2     1.184       0.4438E-2     1.202   
    4.685       0.4241E-2     1.184       0.4458E-2     1.203   
    4.700       0.4260E-2     1.185       0.4478E-2     1.204   
    4.715       0.4279E-2     1.186       0.4499E-2     1.204   
    4.730       0.4298E-2     1.186       0.4519E-2     1.205   
    4.745       0.4318E-2     1.187       0.4540E-2     1.206   
    4.760       0.4337E-2     1.187       0.4561E-2     1.206   
    4.775       0.4357E-2     1.188       0.4581E-2     1.207   
    4.790       0.4376E-2     1.189       0.4602E-2     1.208   
    4.805       0.4396E-2     1.189       0.4623E-2     1.208   
    4.820       0.4415E-2     1.190       0.4644E-2     1.209   
    4.835       0.4435E-2     1.191       0.4665E-2     1.210   
    4.850       0.4455E-2     1.191       0.4686E-2     1.211   
    4.865       0.4475E-2     1.192       0.4707E-2     1.211   
    4.880       0.4495E-2     1.193       0.4729E-2     1.212   
    4.895       0.4515E-2     1.193       0.4750E-2     1.213   
    4.910       0.4535E-2     1.194       0.4772E-2     1.213   
    4.925       0.4555E-2     1.195       0.4793E-2     1.214   
    4.940       0.4575E-2     1.195       0.4815E-2     1.215   
    4.955       0.4596E-2     1.196       0.4836E-2     1.216   
    4.970       0.4616E-2     1.197       0.4858E-2     1.216   
    4.985       0.4636E-2     1.198       0.4880E-2     1.217   
    5.000       0.4657E-2     1.198       0.4902E-2     1.218   
    5.015       0.4678E-2     1.199       0.4924E-2     1.218   
    5.030       0.4698E-2     1.200       0.4946E-2     1.219   
    5.045       0.4719E-2     1.200       0.4968E-2     1.220   
    5.060       0.4740E-2     1.201       0.4990E-2     1.221   
    5.075       0.4761E-2     1.202       0.5013E-2     1.221   
    5.090       0.4782E-2     1.202       0.5035E-2     1.222   
    5.105       0.4803E-2     1.203       0.5058E-2     1.223   
    5.120       0.4824E-2     1.204       0.5080E-2     1.224   
    5.135       0.4845E-2     1.205       0.5103E-2     1.224   
    5.150       0.4867E-2     1.205       0.5126E-2     1.225   
    5.165       0.4888E-2     1.206       0.5149E-2     1.226   
    5.180       0.4910E-2     1.207       0.5172E-2     1.227   
    5.195       0.4931E-2     1.208       0.5195E-2     1.228   
    5.210       0.4953E-2     1.208       0.5218E-2     1.228   
    5.225       0.4975E-2     1.209       0.5241E-2     1.229   
    5.240       0.4997E-2     1.210       0.5265E-2     1.230   
    5.255       0.5018E-2     1.211       0.5288E-2     1.231   
    5.270       0.5040E-2     1.211       0.5312E-2     1.231   
    5.285       0.5063E-2     1.212       0.5335E-2     1.232   
    5.300       0.5085E-2     1.213       0.5359E-2     1.233   
    5.315       0.5107E-2     1.214       0.5383E-2     1.234   
    5.330       0.5129E-2     1.214       0.5407E-2     1.235   
    5.345       0.5152E-2     1.215       0.5431E-2     1.236   
    5.360       0.5174E-2     1.216       0.5455E-2     1.236   
    5.375       0.5197E-2     1.217       0.5479E-2     1.237   
    5.390       0.5220E-2     1.217       0.5504E-2     1.238   
    5.405       0.5242E-2     1.218       0.5528E-2     1.239   
    5.420       0.5265E-2     1.219       0.5553E-2     1.240   
    5.435       0.5288E-2     1.220       0.5577E-2     1.240   
    5.450       0.5311E-2     1.221       0.5602E-2     1.241   
    5.465       0.5335E-2     1.221       0.5627E-2     1.242   
    5.480       0.5358E-2     1.222       0.5652E-2     1.243   
    5.495       0.5381E-2     1.223       0.5677E-2     1.244   
    5.511       0.5405E-2     1.224       0.5702E-2     1.245   
    5.526       0.5428E-2     1.225       0.5728E-2     1.246   
    5.541       0.5452E-2     1.226       0.5753E-2     1.246   
    5.556       0.5476E-2     1.226       0.5779E-2     1.247   
    5.571       0.5500E-2     1.227       0.5804E-2     1.248   
    5.586       0.5524E-2     1.228       0.5830E-2     1.249   
    5.601       0.5548E-2     1.229       0.5856E-2     1.250   
    5.616       0.5572E-2     1.230       0.5882E-2     1.251   
    5.631       0.5596E-2     1.230       0.5908E-2     1.252   
    5.646       0.5620E-2     1.231       0.5934E-2     1.253   
    5.661       0.5645E-2     1.232       0.5960E-2     1.253   
    5.676       0.5670E-2     1.233       0.5987E-2     1.254   
      5.6907       0.0057       1.2339       0.0060       1.2553
      5.7057       0.0057       1.2347       0.0060       1.2562
      5.7207       0.0057       1.2356       0.0061       1.2571
      5.7357       0.0058       1.2364       0.0061       1.2580
      5.7508       0.0058       1.2373       0.0061       1.2589
      5.7658       0.0058       1.2382       0.0061       1.2598
      5.7808       0.0058       1.2391       0.0062       1.2608
      5.7958       0.0059       1.2399       0.0062       1.2617
      5.8108       0.0059       1.2408       0.0062       1.2626
      5.8258       0.0059       1.2417       0.0063       1.2636
      5.8408       0.0059       1.2426       0.0063       1.2645
      5.8559       0.0060       1.2435       0.0063       1.2654
      5.8709       0.0060       1.2444       0.0063       1.2664
      5.8859       0.0060       1.2453       0.0064       1.2673
      5.9009       0.0061       1.2462       0.0064       1.2683
      5.9159       0.0061       1.2471       0.0064       1.2693
      5.9309       0.0061       1.2480       0.0065       1.2702
      5.9459       0.0061       1.2489       0.0065       1.2712
      5.9610       0.0062       1.2499       0.0065       1.2722
      5.9760       0.0062       1.2508       0.0065       1.2732
      5.9910       0.0062       1.2517       0.0066       1.2741
      6.0060       0.0062       1.2527       0.0066       1.2751
      6.0210       0.0063       1.2536       0.0066       1.2761
      6.0360       0.0063       1.2545       0.0067       1.2771
      6.0511       0.0063       1.2555       0.0067       1.2781
      6.0661       0.0063       1.2564       0.0067       1.2791
      6.0811       0.0064       1.2574       0.0067       1.2801
      6.0961       0.0064       1.2584       0.0068       1.2812
      6.1111       0.0064       1.2593       0.0068       1.2822
      6.1261       0.0065       1.2603       0.0068       1.2832
      6.1411       0.0065       1.2613       0.0069       1.2842
      6.1562       0.0065       1.2622       0.0069       1.2853
      6.1712       0.0065       1.2632       0.0069       1.2863
      6.1862       0.0066       1.2642       0.0070       1.2873
      6.2012       0.0066       1.2652       0.0070       1.2884
      6.2162       0.0066       1.2662       0.0070       1.2894
      6.2312       0.0067       1.2672       0.0071       1.2905
      6.2462       0.0067       1.2682       0.0071       1.2916
      6.2613       0.0067       1.2692       0.0071       1.2926
      6.2763       0.0067       1.2702       0.0072       1.2937
      6.2913       0.0068       1.2712       0.0072       1.2948
      6.3063       0.0068       1.2722       0.0072       1.2959
      6.3213       0.0068       1.2733       0.0073       1.2969
      6.3363       0.0069       1.2743       0.0073       1.2980
      6.3514       0.0069       1.2753       0.0073       1.2991
      6.3664       0.0069       1.2764       0.0073       1.3002
      6.3814       0.0070       1.2774       0.0074       1.3013
      6.3964       0.0070       1.2784       0.0074       1.3024
      6.4114       0.0070       1.2795       0.0074       1.3036
      6.4264       0.0071       1.2806       0.0075       1.3047
      6.4414       0.0071       1.2816       0.0075       1.3058
      6.4565       0.0071       1.2827       0.0076       1.3069
      6.4715       0.0071       1.2838       0.0076       1.3081
      6.4865       0.0072       1.2848       0.0076       1.3092
      6.5015       0.0072       1.2859       0.0077       1.3104
      6.5165       0.0072       1.2870       0.0077       1.3115
      6.5315       0.0073       1.2881       0.0077       1.3127
      6.5465       0.0073       1.2892       0.0078       1.3138
      6.5616       0.0073       1.2903       0.0078       1.3150
      6.5766       0.0074       1.2914       0.0078       1.3162
      6.5916       0.0074       1.2925       0.0079       1.3174
      6.6066       0.0074       1.2936       0.0079       1.3185
      6.6216       0.0075       1.2947       0.0079       1.3197
      6.6366       0.0075       1.2958       0.0080       1.3209
      6.6517       0.0075       1.2970       0.0080       1.3221
      6.6667       0.0076       1.2981       0.0080       1.3233
      6.6817       0.0076       1.2992       0.0081       1.3245
      6.6967       0.0076       1.3004       0.0081       1.3258
      6.7117       0.0077       1.3015       0.0082       1.3270
      6.7267       0.0077       1.3027       0.0082       1.3282
      6.7417       0.0077       1.3039       0.0082       1.3294
      6.7568       0.0078       1.3050       0.0083       1.3307
      6.7718       0.0078       1.3062       0.0083       1.3319
      6.7868       0.0078       1.3074       0.0084       1.3332
      6.8018       0.0079       1.3085       0.0084       1.3344
      6.8168       0.0079       1.3097       0.0084       1.3357
      6.8318       0.0080       1.3109       0.0085       1.3370
      6.8468       0.0080       1.3121       0.0085       1.3382
      6.8619       0.0080       1.3133       0.0085       1.3395
      6.8769       0.0081       1.3145       0.0086       1.3408
      6.8919       0.0081       1.3157       0.0086       1.3421
      6.9069       0.0081       1.3170       0.0087       1.3434
      6.9219       0.0082       1.3182       0.0087       1.3447
      6.9369       0.0082       1.3194       0.0088       1.3460
      6.9520       0.0082       1.3206       0.0088       1.3473
      6.9670       0.0083       1.3219       0.0088       1.3486
      6.9820       0.0083       1.3231       0.0089       1.3500
      6.9970       0.0084       1.3244       0.0089       1.3513
      7.0120       0.0084       1.3256       0.0090       1.3526
      7.0270       0.0084       1.3269       0.0090       1.3540
      7.0420       0.0085       1.3282       0.0090       1.3553
      7.0571       0.0085       1.3295       0.0091       1.3567
      7.0721       0.0086       1.3307       0.0091       1.3581
      7.0871       0.0086       1.3320       0.0092       1.3594
      7.1021       0.0086       1.3333       0.0092       1.3608
      7.1171       0.0087       1.3346       0.0093       1.3622
      7.1321       0.0087       1.3359       0.0093       1.3636
      7.1471       0.0088       1.3372       0.0094       1.3650
      7.1622       0.0088       1.3386       0.0094       1.3664
      7.1772       0.0088       1.3399       0.0094       1.3678
      7.1922       0.0089       1.3412       0.0095       1.3692
      7.2072       0.0089       1.3425       0.0095       1.3707
      7.2222       0.0090       1.3439       0.0096       1.3721
      7.2372       0.0090       1.3452       0.0096       1.3735
      7.2523       0.0090       1.3466       0.0097       1.3750
      7.2673       0.0091       1.3479       0.0097       1.3765
      7.2823       0.0091       1.3493       0.0098       1.3779
      7.2973       0.0092       1.3507       0.0098       1.3794
      7.3123       0.0092       1.3521       0.0099       1.3809
      7.3273       0.0093       1.3535       0.0099       1.3823
      7.3423       0.0093       1.3548       0.0100       1.3838
      7.3574       0.0094       1.3562       0.0100       1.3853
      7.3724       0.0094       1.3577       0.0101       1.3868
      7.3874       0.0094       1.3591       0.0101       1.3884
      7.4024       0.0095       1.3605       0.0102       1.3899
      7.4174       0.0095       1.3619       0.0102       1.3914
      7.4324       0.0096       1.3633       0.0103       1.3929
      7.4474       0.0096       1.3648       0.0103       1.3945
      7.4625       0.0097       1.3662       0.0104       1.3960
      7.4775       0.0097       1.3677       0.0104       1.3976
      7.4925       0.0098       1.3692       0.0105       1.3992
      7.5075       0.0098       1.3706       0.0105       1.4007
      7.5225       0.0099       1.3721       0.0106       1.4023
      7.5375       0.0099       1.3736       0.0106       1.4039
      7.5526       0.0100       1.3751       0.0107       1.4055
      7.5676       0.0100       1.3766       0.0107       1.4071
     7.58258      0.01005      1.37807      0.01078      1.40872
     7.59760      0.01010      1.37958      0.01084      1.41034
     7.61261      0.01015      1.38110      0.01089      1.41197
     7.62763      0.01020      1.38263      0.01095      1.41361
     7.64264      0.01025      1.38416      0.01100      1.41526
     7.65766      0.01030      1.38570      0.01106      1.41691
     7.67267      0.01035      1.38725      0.01112      1.41858
     7.68769      0.01040      1.38881      0.01117      1.42025
     7.70270      0.01045      1.39037      0.01123      1.42193
     7.71772      0.01050      1.39194      0.01129      1.42362
     7.73273      0.01055      1.39352      0.01135      1.42532
     7.74775      0.01061      1.39511      0.01141      1.42703
     7.76276      0.01066      1.39671      0.01147      1.42874
     7.77778      0.01071      1.39831      0.01153      1.43047
     7.79279      0.01076      1.39992      0.01159      1.43220
     7.80781      0.01082      1.40154      0.01165      1.43395
     7.82282      0.01087      1.40317      0.01171      1.43570
     7.83784      0.01093      1.40480      0.01177      1.43746
     7.85285      0.01098      1.40645      0.01183      1.43923
     7.86787      0.01104      1.40810      0.01190      1.44101
     7.88288      0.01109      1.40976      0.01196      1.44280
     7.89790      0.01115      1.41143      0.01202      1.44460
     7.91291      0.01121      1.41311      0.01209      1.44641
     7.92793      0.01127      1.41479      0.01215      1.44823
     7.94294      0.01132      1.41649      0.01222      1.45006
     7.95796      0.01138      1.41819      0.01228      1.45189
     7.97297      0.01144      1.41990      0.01235      1.45374
     7.98799      0.01150      1.42163      0.01242      1.45560
     8.00300      0.01156      1.42336      0.01248      1.45747
     8.01802      0.01162      1.42509      0.01255      1.45935
     8.03303      0.01168      1.42684      0.01262      1.46123
     8.04805      0.01174      1.42860      0.01269      1.46313
     8.06306      0.01180      1.43036      0.01276      1.46504
     8.07808      0.01186      1.43214      0.01283      1.46696
     8.09309      0.01192      1.43393      0.01290      1.46889
     8.10811      0.01199      1.43572      0.01297      1.47083
     8.12312      0.01205      1.43752      0.01304      1.47278
     8.13814      0.01211      1.43934      0.01311      1.47475
     8.15315      0.01218      1.44116      0.01319      1.47672
     8.16817      0.01224      1.44299      0.01326      1.47870
     8.18318      0.01231      1.44483      0.01334      1.48070
     8.19820      0.01237      1.44668      0.01341      1.48271
     8.21321      0.01244      1.44855      0.01349      1.48472
     8.22823      0.01251      1.45042      0.01356      1.48675
     8.24324      0.01257      1.45230      0.01364      1.48879
     8.25826      0.01264      1.45419      0.01372      1.49085
     8.27327      0.01271      1.45609      0.01380      1.49291
     8.28829      0.01278      1.45801      0.01388      1.49499
     8.30330      0.01285      1.45993      0.01396      1.49707
     8.31832      0.01292      1.46186      0.01404      1.49917
     8.33333      0.01299      1.46381      0.01412      1.50129
     8.34835      0.01306      1.46576      0.01420      1.50341
     8.36336      0.01314      1.46773      0.01428      1.50555
     8.37838      0.01321      1.46970      0.01437      1.50770
     8.39339      0.01328      1.47169      0.01445      1.50986
     8.40841      0.01336      1.47369      0.01454      1.51203
     8.42342      0.01343      1.47570      0.01462      1.51422
     8.43844      0.01351      1.47772      0.01471      1.51642
     8.45345      0.01358      1.47975      0.01480      1.51864
     8.46847      0.01366      1.48179      0.01489      1.52086
     8.48348      0.01374      1.48385      0.01498      1.52310
     8.49850      0.01381      1.48592      0.01507      1.52536
     8.51351      0.01389      1.48799      0.01516      1.52762
     8.52853      0.01397      1.49009      0.01525      1.52990
     8.54354      0.01405      1.49219      0.01534      1.53220
     8.55856      0.01413      1.49430      0.01544      1.53451
     8.57357      0.01421      1.49643      0.01553      1.53683
     8.58859      0.01430      1.49857      0.01563      1.53917
     8.60360      0.01438      1.50072      0.01573      1.54152
     8.61862      0.01446      1.50288      0.01583      1.54389
     8.63363      0.01455      1.50506      0.01592      1.54627
     8.64865      0.01463      1.50725      0.01602      1.54866
     8.66366      0.01472      1.50945      0.01613      1.55108
     8.67868      0.01481      1.51166      0.01623      1.55350
     8.69369      0.01490      1.51389      0.01633      1.55594
     8.70871      0.01498      1.51613      0.01644      1.55840
     8.72372      0.01507      1.51839      0.01654      1.56088
     8.73874      0.01517      1.52066      0.01665      1.56336
     8.75375      0.01526      1.52294      0.01676      1.56587
     8.76877      0.01535      1.52523      0.01686      1.56839
     8.78378      0.01544      1.52754      0.01698      1.57093
     8.79880      0.01554      1.52987      0.01709      1.57348
     8.81381      0.01563      1.53221      0.01720      1.57605
     8.82883      0.01573      1.53456      0.01731      1.57864
     8.84384      0.01583      1.53692      0.01743      1.58125
     8.85886      0.01592      1.53931      0.01755      1.58387
     8.87387      0.01602      1.54170      0.01766      1.58651
     8.88889      0.01612      1.54411      0.01778      1.58917
     8.90390      0.01623      1.54654      0.01790      1.59184
     8.91892      0.01633      1.54898      0.01803      1.59454
     8.93393      0.01643      1.55144      0.01815      1.59725
     8.94895      0.01654      1.55391      0.01828      1.59998
     8.96396      0.01664      1.55640      0.01840      1.60273
     8.97898      0.01675      1.55890      0.01853      1.60550
     8.99399      0.01686      1.56142      0.01866      1.60829
     9.00901      0.01697      1.56396      0.01879      1.61110
     9.02402      0.01708      1.56651      0.01892      1.61393
     9.03904      0.01719      1.56908      0.01906      1.61677
     9.05405      0.01730      1.57167      0.01920      1.61964
     9.06907      0.01742      1.57427      0.01933      1.62253
     9.08408      0.01753      1.57689      0.01947      1.62544
     9.09910      0.01765      1.57953      0.01962      1.62837
     9.11411      0.01777      1.58219      0.01976      1.63132
     9.12913      0.01789      1.58486      0.01991      1.63430
     9.14414      0.01801      1.58755      0.02005      1.63729
     9.15916      0.01813      1.59026      0.02020      1.64031
     9.17417      0.01826      1.59299      0.02036      1.64335
     9.18919      0.01838      1.59574      0.02051      1.64641
     9.20420      0.01851      1.59851      0.02066      1.64950
     9.21922      0.01864      1.60129      0.02082      1.65261
     9.23423      0.01877      1.60410      0.02098      1.65574
     9.24925      0.01890      1.60692      0.02115      1.65890
     9.26426      0.01903      1.60976      0.02131      1.66208
     9.27928      0.01917      1.61263      0.02148      1.66529
     9.29429      0.01931      1.61551      0.02165      1.66852
     9.30931      0.01944      1.61842      0.02182      1.67178
     9.32432      0.01959      1.62134      0.02199      1.67506
     9.33934      0.01973      1.62429      0.02217      1.67837
     9.35435      0.01987      1.62726      0.02235      1.68171
     9.36937      0.02002      1.63025      0.02253      1.68507
     9.38438      0.02017      1.63326      0.02272      1.68846
     9.39940      0.02032      1.63630      0.02291      1.69188
     9.41442      0.02047      1.63936      0.02310      1.69533
     9.42943      0.02062      1.64244      0.02330      1.69881
     9.44444      0.02078      1.64554      0.02349      1.70231
     9.45946      0.02094      1.64867      0.02369      1.70585
     9.47447      0.02110      1.65182      0.02390      1.70941
     9.48949      0.02126      1.65499      0.02411      1.71301
     9.50451      0.02143      1.65819      0.02432      1.71664
     9.51952      0.02160      1.66142      0.02453      1.72030
     9.53453      0.02177      1.66467      0.02475      1.72399
     9.54955      0.02194      1.66794      0.02497      1.72771
     9.56456      0.02212      1.67124      0.02520      1.73147
     9.57958      0.02229      1.67457      0.02543      1.73526
     9.59459      0.02248      1.67793      0.02566      1.73909
     9.60961      0.02266      1.68131      0.02590      1.74295
     9.62462      0.02285      1.68472      0.02614      1.74685
     9.63964      0.02304      1.68816      0.02639      1.75078
     9.65465      0.02323      1.69162      0.02664      1.75475
     9.66967      0.02342      1.69512      0.02690      1.75876
     9.68469      0.02362      1.69864      0.02716      1.76281
     9.69970      0.02382      1.70220      0.02743      1.76689
     9.71472      0.02403      1.70578      0.02770      1.77102
     9.72973      0.02424      1.70940      0.02798      1.77519
     9.74475      0.02445      1.71305      0.02826      1.77940
     9.75976      0.02467      1.71673      0.02855      1.78365
     9.77478      0.02489      1.72044      0.02884      1.78794
     9.78979      0.02511      1.72418      0.02914      1.79228
     9.80480      0.02534      1.72796      0.02945      1.79667
     9.81982      0.02557      1.73177      0.02976      1.80110
     9.83484      0.02581      1.73562      0.03008      1.80557
     9.84985      0.02605      1.73950      0.03041      1.81010
     9.86487      0.02629      1.74342      0.03075      1.81468
     9.87988      0.02654      1.74738      0.03109      1.81930
     9.89489      0.02679      1.75137      0.03144      1.82398
     9.90991      0.02705      1.75540      0.03180      1.82871
     9.92492      0.02732      1.75947      0.03217      1.83349
     9.93994      0.02758      1.76358      0.03254      1.83833
     9.95496      0.02786      1.76773      0.03293      1.84322
     9.96997      0.02814      1.77193      0.03332      1.84817
     9.98499      0.02842      1.77616      0.03373      1.85318
    10.00000      0.02872      1.78044      0.03414      1.85825
    10.01502      0.02901      1.78476      0.03457      1.86339
    10.03003      0.02932      1.78912      0.03500      1.86859
    10.04505      0.02963      1.79353      0.03545      1.87385
    10.06006      0.02994      1.79799      0.03591      1.87918
    10.07508      0.03027      1.80249      0.03638      1.88458
    10.09009      0.03060      1.80704      0.03687      1.89005
    10.10511      0.03094      1.81165      0.03737      1.89559
    10.12012      0.03128      1.81630      0.03788      1.90120
    10.13514      0.03164      1.82101      0.03841      1.90690
    10.15015      0.03200      1.82576      0.03896      1.91267
    10.16516      0.03237      1.83058      0.03952      1.91852
    10.18018      0.03275      1.83545      0.04010      1.92446
    10.19520      0.03314      1.84037      0.04070      1.93049
    10.21021      0.03354      1.84536      0.04131      1.93660
    10.22523      0.03395      1.85040      0.04195      1.94280
    10.24024      0.03437      1.85550      0.04261      1.94910
    10.25526      0.03480      1.86067      0.04328      1.95550
    10.27027      0.03525      1.86590      0.04399      1.96200
    10.28529      0.03570      1.87120      0.04471      1.96860
    10.30030      0.03617      1.87657      0.04547      1.97531
    10.31532      0.03665      1.88201      0.04625      1.98213
    10.33033      0.03714      1.88752      0.04706      1.98907
    10.34535      0.03765      1.89310      0.04790      1.99613
    10.36036      0.03817      1.89876      0.04877      2.00331
    10.37538      0.03871      1.90449      0.04968      2.01062
    10.39039      0.03927      1.91031      0.05062      2.01806
    10.40541      0.03984      1.91621      0.05160      2.02565
    10.42042      0.04043      1.92219      0.05262      2.03338
    10.43544      0.04104      1.92826      0.05369      2.04126
    10.45045      0.04166      1.93443      0.05480      2.04929
    10.46547      0.04231      1.94068      0.05596      2.05749
    10.48048      0.04298      1.94704      0.05718      2.06586
    10.49550      0.04368      1.95349      0.05845      2.07441
    10.51051      0.04440      1.96005      0.05978      2.08314
    10.52553      0.04514      1.96671      0.06117      2.09207
    10.54054      0.04591      1.97348      0.06264      2.10120
    10.55556      0.04671      1.98037      0.06418      2.11055
    10.57057      0.04754      1.98738      0.06580      2.12011
    10.58559      0.04840      1.99450      0.06751      2.12991
    10.60060      0.04930      2.00176      0.06931      2.13997
    10.61562      0.05023      2.00915      0.07121      2.15027
    10.63063      0.05120      2.01667      0.07322      2.16086
    10.64565      0.05221      2.02434      0.07535      2.17173
    10.66066      0.05326      2.03216      0.07761      2.18290
    10.67568      0.05436      2.04013      0.08001      2.19440
    10.69069      0.05550      2.04826      0.08256      2.20623
    10.70571      0.05670      2.05657      0.08529      2.21843
    10.72072      0.05796      2.06504      0.08819      2.23101
    10.73574      0.05927      2.07370      0.09130      2.24399
    10.75075      0.06065      2.08256      0.09462      2.25741
    10.76577      0.06210      2.09161      0.09820      2.27129
    10.78078      0.06362      2.10087      0.10204      2.28566
    10.79580      0.06522      2.11036      0.10618      2.30055
    10.81081      0.06690      2.12007      0.11066      2.31601
    10.82583      0.06868      2.13003      0.11551      2.33206
    10.84084      0.07056      2.14025      0.12077      2.34877
    10.85586      0.07254      2.15074      0.12650      2.36616
    10.87087      0.07465      2.16150      0.13275      2.38431
    10.88589      0.07688      2.17258      0.13959      2.40325
    10.90090      0.07925      2.18396      0.14710      2.42307
    10.91592      0.08177      2.19569      0.15537      2.44381
    10.93093      0.08445      2.20777      0.16452      2.46558
    10.94595      0.08732      2.22022      0.17465      2.48844
    10.96096      0.09038      2.23308      0.18593      2.51248
    10.97598      0.09366      2.24637      0.19854      2.53781
    10.99099      0.09719      2.26011      0.21268      2.56453
    11.00601      0.10098      2.27433      0.22862      2.59275
    11.02102      0.10506      2.28907      0.24667      2.62259
    11.03604      0.10948      2.30437      0.26719      2.65415
    11.05105      0.11425      2.32026      0.29066      2.68756
    11.06607      0.11944      2.33679      0.31763      2.72291
    11.08108      0.12508      2.35400      0.34879      2.76026
    11.09610      0.13124      2.37194      0.38501      2.79962
    11.11111      0.13798      2.39069      0.42734      2.84091
    11.12613      0.14538      2.41028      0.47709      2.88389
    11.14114      0.15352      2.43080      0.53587      2.92805
    11.15616      0.16252      2.45232      0.60564      2.97249
    11.17117      0.17249      2.47492      0.68872      3.01570
    11.18619      0.18358      2.49869      0.78779      3.05518
    11.20120      0.19597      2.52373      0.90569      3.08704
    11.21622      0.20987      2.55014      1.04494      3.10536
    11.23123      0.22552      2.57803      1.20678      3.10162
    11.24625      0.24322      2.60752      1.38943      3.06435
    11.26126      0.26336      2.63872      1.58539      2.97998
    11.27628      0.28636      2.67174      1.77864      2.83587
    11.29129      0.31278      2.70669      1.94366      2.62655
    11.30631      0.34329      2.74362      2.05000      2.36131
    11.32132      0.37872      2.78258      2.07344      2.06746
    11.33634      0.42011      2.82347      2.00825      1.78344
    11.35135      0.46871      2.86609      1.87046      1.54377
    11.36637      0.52610      2.90998      1.68905      1.36702
    11.38138      0.59417      2.95431      1.49307      1.25435
    11.39640      0.67522      2.99765      1.30349      1.19580
    11.41141      0.77188      3.03768      1.13181      1.17770
    11.42643      0.88696      3.07073      0.98235      1.18731
    11.44144      1.02310      3.09121      0.85513      1.21461
    11.45646      1.18179      3.09097      0.74811      1.25241
    11.47147      1.36179      3.05895      0.65853      1.29589
    11.48649      1.55661      2.98175      0.58359      1.34192
    11.50150      1.75151      2.84631      0.52078      1.38852
    11.51652      1.92220      2.64569      0.46796      1.43452
    11.53153      2.03838      2.38674      0.42335      1.47924
    11.54655      2.07412      2.09446      0.38548      1.52233
    11.56156      2.02067      1.80654      0.35320      1.56363
    11.57658      1.89131      1.55895      0.32553      1.60311
    11.59159      1.71405      1.37282      0.30172      1.64081
    11.60661      1.51856      1.25145      0.28114      1.67681
    11.62162      1.32714      1.18594      0.26328      1.71124
    11.63664      1.15253      1.16278      0.24773      1.74419
    11.65165      0.99986      1.16894      0.23414      1.77580
    11.66667      0.86958      1.19399      0.22224      1.80618
    11.68168      0.75985      1.23039      0.21178      1.83544
    11.69670      0.66795      1.27300      0.20259      1.86368
    11.71171      0.59106      1.31850      0.19449      1.89101
    11.72673      0.52663      1.36479      0.18735      1.91750
    11.74174      0.47246      1.41059      0.18105      1.94326
    11.75676      0.42672      1.45518      0.17550      1.96835
    11.77177      0.38790      1.49815      0.17061      1.99285
    11.78679      0.35481      1.53933      0.16631      2.01682
    11.80180      0.32646      1.57868      0.16255      2.04032
    11.81682      0.30205      1.61622      0.15926      2.06341
    11.83183      0.28095      1.65205      0.15641      2.08614
    11.84685      0.26263      1.68626      0.15396      2.10856
    11.86186      0.24666      1.71896      0.15187      2.13071
    11.87688      0.23270      1.75029      0.15011      2.15263
    11.89189      0.22045      1.78035      0.14867      2.17437
    11.90691      0.20967      1.80926      0.14751      2.19597
    11.92192      0.20017      1.83712      0.14663      2.21744
    11.93694      0.19178      1.86403      0.14600      2.23884
    11.95195      0.18435      1.89008      0.14562      2.26019
    11.96697      0.17778      1.91535      0.14546      2.28153
    11.98198      0.17196      1.93992      0.14553      2.30287
    11.99700      0.16680      1.96386      0.14581      2.32426
    12.01201      0.16223      1.98724      0.14630      2.34572
    12.02703      0.15819      2.01012      0.14700      2.36728
    12.04204      0.15463      2.03254      0.14789      2.38896
    12.05706      0.15149      2.05457      0.14899      2.41080
    12.07207      0.14875      2.07625      0.15029      2.43281
    12.08709      0.14635      2.09762      0.15178      2.45503
    12.10210      0.14429      2.11871      0.15348      2.47749
    12.11712      0.14252      2.13959      0.15539      2.50020
    12.13213      0.14102      2.16026      0.15750      2.52321
    12.14715      0.13978      2.18077      0.15983      2.54654
    12.16216      0.13878      2.20116      0.16238      2.57021
    12.17718      0.13800      2.22144      0.16516      2.59426
    12.19219      0.13743      2.24165      0.16819      2.61873
    12.20721      0.13706      2.26182      0.17146      2.64364
    12.22222      0.13688      2.28196      0.17501      2.66902
    12.23724      0.13688      2.30211      0.17883      2.69493
    12.25225      0.13705      2.32228      0.18295      2.72138
    12.26727      0.13739      2.34251      0.18739      2.74843
    12.28228      0.13790      2.36281      0.19217      2.77612
    12.29730      0.13856      2.38320      0.19731      2.80449
    12.31231      0.13938      2.40372      0.20285      2.83359
    12.32733      0.14036      2.42437      0.20882      2.86347
    12.34234      0.14149      2.44518      0.21524      2.89419
    12.35736      0.14277      2.46617      0.22217      2.92581
    12.37237      0.14421      2.48737      0.22965      2.95839
    12.38739      0.14580      2.50879      0.23773      2.99200
    12.40240      0.14755      2.53046      0.24648      3.02672
    12.41742      0.14945      2.55239      0.25597      3.06263
    12.43243      0.15152      2.57462      0.26627      3.09980
    12.44745      0.15376      2.59715      0.27749      3.13835
    12.46246      0.15617      2.62003      0.28972      3.17837
    12.47748      0.15875      2.64326      0.30309      3.21998
    12.49249      0.16151      2.66688      0.31775      3.26329
    12.50751      0.16447      2.69092      0.33388      3.30844
    12.52252      0.16762      2.71539      0.35167      3.35557
    12.53754      0.17099      2.74033      0.37136      3.40484
    12.55255      0.17457      2.76577      0.39324      3.45641
    12.56757      0.17837      2.79173      0.41765      3.51044
    12.58258      0.18242      2.81825      0.44500      3.56713
    12.59760      0.18673      2.84537      0.47579      3.62665
    12.61261      0.19130      2.87312      0.51062      3.68916
    12.62763      0.19617      2.90153      0.55023      3.75484
    12.64264      0.20134      2.93065      0.59551      3.82377
    12.65766      0.20684      2.96052      0.64759      3.89601
    12.67267      0.21269      2.99119      0.70781      3.97142
    12.68769      0.21891      3.02270      0.77785      4.04970
    12.70270      0.22554      3.05511      0.85973      4.13015
    12.71772      0.23261      3.08846      0.95589      4.21150
    12.73273      0.24014      3.12283      1.06913      4.29163
    12.74775      0.24819      3.15827      1.20249      4.36710
    12.76276      0.25679      3.19486      1.35887      4.43257
    12.77778      0.26599      3.23266      1.54015      4.48021
    12.79279      0.27584      3.27176      1.74559      4.49928
    12.80781      0.28641      3.31224      1.96940      4.47667
    12.82282      0.29777      3.35419      2.19773      4.39944
    12.83784      0.30999      3.39772      2.40729      4.26051
    12.85285      0.32316      3.44294      2.56859      4.06631
    12.86787      0.33737      3.48996      2.65622      3.84133
    12.88288      0.35275      3.53891      2.66163      3.62325
    12.89790      0.36941      3.58994      2.59870      3.44856
    12.91291      0.38751      3.64321      2.49680      3.33918
    12.92793      0.40721      3.69886      2.38783      3.29890
    12.94294      0.42871      3.75710      2.29710      3.31872
    12.95796      0.45223      3.81813      2.24090      3.38429
    12.97297      0.47803      3.88216      2.22847      3.48078
    12.98799      0.50642      3.94943      2.26508      3.59471
    13.00300      0.53775      4.02021      2.35425      3.71366
    13.01802      0.57245      4.09479      2.49897      3.82486
    13.03303      0.61100      4.17346      2.70161      3.91342
    13.04805      0.65401      4.25657      2.96236      3.96055
    13.06306      0.70218      4.34448      3.27597      3.94244
    13.07808      0.75635      4.43755      3.62657      3.83137
    13.09309      0.81754      4.53618      3.98184      3.60135
    13.10811      0.88700      4.64074      4.29068      3.23991
    13.12312      0.96625      4.75161      4.49136      2.76339
    13.13814      1.05711      4.86906      4.53307      2.22450
    13.15315      1.16188      4.99329      4.40101      1.69964
    13.16817      1.28334      5.12424      4.12438      1.25945
    13.18318      1.42493      5.26152      3.76000      0.94364
    13.19820      1.59086      5.40412      3.36633      0.75663
    13.21321      1.78623      5.55010      2.98640      0.67970
    13.22823      2.01710      5.69604      2.64428      0.68588
    13.24324      2.29040      5.83628      2.34929      0.74966
    13.25826      2.61349      5.96186      2.10196      0.85088
    13.27327      2.99311      6.05929      1.89849      0.97514
    13.28829      3.43318      6.10932      1.73362      1.11277
    13.30330      3.93122      6.08666      1.60205      1.25762
    13.31832      4.47359      5.96199      1.49909      1.40594
    13.33333      5.03118      5.70771      1.42090      1.55558
    13.34835      5.55913      5.30709      1.36452      1.70545
    13.36336      6.00247      4.76334      1.32778      1.85508
    13.37838      6.30646      4.10446      1.30928      2.00442
    13.39339      6.42830      3.38319      1.30832      2.15362
    13.40841      6.35027      2.67219      1.32486      2.30289
    13.42342      6.09153      2.04869      1.35951      2.45238
    13.43844      5.70681      1.57117      1.41359      2.60204
    13.45345      5.26770      1.26246      1.48917      2.75143
    13.46847      4.83933      1.11118      1.58907      2.89945
    13.48348      4.46717      1.08581      1.71699      3.04399
    13.49850      4.17653      1.14913      1.87740      3.18137
    13.51351      3.97833      1.26631      2.07534      3.30554
    13.52853      3.87525      1.40697      2.31569      3.40709
    13.54354      3.86563      1.54387      2.60177      3.47213
    13.55856      3.94441      1.65029      2.93261      3.48147
    13.57357      4.10133      1.69804      3.29877      3.41134
    13.58859      4.31684      1.65761      3.67731      3.23736
    13.60360      4.55713      1.50267      4.02883      2.94323
    13.61862      4.77256      1.21992      4.30142      2.53301
    13.63363      4.90448      0.82141      4.44466      2.04000
    13.64865      4.90273      0.35091      4.42945      1.52355
    13.66366      4.74596     -0.12521      4.26155      1.05101
    13.67868      4.45096     -0.54014      3.97901      0.67529
    13.69369      4.06318     -0.84959      3.63530      0.42052
    13.70871      3.63641     -1.04021      3.28047      0.28336
    13.72372      3.21475     -1.12351      2.94981      0.24371
    13.73874      2.82586     -1.12291      2.66287      0.27639
    13.75375      2.48215     -1.06334      2.42726      0.35826
    13.76877      2.18606     -0.96582      2.24389      0.47091
    13.78378      1.93445     -0.84595      2.11055      0.60063
    13.79880      1.72204     -0.71454      2.02435      0.73708
    13.81381      1.54305     -0.57863      1.98275      0.87190
    13.82883      1.39201     -0.44260      1.98381      0.99721
    13.84384      1.26424     -0.30912      2.02576      1.10430
    13.85886      1.15577     -0.17962      2.10577      1.18256
    13.87387      1.06335     -0.05484      2.21780      1.21911
    13.88889      0.98433      0.06497      2.34972      1.20000
    13.90390      0.91658      0.17982      2.48053      1.11409
    13.91892      0.85834      0.28993      2.58089      0.95998
    13.93393      0.80825      0.39557      2.61969      0.75304
    13.94895      0.76514      0.49712      2.57659      0.52566
    13.96396      0.72813      0.59492      2.45236      0.31706
    13.97898      0.69647      0.68936      2.26791      0.15771
    13.99399      0.66958      0.78079      2.05303      0.06051
    14.00901      0.64699      0.86960      1.83423      0.02239
    14.02402      0.62835      0.95612      1.62900      0.03172
    14.03904      0.61339      1.04069      1.44586      0.07498
    14.05406      0.60191      1.12364      1.28721      0.14041
    14.06907      0.59383      1.20528      1.15200      0.21908
    14.08409      0.58909      1.28591      1.03762      0.30482
    14.09910      0.58775      1.36582      0.94112      0.39354
    14.11411      0.58991      1.44531      0.85963      0.48269
    14.12913      0.59580      1.52463      0.79062      0.57070
    14.14415      0.60572      1.60405      0.73198      0.65672
    14.15916      0.62009      1.68378      0.68194      0.74027
    14.17418      0.63948      1.76404      0.63908      0.82119
    14.18919      0.66461      1.84495      0.60222      0.89946
    14.20420      0.69642      1.92655      0.57042      0.97517
    14.21922      0.73610      2.00873      0.54293      1.04846
    14.23423      0.78513      2.09114      0.51910      1.11952
    14.24925      0.84534      2.17306      0.49844      1.18850
    14.26427      0.91893      2.25319      0.48052      1.25564
    14.27928      1.00848      2.32934      0.46500      1.32109
    14.29429      1.11678      2.39802      0.45161      1.38505
    14.30931      1.24643      2.45383      0.44010      1.44769
    14.32432      1.39904      2.48888      0.43028      1.50918
    14.33934      1.57358      2.49233      0.42199      1.56968
    14.35435      1.76391      2.45094      0.41511      1.62934
    14.36937      1.95595      2.35153      0.40952      1.68831
    14.38438      2.12591      2.18661      0.40515      1.74672
    14.39940      2.24364      1.96196      0.40191      1.80471
    14.41441      2.28252      1.70152      0.39977      1.86240
    14.42943      2.23237      1.44254      0.39867      1.91993
    14.44444      2.10518      1.22165      0.39861      1.97742
    14.45946      1.92835      1.06117      0.39956      2.03499
    14.47447      1.73183      0.96547      0.40152      2.09276
    14.48949      1.53848      0.92623      0.40451      2.15086
    14.50450      1.36164      0.93010      0.40856      2.20940
    14.51952      1.20680      0.96394      0.41369      2.26853
    14.53453      1.07468      1.01717      0.41997      2.32836
    14.54955      0.96347      1.08211      0.42747      2.38904
    14.56456      0.87051      1.15352      0.43626      2.45070
    14.57958      0.79297      1.22802      0.44645      2.51350
    14.59460      0.72826      1.30346      0.45818      2.57758
    14.60961      0.67418      1.37855      0.47159      2.64309
    14.62463      0.62885      1.45259      0.48689      2.71023
    14.63964      0.59078      1.52517      0.50430      2.77916
    14.65466      0.55873      1.59616      0.52409      2.85008
    14.66967      0.53172      1.66552      0.54660      2.92317
    14.68469      0.50894      1.73333      0.57223      2.99864
    14.69970      0.48976      1.79970      0.60149      3.07668
    14.71472      0.47363      1.86476      0.63498      3.15748
    14.72973      0.46015      1.92867      0.67343      3.24120
    14.74475      0.44897      1.99159      0.71776      3.32797
    14.75976      0.43979      2.05365      0.76909      3.41779
    14.77478      0.43240      2.11504      0.82882      3.51056
    14.78979      0.42661      2.17588      0.89862      3.60589
    14.80481      0.42225      2.23633      0.98056      3.70307
    14.81982      0.41921      2.29650      1.07709      3.80072
    14.83484      0.41738      2.35655      1.19104      3.89656
    14.84985      0.41668      2.41660      1.32543      3.98693
    14.86487      0.41705      2.47676      1.48300      4.06618
    14.87988      0.41844      2.53716      1.66536      4.12608
    14.89490      0.42080      2.59792      1.87114      4.15550
    14.90991      0.42412      2.65916      2.09354      4.14111
    14.92492      0.42839      2.72099      2.31727      4.07042
    14.93994      0.43359      2.78354      2.51771      3.93776
    14.95496      0.43974      2.84691      2.66502      3.75203
    14.96997      0.44685      2.91124      2.73526      3.54013
    14.98499      0.45495      2.97664      2.72275      3.34063
    15.00000      0.46406      3.04325      2.64390      3.18868
# 
# 07/24/2018 at 09:14 YAMBO @ NewLaptop [start]
# 07/24/2018 at 09:14                   [end]
#  
# Timing   [Min/Max/Average]: 01s/01s/01s
#
# .-Input file : yambo.in
# | optics                         # [R OPT] Optics
# | bse                            # [R BSE] Bethe Salpeter Equation.
# | bsk                            # [R BSK] Bethe Salpeter Equation kernel
# | bss                            # [R BSS] Bethe Salpeter Equation solver
# | BoseTemp= 0.000000     eV      # Bosonic Temperature
# | FFTGvecs=  4945        RL      # [FFT] Plane-waves
# | NonPDirs= "XYZ"                # [X/BSS] Non periodic chartesian directions (X,Y,Z,XY...)
# | BSEmod= "retarded"             # [BSE] resonant/retarded/coupling
# | BSKmod= "Hartree"              # [BSE] IP/Hartree/HF/ALDA/SEX/BSfxc
# | BSSmod= "hd"                   # [BSS] (h)aydock/(d)iagonalization/(i)nversion/(t)ddft`
# | BSENGexx=  4067        RL      # [BSK] Exchange components
# | % BEnRange
# |   0.00000 | 15.00000 | eV      # [BSS] Energy range
# | %
# | % BDmRange
# |   0.10000 |  0.10000 | eV      # [BSS] Damping range
# | %
# | BEnSteps= 1000                 # [BSS] Energy steps
# | % BLongDir
# | 0.1000E-4 | 0.000    | 0.000    |        # [BSS] [cc] Electric Field
# | %
# | % BSEBands
# |    1 |  50 |                   # [BSK] Bands range
# | %
# | BSHayTrs=0.1000E-2             # [BSS] Relative [o/o] Haydock treshold. Strict(>0)/Average(<0)
