#  __      __   ______   __       __  _______    ______               
# |  \    /  \ /      \ |  \     /  \|       \  /      \              
#  \$$\  /  $$|  $$$$$$\| $$\   /  $$| $$$$$$$\|  $$$$$$\             
#   \$$\/  $$ | $$__| $$| $$$\ /  $$$| $$__/ $$| $$  | $$             
#    \$$  $$  | $$    $$| $$$$\  $$$$| $$    $$| $$  | $$             
#     \$$$$   | $$$$$$$$| $$\$$ $$ $$| $$$$$$$\| $$  | $$             
#     | $$    | $$  | $$| $$ \$$$| $$| $$__/ $$| $$__/ $$             
#     | $$    | $$  | $$| $$  \$ | $$| $$    $$ \$$    $$             
#      \$$     \$$   \$$ \$$      \$$ \$$$$$$$   \$$$$$$              
#                                                                     
# Version 5.2.0 Revision 22506 Hash (prev commit) baac8a203           
#                Branch is fixes-issue-540                            
#         MPI+OpenMP+SLK+SLEPC+HDF5_MPI_IO Build                      
#                http://www.yambo-code.org                            
#
# Polarizability  ( -<<X>> ) @ Q(1):   1.00000000      0.00000000      0.00000000    [q->0 direction]
#
# Polarizability units: length
#
# [GEN] GF Energies                               : Slater exchange(X)+Perdew & Zunger(C)
# [GEN] Green`s Function                          : Retarded
#
# [GEN] Gauge                                     : Length
# [GEN] [r,Vnl] included                          : yes
#
# DIP band range                                  :  11  15
# DIP band range limits                           :  13  14
# DIP e/h energy range                            :  -1.00000000     -1.00000000    [eV]
# RL vectors in the sum                           :   8845
# [r,Vnl] included                                : yes
# Bands ordered                                   : yes
# Direct v evaluation                             : no
# Approach used                                   : G-space v
# Dipoles computed                                : R V P
# Wavefunctions                                   : Slater exchange(X)+Perdew & Zunger(C)
#
#
# [K] Identifier                                  :   9826
# [K] Dimension                                   :   54
# [K] Bands                                       :  11  15
# [K] Exchange res                                : yes
# [K] Correlation res                             : no
# [K] Kernel`s coupling                           : no
# [K] Exchange cpl                                : no
# [K] Correlation cpl                             : no
# [K] W interaction is bare                       : no
# [K] ALDA kernel in R-space                      : no
# [K] RL vectors exchange                         :  109
# [K] E/h energy range                            :  -1.00000000     -1.00000000    [eV]
#                                                 
# [Haydock] Accuracy (requested)                  :  0.100000005E-2 [o/o]
# [Haydock] Accuracy (reached)                    :  0.202309107E-3 [o/o]
# [Haydock] Iterations                            :  22
#
#
#    E[1] [eV]          Im(alpha)          Re(alpha)          Im(alpha_o)        Re(alpha_o)        Im(alpha`)         Re(alpha`)
#
       -1.000000          -0.348126           14.31735          -0.437489           15.43100          -0.348126           14.31735
       -0.976000          -0.329774           14.15555          -0.412571           15.22836          -0.329774           14.15555
       -0.952000          -0.312589           14.00220          -0.389420           15.03712          -0.312589           14.00220
       -0.928000          -0.296464           13.85677          -0.367858           14.85648          -0.296464           13.85677
       -0.904000          -0.281302           13.71879          -0.347730           14.68574          -0.281302           13.71879
       -0.880000          -0.267020           13.58781          -0.328898           14.52427          -0.267020           13.58781
       -0.856000          -0.253540           13.46344          -0.311242           14.37145          -0.253540           13.46344
       -0.832000          -0.240795           13.34532          -0.294654           14.22679          -0.240795           13.34532
       -0.808000          -0.228723           13.23311          -0.279036           14.08979          -0.228723           13.23311
       -0.784000          -0.217268           13.12650          -0.264304           13.96001          -0.217268           13.12650
       -0.760000          -0.206380           13.02523          -0.250380           13.83705          -0.206380           13.02523
       -0.736000          -0.196014           12.92902          -0.237194           13.72055          -0.196014           12.92902
       -0.712000          -0.186128           12.83765          -0.224685           13.61018          -0.186128           12.83765
       -0.688000          -0.176685           12.75089          -0.212797           13.50562          -0.176685           12.75089
       -0.664000          -0.167651           12.66853          -0.201477           13.40659          -0.167651           12.66853
       -0.640000          -0.158993           12.59041          -0.190680           13.31285          -0.158993           12.59041
       -0.616000          -0.150684           12.51633          -0.180364           13.22414          -0.150684           12.51633
       -0.592000          -0.142697           12.44615          -0.170490           13.14024          -0.142697           12.44615
       -0.568000          -0.135007           12.37971          -0.161023           13.06097          -0.135007           12.37971
       -0.544000          -0.127593           12.31688          -0.151931           12.98612          -0.127593           12.31688
       -0.520000          -0.120433           12.25753          -0.143183           12.91554          -0.120433           12.25753
       -0.496000          -0.113508           12.20155          -0.134754           12.84906          -0.113508           12.20155
       -0.472000          -0.106800           12.14883          -0.126618           12.78653          -0.106800           12.14883
       -0.448000          -0.100292           12.09927          -0.118750           12.72784          -0.100292           12.09927
       -0.424000          -0.093969           12.05278          -0.111130           12.67284          -0.093969           12.05278
       -0.400000          -0.087817           12.00927          -0.103738           12.62143          -0.087817           12.00927
       -0.376000          -0.081821           11.96867          -0.096555           12.57351          -0.081821           11.96867
       -0.352000          -0.075969           11.93090          -0.089562           12.52898          -0.075969           11.93090
       -0.328000          -0.070249           11.89590          -0.082744           12.48774          -0.070249           11.89590
       -0.304000          -0.064648           11.86361          -0.076085           12.44974          -0.064648           11.86361
       -0.280000          -0.059157           11.83397          -0.069569           12.41488          -0.059157           11.83397
       -0.256000          -0.053765           11.80694          -0.063184           12.38311          -0.053765           11.80694
       -0.232000          -0.048461           11.78247          -0.056916           12.35437          -0.048461           11.78247
       -0.208000          -0.043238           11.76051          -0.050753           12.32860          -0.043238           11.76051
       -0.184000          -0.038084           11.74105          -0.044681           12.30576          -0.038084           11.74105
       -0.160000          -0.032991           11.72403          -0.038690           12.28580          -0.032991           11.72403
       -0.136000          -0.027952           11.70944          -0.032767           12.26870          -0.027952           11.70944
       -0.112000          -0.022957           11.69725          -0.026903           12.25442          -0.022957           11.69725
       -0.088000          -0.017998           11.68745          -0.021087           12.24293          -0.017998           11.68745
       -0.064000          -0.013068           11.68001          -0.015308           12.23422          -0.013068           11.68001
       -0.040000          -0.008158           11.67492          -0.009555           12.22827          -0.008158           11.67492
       -0.016000          -0.003261           11.67219          -0.003820           12.22507          -0.003261           11.67219
        0.008000           0.001630           11.67180           0.001910           12.22461           0.001630           11.67180
        0.032000           0.006525           11.67375           0.007642           12.22690           0.006525           11.67375
        0.056000           0.011429           11.67805           0.013388           12.23193           0.011429           11.67805
        0.080000           0.016352           11.68470           0.019157           12.23972           0.016352           11.68470
        0.104000           0.021300           11.69372           0.024960           12.25028           0.021300           11.69372
        0.128000           0.026282           11.70511           0.030807           12.26363           0.026282           11.70511
        0.152000           0.031306           11.71890           0.036708           12.27979           0.031306           11.71890
        0.176000           0.036380           11.73510           0.042675           12.29879           0.036380           11.73510
        0.200000           0.041512           11.75375           0.048719           12.32066           0.041512           11.75375
        0.224000           0.046712           11.77487           0.054851           12.34545           0.046712           11.77487
        0.248000           0.051988           11.79850           0.061083           12.37319           0.051988           11.79850
        0.272000           0.057349           11.82467           0.067427           12.40395           0.057349           11.82467
        0.296000           0.062806           11.85344           0.073897           12.43777           0.062806           11.85344
        0.320000           0.068369           11.88484           0.080507           12.47472           0.068369           11.88484
        0.344000           0.074048           11.91893           0.087271           12.51487           0.074048           11.91893
        0.368000           0.079855           11.95577           0.094203           12.55829           0.079855           11.95577
        0.392000           0.085801           11.99542           0.101321           12.60508           0.085801           11.99542
        0.416000           0.091900           12.03795           0.108642           12.65531           0.091900           12.03795
        0.440000           0.098165           12.08344           0.116184           12.70910           0.098165           12.08344
        0.464000           0.104609           12.13196           0.123966           12.76655           0.104609           12.13196
        0.488000           0.111248           12.18362           0.132011           12.82779           0.111248           12.18362
        0.512000           0.118099           12.23850           0.140340           12.89293           0.118099           12.23850
        0.536000           0.125179           12.29671           0.148978           12.96213           0.125179           12.29671
        0.560000           0.132507           12.35837           0.157952           13.03553           0.132507           12.35837
        0.584000           0.140102           12.42359           0.167291           13.11331           0.140102           12.42359
        0.608000           0.147987           12.49251           0.177025           13.19565           0.147987           12.49251
        0.632000           0.156186           12.56527           0.187190           13.28273           0.156186           12.56527
        0.656000           0.164724           12.64203           0.197822           13.37477           0.164724           12.64203
        0.680000           0.173630           12.72296           0.208963           13.47201           0.173630           12.72296
        0.704000           0.182933           12.80823           0.220656           13.57469           0.182933           12.80823
        0.728000           0.192667           12.89804           0.232952           13.68309           0.192667           12.89804
        0.752000           0.202869           12.99261           0.245906           13.79752           0.202869           12.99261
        0.776000           0.213578           13.09217           0.259576           13.91828           0.213578           13.09217
        0.800000           0.224838           13.19696           0.274031           14.04574           0.224838           13.19696
        0.824000           0.236699           13.30727           0.289344           14.18029           0.236699           13.30727
        0.848000           0.249214           13.42339           0.305599           14.32235           0.249214           13.42339
        0.872000           0.262441           13.54564           0.322888           14.47239           0.262441           13.54564
        0.896000           0.276448           13.67437           0.341315           14.63092           0.276448           13.67437
        0.920000           0.291307           13.80997           0.360996           14.79850           0.291307           13.80997
        0.944000           0.307101           13.95287           0.382064           14.97576           0.307101           13.95287
        0.968000           0.323921           14.10353           0.404667           15.16339           0.323921           14.10353
        0.992000           0.341871           14.26244           0.428975           15.36213           0.341871           14.26244
        1.016000           0.361067           14.43018           0.455180           15.57285           0.361067           14.43018
        1.040000           0.381640           14.60736           0.483504           15.79649           0.381640           14.60736
        1.064000           0.403738           14.79467           0.514198           16.03408           0.403738           14.79467
        1.088000           0.427530           14.99286           0.547556           16.28683           0.427530           14.99286
        1.112000           0.453210           15.20277           0.583913           16.55602           0.453210           15.20277
        1.136000           0.480997           15.42533           0.623664           16.84317           0.480997           15.42533
        1.160000           0.511147           15.66160           0.667265           17.14996           0.511147           15.66160
        1.184000           0.543951           15.91274           0.715256           17.47830           0.543951           15.91274
        1.208000           0.579749           16.18008           0.768272           17.83037           0.579749           16.18008
        1.232000           0.618937           16.46510           0.827066           18.20867           0.618937           16.46510
        1.256000           0.661978           16.76949           0.892539           18.61605           0.661978           16.76949
        1.280000           0.709416           17.09514           0.965775           19.05584           0.709416           17.09514
        1.304000           0.761896           17.44426           1.048082           19.53189           0.761896           17.44426
        1.328000           0.820184           17.81935           1.141063           20.04869           0.820184           17.81935
        1.352000           0.885198           18.22328           1.246683           20.61152           0.885198           18.22328
        1.376000           0.958044           18.65938           1.367383           21.22664           0.958044           18.65938
        1.400000           1.040066           19.13156           1.506218           21.90149           1.040066           19.13156
        1.424000           1.132905           19.64435           1.667062           22.64499           1.132905           19.64435
        1.448000           1.238592           20.20310           1.854871           23.46794           1.238592           20.20310
        1.472000           1.359650           20.81416           2.076072           24.38352           1.359650           20.81416
        1.496000           1.499256           21.48510           2.339120           25.40798           1.499256           21.48510
        1.520000           1.661449           22.22506           2.655310           26.56154           1.661449           22.22506
        1.544000           1.851425           23.04509           3.039983           27.86964           1.851425           23.04509
        1.568000           2.075958           23.95877           3.514395           29.36470           2.075958           23.95877
        1.592000           2.344009           24.98284           4.108639           31.08852           2.344009           24.98284
        1.616000           2.667621           26.13829           4.866378           33.09571           2.667621           26.13829
        1.640000           3.063279           27.45159           5.852775           35.45856           3.063279           27.45159
        1.664000           3.553999           28.95666           7.168237           38.27372           3.553999           28.95666
        1.688000           4.172675           30.69746           8.973344           41.67122           4.172675           30.69746
        1.712000           4.967526           32.73168           11.53584           45.82447           4.967526           32.73168
        1.736000           6.011372           35.13605           15.32396           50.95417           6.011372           35.13605
        1.760000           7.417980           38.01347           21.19901           57.29422           7.417980           38.01347
        1.784000           9.372090           41.50222           30.81845           64.88987           9.372090           41.50222
        1.808000           12.18734           45.78477           47.38876           72.71147           12.18734           45.78477
        1.832000           16.42280           51.08347           76.05587           75.28056           16.42280           51.08347
        1.856000           23.12688           57.59176           116.3103           54.97359           23.12688           57.59176
        1.880000           34.33797           65.12896           134.0952          -2.183249           34.33797           65.12896
        1.904000           53.88035           71.69942           102.7887          -48.93535           53.88035           71.69942
        1.928000           86.43648           68.56136           64.90924          -58.79379           86.43648           68.56136
        1.952000           122.4958           34.92864           40.85651          -53.29311           122.4958           34.92864
        1.976000           119.7732          -23.04394           27.08972          -45.26317           119.7732          -23.04394
        2.000000           82.47779          -52.64506           18.98028          -38.03823           82.47779          -52.64506
        2.024000           51.33747          -53.97555           13.93855          -32.10034           51.33747          -53.97555
        2.048000           32.90501          -47.06902           10.63576          -27.29601           32.90501          -47.06902
        2.072000           22.30941          -39.58225           8.372204          -23.38634           22.30941          -39.58225
        2.096000           15.94144          -33.18187           6.761075          -20.16553           15.94144          -33.18187
        2.120000           11.89916          -27.97397           5.577542          -17.47552           11.89916          -27.97397
        2.144000           9.202404          -23.75414           4.684822          -15.19839           9.202404          -23.75414
        2.168000           7.325778          -20.30273           3.996274          -13.24636           7.325778          -20.30273
        2.192000           5.973031          -17.44199           3.455044          -11.55354           5.973031          -17.44199
        2.216000           4.968837          -15.03767           3.022683          -10.06992           4.968837          -15.03767
        2.240000           4.204786          -12.98989           2.672471          -8.757018           4.204786          -12.98989
        2.264000           3.611218          -11.22410           2.385404          -7.584824           3.611218          -11.22410
        2.288000           3.141877          -9.684094           2.147678          -6.529635           3.141877          -9.684094
        2.312000           2.765130          -8.326985           1.949086          -5.572521           2.765130          -8.326985
        2.336000           2.458795          -7.119595           1.781955          -4.698172           2.458795          -7.119595
        2.360000           2.206959          -6.035884           1.640431          -3.894046           2.206959          -6.035884
        2.384000           1.997988          -5.055219           1.519996          -3.149807           1.997988          -5.055219
        2.408000           1.823225          -4.161005           1.417119          -2.456826           1.823225          -4.161005
        2.432000           1.676125          -3.339745           1.329015          -1.807829           1.676125          -3.339745
        2.456000           1.551677          -2.580365           1.253466          -1.196632           1.551677          -2.580365
        2.480000           1.445994          -1.873651           1.188698          -0.617932           1.445994          -1.873651
        2.504000           1.356033          -1.211875           1.133279          -0.067118           1.356033          -1.211875
        2.528000           1.279387          -0.588483           1.086052           0.459837           1.279387          -0.588483
        2.552000           1.214145           0.002125           1.046079           0.966485           1.214145           0.002125
        2.576000           1.158772           0.564806           1.012600           1.456015           1.158772           0.564806
        2.600000           1.112038           1.103795           0.985005           1.931279           1.112038           1.103795
        2.624000           1.072952           1.622851           0.962803           2.394921           1.072952           1.622851
        2.648000           1.040722           2.125320           0.945611           2.849366           1.040722           2.125320
        2.672000           1.014713           2.614227           0.933136           3.296868           1.014713           2.614227
        2.696000           0.994428           3.092349           0.925168           3.739602           0.994428           3.092349
        2.720000           0.979485           3.562261           0.921570           4.179628           0.979485           3.562261
        2.744000           0.969602           4.026390           0.922273           4.618986           0.969602           4.026390
        2.768000           0.964587           4.487052           0.927279           5.059689           0.964587           4.487052
        2.792000           0.964335           4.946500           0.936656           5.503767           0.964335           4.946500
        2.816000           0.968817           5.406955           0.950543           5.953297           0.968817           5.406955
        2.840000           0.978086           5.870640           0.969152           6.410439           0.978086           5.870640
        2.864000           0.992275           6.339825           0.992783           6.877466           0.992275           6.339825
        2.888000           1.011606           6.816856           1.021827           7.356803           1.011606           6.816856
        2.912000           1.036394           7.304204           1.056783           7.851087           1.036394           7.304204
        2.936000           1.067062           7.804495           1.098281           8.363186           1.067062           7.804495
        2.960000           1.104157           8.320598           1.147107           8.896321           1.104157           8.320598
        2.984000           1.148378           8.855636           1.204238           9.454078           1.148378           8.855636
        3.008000           1.200602           9.413090           1.270888           10.04053           1.200602           9.413090
        3.032000           1.261927           9.996880           1.348570           10.66037           1.261927           9.996880
        3.056000           1.333734           10.61147           1.439180           11.31900           1.333734           10.61147
        3.080000           1.417758           11.26200           1.545113           12.02280           1.417758           11.26200
        3.104000           1.516199           11.95447           1.669416           12.77927           1.516199           11.95447
        3.128000           1.631868           12.69595           1.816012           13.59740           1.631868           12.69595
        3.152000           1.768387           13.49484           1.990010           14.48807           1.768387           13.49484
        3.176000           1.930498           14.36131           2.198164           15.46457           1.930498           14.36131
        3.200000           2.124486           15.30773           2.449535           16.54335           2.124486           15.30773
        3.224000           2.358835           16.34944           2.756530           17.74503           2.358835           16.34944
        3.248000           2.645227           17.50558           3.136470           19.09576           2.645227           17.50558
        3.272000           3.000111           18.80048           3.614144           20.62919           3.000111           18.80048
        3.296000           3.447300           20.26545           4.226062           22.38926           3.447300           20.26545
        3.320000           4.022318           21.94122           5.027683           24.43382           4.022318           21.94122
        3.344000           4.780137           23.88136           6.106517           26.83966           4.780137           23.88136
        3.368000           5.809452           26.15614           7.606663           29.70798           5.809452           26.15614
        3.392000           7.260399           28.85506           9.777084           33.16583           7.260399           28.85506
        3.416000           9.400358           32.07846           13.06945           37.34438           9.400358           32.07846
        3.440000           12.72487           35.87886           18.32778           42.25526           12.72487           35.87886
        3.464000           18.12984           40.00520           27.03272           47.30025           18.12984           40.00520
        3.488000           26.76413           43.10592           40.87285           50.08285           26.76413           43.10592
        3.512000           38.13964           42.36473           59.91751           45.91944           38.13964           42.36472
        3.536000           50.08981           36.44336           79.08867           26.41684           50.08981           36.44337
        3.560000           58.86659           22.47056           77.04396          -5.346111           58.86661           22.47050
        3.584000           55.68610           7.467600           55.95649          -20.29273           55.68607           7.467629
        3.607999           48.66122           0.201244           39.42553          -18.26523           48.66129           0.201204
        3.632000           41.03062          -3.330046           31.88434          -11.00236           41.03055          -3.330097
        3.655999           34.08173          -0.903528           31.47376          -3.551002           34.08172          -0.903438
        3.680000           32.64532           5.116208           37.01890           1.092772           32.64544           5.116183
        3.704000           37.32889           10.02355           46.06952          -0.184852           37.32874           10.02343
        3.728000           45.85246           10.29719           55.34866          -9.731993           45.85258           10.29742
        3.752000           54.81929           4.726440           54.77117          -28.51871           54.81922           4.726232
        3.776000           60.80325          -6.343883           40.05558          -40.18031           60.80326          -6.343789
        3.800000           61.38697          -19.95689           26.05597          -40.07938           61.38697          -19.95693
        3.824000           55.32301          -35.20131           17.38958          -35.98083           55.32301          -35.20131
        3.848000           40.24981          -44.09232           12.30566          -31.58268           40.24980          -44.09232
        3.872000           26.44706          -43.08041           9.198441          -27.73735           26.44706          -43.08041
        3.896000           17.80628          -38.58308           7.192940          -24.50614           17.80628          -38.58308
        3.920000           12.67898          -33.93914           5.834157          -21.78805           12.67898          -33.93914
        3.944000           9.513120          -29.91675           4.877412          -19.47193           9.513120          -29.91675
        3.967999           7.450894          -26.54917           4.184209          -17.46558           7.450894          -26.54917
        3.992000           6.042133          -23.72364           3.672505          -15.69735           6.042133          -23.72364
        4.015999           5.042468          -21.32258           3.291874          -14.11203           5.042468          -21.32258
        4.040000           4.312326          -19.24965           3.010536          -12.66595           4.312326          -19.24965
        4.064000           3.768376          -17.43066           2.808506          -11.32387           3.768376          -17.43066
        4.088000           3.358821          -15.80824           2.673770          -10.05583           3.358821          -15.80824
        4.112000           3.050753          -14.33769           2.600333          -8.835278           3.050753          -14.33769
        4.136000           2.823085          -12.98286           2.587412          -7.636892           2.823085          -12.98286
        4.160000           2.662794          -11.71365           2.639618          -6.435166           2.662794          -11.71365
        4.184000           2.562811          -10.50352           2.768221          -5.202207           2.562811          -10.50352
        4.208000           2.521169          -9.327914           2.993936          -3.905904           2.521169          -9.327914
        4.232000           2.541037          -8.162309           3.352435          -2.506943           2.541037          -8.162309
        4.256000           2.631803          -6.980723           3.904866          -0.956161           2.631803          -6.980723
        4.280000           2.811617          -5.753447           4.758927           0.807949           2.811617          -5.753447
        4.304000           3.112416          -4.444976           6.111775           2.854025           3.112416          -4.444976
        4.328000           3.589819          -3.011172           8.340664           5.222141           3.589819          -3.011172
        4.352000           4.342889          -1.398003           12.18178           7.757812           4.342889          -1.398003
        4.375999           5.554871           0.452037           18.92802           9.450378           5.554871           0.452037
        4.400000           7.579163           2.560392           29.36981           6.540668           7.579163           2.560392
        4.423999           11.10259           4.733891           37.15648          -6.566736           11.10259           4.733891
        4.448000           17.26674           5.876130           31.36612          -21.28643           17.26674           5.876130
        4.472000           26.25261           2.275017           20.48819          -25.83163           26.25261           2.275017
        4.496000           31.10790          -9.845713           12.97091          -24.66041           31.10790          -9.845713
        4.520000           24.63454          -20.78589           8.633302          -22.26728           24.63454          -20.78589
        4.544000           15.85292          -23.24767           6.100533          -19.98857           15.85292          -23.24767
        4.568000           10.14052          -21.85988           4.541842          -18.06351           10.14052          -21.85988
        4.592000           6.858321          -19.78494           3.528754          -16.47066           6.858321          -19.78494
        4.616000           4.924532          -17.87782           2.838104          -15.14509           4.924532          -17.87782
        4.639999           3.721155          -16.27159           2.348038          -14.02684           3.721155          -16.27159
        4.664000           2.930853          -14.93521           1.988623          -13.06895           2.930853          -14.93521
        4.687999           2.387136          -13.81382           1.717836          -12.23610           2.387136          -13.81382
        4.712000           1.998259          -12.85904           1.509305          -11.50176           1.998259          -12.85904
        4.736000           1.711149          -12.03348           1.345944          -10.84593           1.711149          -12.03348
        4.760000           1.493608          -11.30894           1.216316          -10.25316           1.493608          -11.30894
        4.783999           1.325350          -10.66429           1.112624          -9.711460           1.325350          -10.66429
        4.808000           1.193127          -10.08339           1.029441          -9.211152           1.193127          -10.08339
        4.832000           1.088067          -9.553841           0.962992          -8.744402           1.088067          -9.553841
        4.856000           1.004088          -9.065796           0.910672          -8.304533           1.004088          -9.065796
        4.880000           0.936984          -8.611366           0.870769          -7.885813           0.936984          -8.611366
        4.904000           0.883838          -8.183963           0.842305          -7.483011           0.883838          -8.183963
        4.927999           0.842684          -7.778014           0.824964          -7.091245           0.842684          -7.778014
        4.952000           0.812282          -7.388540           0.819112          -6.705606           0.812282          -7.388540
        4.976000           0.792020          -7.011003           0.825917          -6.321032           0.792020          -7.011003
        5.000000           0.781870          -6.640984           0.847591          -5.931870           0.781870          -6.640984
# 
# 02/06/2024 at 12:07 yambo @ unimi-XPS-8930 [start]
# 02/06/2024 at 12:07                        [end]
#  
# Timing   [Min/Max/Average]: 02s/02s/02s
#
# .-Input file  yambo.in
# | optics                           # [R] Linear Response optical properties
# | bss                              # [R] BSE solver
# | bse                              # [R][BSE] Bethe Salpeter Equation.
# | BoseTemp= 0.000000         eV    # Bosonic Temperature
# | FFTGvecs=  8845            RL    # [FFT] Plane-waves
# | BS_nCPU_LinAlg_INV= 1            # [PARALLEL] CPUs for Linear Algebra (if -1 it is automatically set)
# | BS_nCPU_LinAlg_DIAGO= 1          # [PARALLEL] CPUs for Linear Algebra (if -1 it is automatically set)
# | X_Threads= 1                     # [OPENMP/X] Number of threads for response functions
# | DIP_Threads= 1                   # [OPENMP/X] Number of threads for dipoles
# | K_Threads= 1                     # [OPENMP/BSK] Number of threads for response functions
# | NonPDirs= "z"                    # [X/BSS] Non periodic chartesian directions (X,Y,Z,XY...)
# | BSKmod= "HARTREE"                # [BSE] IP/Hartree/HF/ALDA/SEX/BSfxc
# | BSEmod= "retarded"               # [BSE] resonant/retarded/coupling
# | BSSmod= "hdi"                    # [BSS] (h)aydock/(d)iagonalization/(s)lepc/(i)nversion/(t)ddft`
# | DipComputed= "R V P"             # [DIP] [default R P V; extra P2 Spin Orb]
# | BSENGexx= 109              RL    # [BSK] Exchange components
# | % BSEQptR
# |  1 | 3 |                             # [BSK] Transferred momenta range
# | %
# | % BSEBands
# |  11 | 15 |                           # [BSK] Bands range
# | %
# | % BEnRange
# | -1.000000 | 5.000000 |         eV    # [BSS] Energy range
# | %
# | % BDmRange
# |  0.050000 | 0.050000 |         eV    # [BSS] Damping range
# | %
# | BEnSteps= 251                    # [BSS] Energy steps
# | % BLongDir
# |  0.100000E-4 |  0.00000    |  0.00000    # [BSS] [cc] Electric Field
# | %
# | BSEprop= "abs jdos"              # [BSS] Can be any among abs/jdos/kerr/magn/dich/photolum/esrt
# | BSEdips= "none"                  # [BSS] Can be "trace/none" or "xy/xz/yz" to define off-diagonal rotation plane
# | BSSInvMode= "pf"                 # [BSS] Inversion solver modality `(f)ull/(p)erturbative`
# | BSEPSInvTrs= 0.010000            # [BSS EPS] Inversion treshold. Relative[o/o](>0)/Absolute(<0)
# | BSSInvPFratio= 1.000000          # [BSS] Inversion solver. Ratio between the number of frequencies solved pert/full
# | #WRbsWF                        # [BSS] Write to disk excitonic the WFs
# | BSHayTrs= 0.100000E-2            # [BSS] Relative [o/o] Haydock threshold. Strict(>0)/Average(<0)
# | BSPLInvTrs= 0.500000             # [BSS PL] Inversion treshold
