#                                                           
#  __  __   ________   ___ __ __    _______   ______        
# /_/\/_/\ /_______/\ /__//_//_/\ /_______/\ /_____/\       
# \ \ \ \ \\::: _  \ \\::\| \| \ \\::: _  \ \\:::_ \ \      
#  \:\_\ \ \\::(_)  \ \\:.      \ \\::(_)  \/_\:\ \ \ \     
#   \::::_\/ \:: __  \ \\:.\-/\  \ \\::  _  \ \\:\ \ \ \    
#     \::\ \  \:.\ \  \ \\. \  \  \ \\::(_)  \ \\:\_\ \ \   
#      \__\/   \__\/\__\/ \__\/ \__\/ \_______\/ \_____\/   
#                                                           
#                                                           
#        Version 4.1.2 Revision 14038 Hash bd0d05e          
#                    MPI+OpenMP Build                       
#                http://www.yambo-code.org                  
#
# Absorption @ Q(1) [q->0 direction] :0.1000E-4  0.000     0.000   
#
#
# - Energies      are GoWo Plasmon Pole appox.
# - Wavefunctions are Teter 93(XC)
#
# - The Green`s function is Retarded -
# - Using the Length Gauge -
# - [r,Vnl] *is* included -
#
#   BSK|Identifier              :917
#      |Dimension               :96
#      |Bands                   :1 - 7
#      |Exchange           [res]: yes
#      |Correlation        [res]: yes
#      |Kernel`s coupling       : no
#      |Exchange           [cpl]: no
#      |Correlation        [cpl]: no
#      |W interaction is bare   : no
#      |ALDA kernel in R-space  : no
#      |RL vectors    [exchange]:363
#      |RL vectors [correlation]:1
#      |E/h energy range    [ev]:-1.000000 - -1.000000
#      |Coupling range     [o/o]: 100.0000 -  100.0000
#    W |Interaction is diagonal : no
#      |Matrix size             :1
#      |Bands                   :1 - 7
#      |e/h energy range    [ev]:-1.000000 - -1.000000
#      |Poles              [o/o]: 100.0000
#      |RL vectors in the sum   :363
#      |[r,Vnl] included        : yes
#      |Field direction         :0.1000E-4  0.000000  0.000000
#      |Coulomb Cutoff          :none
#      |xc-Kernel               :none
#   RIM|RL components      [col]:0
#      |Random points      [col]:0
#
#  E/ev[1]    EPS-Im[2]  EPS-Re[3]  EPSo-Im[4] EPSo-Re[5]
#
   0.00000    0.00000   36.20539    0.00000   35.53209
 0.1001E-1  0.3708E-2   36.21     0.3442E-2   35.53   
 0.2002E-1  0.7416E-2   36.21     0.6885E-2   35.53   
 0.3003E-1  0.1112E-1   36.21     0.1033E-1   35.53   
 0.4004E-1  0.1483E-1   36.21     0.1377E-1   35.53   
 0.5005E-1  0.1854E-1   36.21     0.1722E-1   35.54   
 0.6006E-1  0.2226E-1   36.21     0.2066E-1   35.54   
 0.7007E-1  0.2597E-1   36.21     0.2411E-1   35.54   
 0.8008E-1  0.2968E-1   36.22     0.2756E-1   35.54   
 0.9009E-1  0.3340E-1   36.22     0.3101E-1   35.55   
 0.1001     0.3712E-1   36.22     0.3446E-1   35.55   
   0.11011    0.04084   36.22779    0.03791   35.55289
   0.12012    0.04457   36.23205    0.04137   35.55686
   0.13013    0.04829   36.23668    0.04483   35.56117
   0.14014    0.05202   36.24170    0.04829   35.56582
   0.15015    0.05576   36.24710    0.05176   35.57082
   0.16016    0.05950   36.25286    0.05523   35.57616
   0.17017    0.06324   36.25896    0.05870   35.58185
   0.18018    0.06698   36.26546    0.06217   35.58789
   0.19019    0.07073   36.27234    0.06565   35.59426
   0.20020    0.07449   36.27958    0.06914   35.60100
   0.21021    0.07825   36.28723    0.07263   35.60808
   0.22022    0.08202   36.29523    0.07612   35.61551
   0.23023    0.08579   36.30360    0.07962   35.62328
   0.24024    0.08956   36.31236    0.08312   35.63141
   0.25025    0.09335   36.32149    0.08663   35.63989
   0.26026    0.09714   36.33102    0.09014   35.64872
   0.27027    0.10093   36.34093    0.09366   35.65790
   0.28028    0.10473   36.35120    0.09718   35.66742
   0.29029    0.10854   36.36184    0.10072   35.67731
   0.30030    0.11236   36.37286    0.10425   35.68755
   0.31031    0.11619   36.38430    0.10780   35.69814
   0.32032    0.12002   36.39609    0.11135   35.70910
   0.33033    0.12386   36.40824    0.11491   35.72039
   0.34034    0.12771   36.42081    0.11848   35.73205
   0.35035    0.13157   36.43375    0.12205   35.74406
   0.36036    0.13543   36.44709    0.12563   35.75643
   0.37037    0.13931   36.46083    0.12922   35.76915
   0.38038    0.14319   36.47492    0.13282   35.78224
   0.39039    0.14709   36.48943    0.13643   35.79568
   0.40040    0.15099   36.50430    0.14004   35.80949
   0.41041    0.15491   36.51958    0.14367   35.82367
   0.42042    0.15884   36.53526    0.14730   35.83819
   0.43043    0.16277   36.55131    0.15094   35.85309
   0.44044    0.16672   36.56776    0.15460   35.86835
   0.45045    0.17068   36.58459    0.15826   35.88397
   0.46046    0.17465   36.60183    0.16193   35.89997
   0.47047    0.17864   36.61950    0.16562   35.91631
   0.48048    0.18264   36.63754    0.16931   35.93304
   0.49049    0.18664   36.65599    0.17302   35.95014
   0.50050    0.19067   36.67480    0.17674   35.96761
   0.51051    0.19470   36.69405    0.18047   35.98545
   0.52052    0.19875   36.71371    0.18421   36.00365
   0.53053    0.20281   36.73375    0.18796   36.02223
   0.54054    0.20689   36.75422    0.19173   36.04121
   0.55055    0.21098   36.77507    0.19550   36.06054
   0.56056    0.21509   36.79638    0.19930   36.08026
   0.57057    0.21921   36.81806    0.20310   36.10035
   0.58058    0.22335   36.84015    0.20692   36.12082
   0.59059    0.22750   36.86264    0.21075   36.14169
   0.60060    0.23167   36.88557    0.21460   36.16293
   0.61061    0.23586   36.90892    0.21846   36.18456
   0.62062    0.24006   36.93268    0.22233   36.20657
   0.63063    0.24428   36.95687    0.22622   36.22897
   0.64064    0.24852   36.98148    0.23013   36.25176
   0.65065    0.25277   37.00649    0.23405   36.27494
   0.66066    0.25704   37.03193    0.23799   36.29851
   0.67067    0.26134   37.05783    0.24194   36.32248
   0.68068    0.26565   37.08414    0.24591   36.34684
   0.69069    0.26998   37.11089    0.24990   36.37160
   0.70070    0.27433   37.13807    0.25390   36.39675
   0.71071    0.27869   37.16568    0.25792   36.42231
   0.72072    0.28308   37.19372    0.26196   36.44828
   0.73073    0.28749   37.22221    0.26601   36.47463
   0.74074    0.29193   37.25115    0.27009   36.50141
   0.75075    0.29638   37.28052    0.27418   36.52857
   0.76076    0.30085   37.31031    0.27830   36.55616
   0.77077    0.30535   37.34058    0.28243   36.58416
   0.78078    0.30987   37.37132    0.28658   36.61258
   0.79079    0.31441   37.40247    0.29075   36.64141
   0.80080    0.31898   37.43410    0.29494   36.67065
   0.81081    0.32357   37.46617    0.29916   36.70033
   0.82082    0.32818   37.49870    0.30339   36.73040
   0.83083    0.33282   37.53171    0.30765   36.76091
   0.84084    0.33749   37.56519    0.31192   36.79185
   0.85085    0.34218   37.59912    0.31622   36.82322
   0.86086    0.34689   37.63350    0.32054   36.85500
   0.87087    0.35163   37.66837    0.32489   36.88722
   0.88088    0.35640   37.70374    0.32926   36.91990
   0.89089    0.36120   37.73954    0.33365   36.95299
   0.90090    0.36602   37.77586    0.33807   36.98654
   0.91091    0.37087   37.81263    0.34251   37.02052
   0.92092    0.37576   37.84991    0.34697   37.05494
   0.93093    0.38067   37.88768    0.35146   37.08981
   0.94094    0.38561   37.92592    0.35598   37.12513
   0.95095    0.39057   37.96468    0.36052   37.16091
   0.96096    0.39557   38.00393    0.36509   37.19712
   0.97097    0.40061   38.04366    0.36969   37.23381
   0.98098    0.40567   38.08392    0.37431   37.27096
   0.99099    0.41076   38.12466    0.37896   37.30856
   1.00100    0.41589   38.16592    0.38364   37.34663
   1.01101    0.42105   38.20772    0.38835   37.38518
   1.02102    0.42625   38.25002    0.39309   37.42418
   1.03103    0.43148   38.29281    0.39785   37.46368
   1.04104    0.43674   38.33616    0.40265   37.50365
   1.05105    0.44204   38.38003    0.40748   37.54409
   1.06106    0.44737   38.42440    0.41234   37.58500
   1.07107    0.45275   38.46935    0.41723   37.62642
   1.08108    0.45815   38.51483    0.42215   37.66833
   1.09109    0.46360   38.56083    0.42710   37.71073
   1.10110    0.46908   38.60739    0.43209   37.75362
   1.11111    0.47461   38.65447    0.43711   37.79702
   1.12112    0.48017   38.70214    0.44217   37.84091
   1.13113    0.48577   38.75033    0.44726   37.88529
   1.14114    0.49142   38.79911    0.45238   37.93021
   1.15115    0.49710   38.84845    0.45754   37.97562
   1.16116    0.50283   38.89835    0.46274   38.02157
   1.17117    0.50860   38.94883    0.46797   38.06803
   1.18118    0.51441   38.99987    0.47324   38.11500
   1.19119    0.52027   39.05151    0.47855   38.16253
   1.20120    0.52617   39.10374    0.48390   38.21057
   1.21121    0.53212   39.15655    0.48928   38.25914
   1.22122    0.53811   39.20998    0.49471   38.30824
   1.23123    0.54415   39.26398    0.50017   38.35791
   1.24124    0.55024   39.31861    0.50568   38.40810
   1.25125    0.55638   39.37379    0.51123   38.45887
   1.26126    0.56256   39.42965    0.51682   38.51019
   1.27127    0.56880   39.48610    0.52246   38.56206
   1.28128    0.57509   39.54317    0.52813   38.61450
   1.29129    0.58142   39.60088    0.53385   38.66749
   1.30130    0.58781   39.65926    0.53962   38.72107
   1.31131    0.59426   39.71823    0.54543   38.77523
   1.32132    0.60076   39.77785    0.55129   38.82996
   1.33133    0.60731   39.83815    0.55719   38.88528
   1.34134    0.61392   39.89906    0.56315   38.94121
   1.35135    0.62058   39.96067    0.56915   38.99771
   1.36136    0.62730   40.02293    0.57520   39.05482
   1.37137    0.63409   40.08588    0.58130   39.11253
   1.38138    0.64093   40.14947    0.58745   39.17086
   1.39139    0.64783   40.21378    0.59365   39.22979
   1.40140    0.65479   40.27877    0.59991   39.28936
   1.41141    0.66181   40.34445    0.60622   39.34954
   1.42142    0.66890   40.41082    0.61258   39.41036
   1.43143    0.67605   40.47792    0.61899   39.47181
   1.44144    0.68327   40.54576    0.62547   39.53391
   1.45145    0.69056   40.61424    0.63199   39.59666
   1.46146    0.69791   40.68353    0.63858   39.66006
   1.47147    0.70533   40.75354    0.64523   39.72412
   1.48148    0.71282   40.82430    0.65193   39.78885
   1.49149    0.72038   40.89577    0.65869   39.85423
   1.50150    0.72801   40.96801    0.66552   39.92030
   1.51151    0.73572   41.04103    0.67241   39.98706
   1.52152    0.74350   41.11483    0.67936   40.05449
   1.53153    0.75135   41.18939    0.68637   40.12264
   1.54154    0.75929   41.26476    0.69345   40.19147
   1.55155    0.76730   41.34088    0.70060   40.26103
   1.56156    0.77539   41.41783    0.70781   40.33129
   1.57157    0.78356   41.49558    0.71509   40.40229
   1.58158    0.79181   41.57417    0.72244   40.47401
   1.59159    0.80015   41.65354    0.72986   40.54644
   1.60160    0.80857   41.73375    0.73736   40.61964
   1.61161    0.81708   41.81483    0.74492   40.69357
   1.62162    0.82567   41.89676    0.75256   40.76828
   1.63163    0.83436   41.97955    0.76028   40.84374
   1.64164    0.84313   42.06321    0.76807   40.91998
   1.65165    0.85200   42.14773    0.77594   40.99699
   1.66166    0.86096   42.23314    0.78388   41.07479
   1.67167    0.87001   42.31947    0.79191   41.15340
   1.68168    0.87917   42.40669    0.80002   41.23282
   1.69169    0.88842   42.49482    0.80822   41.31301
   1.70170    0.89777   42.58386    0.81649   41.39404
   1.71171    0.90723   42.67386    0.82486   41.47589
   1.72172    0.91679   42.76482    0.83331   41.55860
   1.73173    0.92645   42.85671    0.84184   41.64214
   1.74174    0.93622   42.94957    0.85047   41.72653
   1.75175    0.94610   43.04340    0.85919   41.81178
   1.76176    0.95609   43.13824    0.86801   41.89793
   1.77177    0.96620   43.23406    0.87692   41.98493
   1.78178    0.97642   43.33091    0.88592   42.07285
   1.79179    0.98676   43.42876    0.89502   42.16166
   1.80180    0.99721   43.52768    0.90422   42.25138
   1.81181    1.00779   43.62761    0.91353   42.34200
   1.82182    1.01849   43.72861    0.92294   42.43357
   1.83183    1.02932   43.83069    0.93245   42.52609
   1.84184    1.04028   43.93385    0.94207   42.61954
   1.85185    1.05137   44.03807    0.95179   42.71396
   1.86186    1.06258   44.14344    0.96163   42.80936
   1.87187    1.07394   44.24989    0.97158   42.90572
   1.88188    1.08543   44.35754    0.98164   43.00310
   1.89189    1.09706   44.46629    0.99183   43.10147
   1.90190    1.10884   44.57621    1.00213   43.20087
   1.91191    1.12076   44.68729    1.01255   43.30131
   1.92192    1.13283   44.79961    1.02309   43.40279
   1.93193    1.14505   44.91309    1.03376   43.50529
   1.94194    1.15742   45.02781    1.04455   43.60890
   1.95195    1.16995   45.14377    1.05548   43.71355
   1.96196    1.18264   45.26097    1.06653   43.81931
   1.97197    1.19550   45.37946    1.07772   43.92619
   1.98198    1.20852   45.49924    1.08905   44.03417
   1.99199    1.22170   45.62027    1.10052   44.14328
   2.00200    1.23506   45.74265    1.11213   44.25355
   2.01201    1.24860   45.86636    1.12388   44.36498
   2.02202    1.26231   45.99143    1.13578   44.47757
   2.03203    1.27621   46.11787    1.14783   44.59136
   2.04204    1.29029   46.24567    1.16004   44.70635
   2.05205    1.30456   46.37492    1.17240   44.82257
   2.06206    1.31903   46.50559    1.18491   44.94001
   2.07207    1.33369   46.63768    1.19759   45.05870
   2.08208    1.34855   46.77126    1.21044   45.17868
   2.09209    1.36362   46.90630    1.22345   45.29992
   2.10210    1.37890   47.04285    1.23663   45.42248
   2.11211    1.39439   47.18092    1.24999   45.54634
   2.12212    1.41010   47.32058    1.26352   45.67155
   2.13213    1.42603   47.46175    1.27724   45.79809
   2.14214    1.44219   47.60455    1.29114   45.92602
   2.15215    1.45858   47.74893    1.30523   46.05532
   2.16216    1.47521   47.89497    1.31951   46.18604
   2.17217    1.49207   48.04266    1.33399   46.31817
   2.18218    1.50919   48.19206    1.34867   46.45178
   2.19219    1.52655   48.34315    1.36355   46.58683
   2.20220    1.54417   48.49596    1.37864   46.72338
   2.21221    1.56206   48.65057    1.39394   46.86142
   2.22222    1.58021   48.80690    1.40946   47.00101
   2.23223    1.59863   48.96508    1.42520   47.14211
   2.24224    1.61734   49.12511    1.44117   47.28483
   2.25225    1.63633   49.28698    1.45736   47.42913
   2.26226    1.65561   49.45076    1.47380   47.57504
   2.27227    1.67519   49.61646    1.49047   47.72258
   2.28228    1.69507   49.78410    1.50739   47.87180
   2.29229    1.71527   49.95373    1.52455   48.02269
   2.30230    1.73578   50.12539    1.54198   48.17529
   2.31231    1.75662   50.29907    1.55966   48.32964
   2.32232    1.77779   50.47487    1.57761   48.48577
   2.33233    1.79931   50.65271    1.59584   48.64369
   2.34234    1.82117   50.83276    1.61434   48.80340
   2.35235    1.84338   51.01495    1.63312   48.96499
   2.36236    1.86597   51.19936    1.65220   49.12843
   2.37237    1.88892   51.38602    1.67158   49.29377
   2.38238    1.91225   51.57498    1.69126   49.46105
   2.39239    1.93598   51.76625    1.71125   49.63029
   2.40240    1.96010   51.95990    1.73155   49.80154
   2.41241    1.98464   52.15594    1.75219   49.97479
   2.42242    2.00959   52.35443    1.77315   50.15011
   2.43243    2.03497   52.55541    1.79446   50.32751
   2.44244    2.06080   52.75893    1.81611   50.50705
   2.45245    2.08707   52.96500    1.83812   50.68873
   2.46246    2.11380   53.17368    1.86049   50.87262
   2.47247    2.14100   53.38503    1.88323   51.05873
   2.48248    2.16869   53.59909    1.90636   51.24710
   2.49249    2.19688   53.81592    1.92987   51.43776
   2.50250    2.22557   54.03552    1.95379   51.63078
   2.51251    2.25478   54.25799    1.97812   51.82619
   2.52252    2.28453   54.48338    2.00286   52.02401
   2.53253    2.31483   54.71169    2.02804   52.22431
   2.54254    2.34569   54.94304    2.05365   52.42709
   2.55255    2.37713   55.17747    2.07972   52.63245
   2.56256    2.40915   55.41499    2.10624   52.84039
   2.57257    2.44179   55.65573    2.13324   53.05095
   2.58258    2.47505   55.89968    2.16073   53.26423
   2.59259    2.50895   56.14695    2.18871   53.48022
   2.60260    2.54351   56.39759    2.21721   53.69901
   2.61261    2.57874   56.65166    2.24622   53.92060
   2.62262    2.61467   56.90924    2.27578   54.14513
   2.63263    2.65131   57.17036    2.30588   54.37259
   2.64264    2.68868   57.43514    2.33655   54.60300
   2.65265    2.72680   57.70361    2.36780   54.83647
   2.66266    2.76570   57.97588    2.39965   55.07304
   2.67267    2.80539   58.25203    2.43211   55.31281
   2.68268    2.84591   58.53205    2.46520   55.55578
   2.69269    2.88726   58.81614    2.49893   55.80205
   2.70270    2.92948   59.10434    2.53332   56.05165
   2.71271    2.97259   59.39671    2.56839   56.30467
   2.72272    3.01661   59.69329    2.60417   56.56117
   2.73273    3.06158   59.99429    2.64066   56.82123
   2.74274    3.10753   60.29974    2.67789   57.08490
   2.75275    3.15447   60.60973    2.71588   57.35228
   2.76276    3.20245   60.92437    2.75466   57.62341
   2.77277    3.25148   61.24373    2.79424   57.89838
   2.78278    3.30162   61.56800    2.83464   58.17728
   2.79279    3.35288   61.89722    2.87590   58.46019
   2.80280    3.40531   62.23147    2.91803   58.74719
   2.81281    3.45894   62.57090    2.96107   59.03834
   2.82282    3.51380   62.91568    3.00504   59.33377
   2.83283    3.56995   63.26583    3.04996   59.63356
   2.84284    3.62741   63.62152    3.09588   59.93779
   2.85285    3.68624   63.98292    3.14280   60.24658
   2.86286    3.74648   64.35012    3.19078   60.55999
   2.87287    3.80817   64.72327    3.23984   60.87814
   2.88288    3.87136   65.10249    3.29002   61.20114
   2.89289    3.93611   65.48790    3.34134   61.52913
   2.90290    4.00246   65.87973    3.39385   61.86214
   2.91291    4.07047   66.27809    3.44759   62.20038
   2.92292    4.14020   66.68313    3.50259   62.54392
   2.93293    4.21171   67.09505    3.55889   62.89286
   2.94294    4.28506   67.51400    3.61655   63.24735
   2.95295    4.36031   67.94019    3.67560   63.60756
   2.96296    4.43754   68.37373    3.73609   63.97358
   2.97297    4.51681   68.81487    3.79807   64.34555
   2.98298    4.59821   69.26376    3.86160   64.72363
   2.99299    4.68180   69.72065    3.92671   65.10798
   3.00300    4.76767   70.18576    3.99348   65.49872
   3.01301    4.85592   70.65925    4.06196   65.89603
   3.02302    4.94661   71.14147    4.13220   66.30006
   3.03303    5.03986   71.63246    4.20428   66.71104
   3.04304    5.13575   72.13263    4.27825   67.12906
   3.05305    5.23440   72.64220    4.35419   67.55434
   3.06306    5.33591   73.16132    4.43218   67.98708
   3.07307    5.44040   73.69044    4.51228   68.42747
   3.08308    5.54798   74.22968    4.59457   68.87570
   3.09309    5.65879   74.77945    4.67915   69.33201
   3.10310    5.77296   75.33998    4.76609   69.79658
   3.11311    5.89062   75.91167    4.85550   70.26965
   3.12312    6.01193   76.49480    4.94746   70.75146
   3.13313    6.13703   77.08971    5.04207   71.24229
   3.14314    6.26610   77.69672    5.13946   71.74233
   3.15315    6.39931   78.31631    5.23972   72.25185
   3.16316    6.53684   78.94873    5.34297   72.77121
   3.17317    6.67888   79.59454    5.44934   73.30053
   3.18318    6.82563   80.25413    5.55896   73.84030
   3.19319    6.97732   80.92777    5.67197   74.39066
   3.20320    7.13417   81.61613    5.78851   74.95205
   3.21321    7.29642   82.31953    5.90874   75.52470
   3.22322    7.46434   83.03858    6.03281   76.10905
   3.23323    7.63819   83.77380    6.16090   76.70536
   3.24324    7.81826   84.52567    6.29319   77.31416
   3.25325    8.00485   85.29478    6.42986   77.93568
   3.26326    8.19831   86.08185    6.57113   78.57040
   3.27327    8.39896   86.88734    6.71721   79.21879
   3.28328    8.60719   87.71198    6.86831   79.88120
   3.29329    8.82337   88.55642    7.02469   80.55815
   3.30330    9.04795   89.42146    7.18660   81.25015
   3.31331    9.28136   90.30778    7.35430   81.95769
   3.32332    9.52408   91.21626    7.52809   82.68124
   3.33333    9.77662   92.14764    7.70828   83.42148
   3.34334   10.03954   93.10284    7.89519   84.17889
   3.35335   10.31343   94.08286    8.08917   84.95410
   3.36336   10.59890   95.08855    8.29059   85.74780
   3.37337   10.89664   96.12098    8.49984   86.56064
   3.38338   11.20738   97.18123    8.71735   87.39333
   3.39339   11.53189   98.27039    8.94358   88.24656
   3.40340   11.87103   99.38974    9.17901   89.12122
    3.4134    12.2257   100.5404     9.4241    90.0179
    3.4234    12.5969   101.7239     9.6796    90.9378
    3.4334    12.9856   102.9416     9.9459    91.8815
    3.4434    13.3931   104.1948    10.2237    92.8502
    3.4535    13.8205   105.4852    10.5137    93.8448
    3.4635    14.2692   106.8145    10.8166    94.8663
    3.4735    14.7407   108.1844    11.1334    95.9159
    3.4835    15.2366   109.5967    11.4647    96.9948
    3.4935    15.7586   111.0536    11.8116    98.1041
    3.5035    16.3085   112.5569    12.1751    99.2452
    3.5135    16.8886   114.1090    12.5563   100.4196
    3.5235    17.5009   115.7123    12.9563   101.6286
    3.5335    18.1481   117.3690    13.3765   102.8738
    3.5435    18.8328   119.0820    13.8183   104.1569
    3.5536    19.5581   120.8542    14.2833   105.4796
    3.5636    20.3272   122.6883    14.7730   106.8437
    3.5736    21.1438   124.5876    15.2894   108.2512
    3.5836    22.0120   126.5556    15.8345   109.7041
    3.5936    22.9361   128.5956    16.4105   111.2048
    3.6036    23.9212   130.7115    17.0198   112.7553
    3.6136    24.9727   132.9074    17.6651   114.3584
    3.6236    26.0969   135.1875    18.3493   116.0166
    3.6336    27.3006   137.5564    19.0758   117.7326
    3.6436    28.5914   140.0185    19.8480   119.5093
    3.6537    29.9781   142.5791    20.6701   121.3501
    3.6637    31.4703   145.2431    21.5466   123.2580
    3.6737    33.0790   148.0163    22.4823   125.2366
    3.6837    34.8164   150.9041    23.4827   127.2895
    3.6937    36.6967   153.9122    24.5543   129.4207
    3.7037    38.7356   157.0467    25.7038   131.6342
    3.7137    40.9513   160.3134    26.9391   133.9343
    3.7237    43.3642   163.7177    28.2691   136.3251
    3.7337    45.9981   167.2655    29.7037   138.8115
    3.7437    48.8796   170.9611    31.2541   141.3979
    3.7538    52.0398   174.8087    32.9333   144.0890
    3.7638    55.5139   178.8103    34.7556   146.8893
    3.7738    59.3428   182.9667    36.7378   149.8035
    3.7838    63.5734   187.2751    38.8988   152.8353
    3.7938    68.2594   191.7286    41.2601   155.9882
    3.8038    73.4623   196.3142    43.8465   159.2646
    3.8138    79.2534   201.0118    46.6867   162.6658
    3.8238    85.7129   205.7898    49.8130   166.1906
    3.8338    92.9319   210.6020    53.2627   169.8353
    3.8438   101.0114   215.3827    57.0785   173.5918
    3.8539   110.0632   220.0404    61.3091   177.4472
    3.8639   120.2053   224.4497    66.0094   181.3808
    3.8739   131.5573   228.4409    71.2409   185.3613
    3.8839   144.2323   231.7901    77.0722   189.3450
    3.8939   158.3188   234.2065    83.5768   193.2700
    3.9039   173.8574   235.3233    90.8315   197.0515
    3.9139   190.8058   234.6933    98.9116   200.5757
    3.9239   208.9939   231.7981   107.8847   203.6933
    3.9339   228.0664   226.0816   117.7968   206.2135
    3.9439   247.4327   217.0143   128.6567   207.8997
    3.9540   266.2373   204.2017   140.4107   208.4726
    3.9640   283.3884   187.5209   152.9167   207.6229
    3.9740   297.6611   167.2648   165.9106   205.0413
    3.9840   307.8984   144.2252   178.9887   200.4686
    3.9940   313.2583   119.6613   191.6078   193.7673
    4.0040   313.4290    95.1205   203.1303   184.9989
    4.0140   308.7174    72.1649   212.9114   174.4853
    4.0240   299.9736    52.0859   220.4290   162.8185
    4.0340   288.3868    35.7199   225.4136   150.7963
    4.0440   275.2393    23.4004   227.9336   139.2881
    4.0541   261.7086    15.0357   228.3959   129.0758
    4.0641   248.7511    10.2387   227.4668   120.7152
    4.0741   237.0699     8.4644   225.9415   114.4667
    4.0841   227.1363     9.1155   224.6145   110.2970
    4.0941   219.2427    11.6091   224.1858   107.9335
    4.1041   213.5535    15.4071   225.2129   106.9335
    4.1141   210.1504    20.0212   228.0973   106.7442
    4.1241   209.0661    25.0024   233.0909   106.7435
    4.1341   210.3021    29.9225   240.2992   106.2602
    4.1441   213.8328    34.3519   249.6754   104.5847
    4.1542   219.5974    37.8386   260.9973   100.9827
    4.1642   227.4775    39.8925   273.8307    94.7262
    4.1742   237.2611    39.9800   287.4908    85.1565
    4.1842   248.5972    37.5384   301.0268    71.7842
    4.1942   260.9476    32.0163   313.2567    54.4164
    4.2042   273.5470    22.9513   322.8745    33.2876
    4.2142   285.4038    10.0807   328.6418     9.1309
    4.2242   295.3604    -6.5302   329.6186   -16.8536
    4.2342   302.2341   -26.3891   325.3647   -43.1626
    4.2442   305.0189   -48.5487   316.0354   -68.2372
    4.2543   303.0970   -71.7032   302.3320   -90.7337
    4.2643   296.3821   -94.3927   285.3288  -109.7171
    4.2743   285.3287  -115.2619   266.2422  -124.7379
    4.2843   270.8134  -133.2736   246.2282  -135.7836
    4.2943   253.9307  -147.8284   226.2425  -143.1652
    4.3043   235.7856  -158.7606   206.9859  -147.3795
    4.3143   217.3358  -166.2501   188.9084  -148.9919
    4.3243   199.3177  -170.6948   172.2560  -148.5538
    4.3343   182.2309  -172.5942   157.1207  -146.5573
    4.3443   166.3697  -172.4605   143.4910  -143.4156
    4.3544   151.8664  -170.7649   131.2915  -139.4616
    4.3644   138.7445  -167.9111   120.4142  -134.9557
    4.3744   126.9562  -164.2297   110.7365  -130.0964
    4.3844   116.4118  -159.9811   102.1329  -125.0318
    4.3944   107.0038  -155.3663    94.4846  -119.8715
    4.4044    98.6187  -150.5364    87.6817  -114.6940
    4.4144    91.1458  -145.6033    81.6248  -109.5554
    4.4244    84.4810  -140.6477    76.2254  -104.4936
    4.4344    78.5301  -135.7279    71.4060   -99.5341
    4.4444    73.2088  -130.8839    67.0989   -94.6930
    4.4545    68.4427  -126.1432    63.2452   -89.9791
    4.4645    64.1661  -121.5223    59.7935   -85.3961
    4.4745    60.3221  -117.0319    56.6996   -80.9441
    4.4845    56.8613  -112.6769    53.9252   -76.6205
    4.4945    53.7407  -108.4584    51.4373   -72.4212
    4.5045    50.9228  -104.3747    49.2070   -68.3402
    4.5145    48.3753  -100.4226    47.2098   -64.3712
   4.52452   46.07016  -96.59732   45.42446  -60.50708
   4.53453   43.98320  -92.89347   43.83259  -56.74073
   4.54454   42.09313  -89.30450   42.41842  -53.06426
   4.55455   40.38179  -85.82426   41.16856  -49.47025
   4.56456   38.83330  -82.44617   40.07158  -45.95113
   4.57457   37.43405  -79.16370   39.11798  -42.49958
   4.58458   36.17212  -75.96980   38.29968  -39.10788
   4.59459   35.03737  -72.85835   37.61026  -35.76886
   4.60460   34.02110  -69.82289   37.04462  -32.47538
   4.61461   33.11602  -66.85738   36.59901  -29.22048
   4.62462   32.31587  -63.95551   36.27081  -25.99692
   4.63463   31.61562  -61.11153   36.05868  -22.79797
   4.64464   31.01130  -58.31981   35.96244  -19.61700
   4.65465   30.49975  -55.57462   35.98312  -16.44701
   4.66466   30.07885  -52.87067   36.12295  -13.28156
   4.67467   29.74742  -50.20284   36.38549  -10.11407
   4.68468   29.50509  -47.56621   36.77566   -6.93827
   4.69469   29.35246  -44.95573   37.29985   -3.74759
   4.70470   29.29103  -42.36686   37.96608   -0.53597
   4.71471   29.32331  -39.79540   38.78421    2.70245
   4.72472   29.45279  -37.23729   39.76606    5.97320
   4.73473   29.68413  -34.68882   40.92587    9.28165
   4.74474   30.02305  -32.14690   42.28037   12.63217
   4.75475   30.47649  -29.60912   43.84933   16.02835
   4.76476   31.05269  -27.07397   45.65582   19.47234
   4.77477   31.76111  -24.54063   47.72705   22.96494
   4.78478   32.61241  -22.00996   50.09456   26.50413
   4.79479   33.61836  -19.48415   52.79495   30.08463
   4.80480   34.79150  -16.96737   55.87049   33.69650
   4.81481   36.14514  -14.46504   59.37028   37.32404
   4.82482   37.69275  -11.98461   63.34996   40.94281
   4.83483   39.44812   -9.53452   67.87267   44.51730
   4.84484   41.42575   -7.12363   73.00858   47.99712
   4.85485   43.64226   -4.76056   78.83480   51.31267
   4.86486   46.11839   -2.45415   85.43219   54.36852
   4.87487   48.88168   -0.21514   92.88131   57.03688
    4.8849    51.9694     1.9407   101.2560    59.1500
    4.8949    55.4288     3.9860   110.6095    60.4914
    4.9049    59.3157     5.8759   120.9570    60.7906
    4.9149    63.6899     7.5403   132.2499    59.7218
    4.9249    68.6081     8.8789   144.3438    56.9133
    4.9349    74.1128     9.7558   156.9594    51.9737
    4.9449    80.2198     9.9978   169.6515    44.5412
    4.9550    86.9000     9.3951   181.7954    34.3599
    4.9650    94.0600     7.7093   192.6139    21.3700
    4.9750   101.5168     4.6911   201.2535     5.7978
  4.985      109.0     0.1149      206.9     -11.80   
    4.9950   116.0357    -6.1714   209.0227   -30.5591
    5.0050   122.1839   -14.1840   207.3313   -49.4323
    5.0150   126.8778   -23.7442   202.0083   -67.3498
    5.0250   129.6270   -34.4533   193.5818   -83.4051
    5.0350   130.1040   -45.7219   182.8210   -96.9802
    5.0450   128.2266   -56.8617   170.5783  -107.7915
    5.0551   124.1797   -67.2093   157.6531  -115.8512
    5.0651   118.3656   -76.2435   144.7005  -121.3872
    5.0751   111.3070   -83.6515   132.1981  -124.7485
    5.0851   103.5400   -89.3354   120.4515  -126.3260
    5.0951    95.5356   -93.3689   109.6276  -126.4980
    5.1051    87.6576   -95.9364    99.7890  -125.6001
    5.1151    80.1551   -97.2745    90.9296  -123.9135
    5.1251    73.1755   -97.6280    82.9999  -121.6647
    5.1351    66.7891   -97.2223    75.9289  -119.0305
    5.1451    61.0115   -96.2511    69.6357  -116.1461
    5.1552    55.8227   -94.8728    64.0378  -113.1127
    5.1652    51.1830   -93.2125    59.0568  -110.0052
    5.1752    47.0429   -91.3657    54.6200  -106.8779
    5.1852    43.3503   -89.4036    50.6624  -103.7697
    5.1952    40.0541   -87.3785    47.1253  -100.7076
   5.20520   37.10763  -85.32764   43.95778  -97.70994
   5.21522   34.46908  -83.27742   41.11507  -94.78878
   5.22522   32.10189  -81.24656   38.55835  -91.95145
   5.23523   29.97395  -79.24790   36.25358  -89.20149
   5.24524   28.05757  -77.29066   34.17147  -86.54034
   5.25526   26.32851  -75.38095   32.28656  -83.96748
   5.26526   24.76558  -73.52293   30.57675  -81.48136
   5.27527   23.34997  -71.71880   29.02273  -79.07910
   5.28528   22.06528  -69.96966   27.60779  -76.75771
   5.29530   20.89703  -68.27570   26.31735  -74.51373
   5.30531   19.83252  -66.63626   25.13872  -72.34351
   5.31531   18.86047  -65.05000   24.06067  -70.24313
   5.32533   17.97110  -63.51537   23.07348  -68.20884
   5.33534   17.15576  -62.03051   22.16861  -66.23695
   5.34535   16.40688  -60.59340   21.33853  -64.32382
   5.35536   15.71777  -59.20190   20.57657  -62.46576
   5.36537   15.08254  -57.85383   19.87691  -60.65937
   5.37538   14.49604  -56.54712   19.23442  -58.90139
   5.38539   13.95370  -55.27975   18.64455  -57.18871
   5.39540   13.45147  -54.04942   18.10324  -55.51808
   5.40541   12.98577  -52.85429   17.60698  -53.88671
   5.41541   12.55344  -51.69250   17.15264  -52.29186
   5.42543   12.15163  -50.56211   16.73742  -50.73072
   5.43544   11.77782  -49.46147   16.35892  -49.20077
   5.44545   11.42978  -48.38891   16.01499  -47.69953
   5.45545   11.10552  -47.34289   15.70379  -46.22468
   5.46547   10.80322  -46.32180   15.42367  -44.77383
   5.47548   10.52127  -45.32431   15.17325  -43.34476
   5.48549   10.25825  -44.34900   14.95137  -41.93537
   5.49549   10.01287  -43.39469   14.75702  -40.54358
   5.50551    9.78395  -42.46001   14.58938  -39.16724
   5.51552    9.57046  -41.54386   14.44784  -37.80442
   5.52553    9.37145  -40.64510   14.33193  -36.45308
   5.53553    9.18610  -39.76274   14.24134  -35.11136
   5.54555    9.01364  -38.89565   14.17593  -33.77723
   5.55556    8.85341  -38.04292   14.13573  -32.44881
   5.56557    8.70478  -37.20358   14.12092  -31.12418
   5.57558    8.56724  -36.37677   14.13184  -29.80146
   5.58559    8.44030  -35.56158   14.16901  -28.47863
   5.59560    8.32354  -34.75719   14.23313  -27.15376
   5.60561    8.21659  -33.96278   14.32511  -25.82486
   5.61562    8.11914  -33.17758   14.44602  -24.48998
   5.62563    8.03092  -32.40078   14.59721  -23.14696
   5.63564    7.95169  -31.63168   14.78023  -21.79373
   5.64565    7.88128  -30.86953   14.99692  -20.42821
   5.65566    7.81954  -30.11358   15.24943  -19.04803
   5.66567    7.76639  -29.36314   15.54021  -17.65098
   5.67568    7.72175  -28.61755   15.87211  -16.23472
   5.68569    7.68563  -27.87610   16.24836  -14.79689
   5.69570    7.65805  -27.13814   16.67276  -13.33490
   5.70571    7.63909  -26.40293   17.14955  -11.84626
   5.71572    7.62887  -25.66985   17.68366  -10.32841
   5.72573    7.62757  -24.93826   18.28070   -8.77877
   5.73574    7.63541  -24.20748   18.94715   -7.19463
   5.74575    7.65267  -23.47685   19.69039   -5.57346
   5.75576    7.67972  -22.74579   20.51892   -3.91279
   5.76577    7.71695  -22.01364   21.44246   -2.21038
   5.77578    7.76488  -21.27980   22.47233   -0.46408
   5.78579    7.82407  -20.54367   23.62144    1.32760
   5.79580    7.89518  -19.80480   24.90473    3.16561
   5.80581    7.97896  -19.06269   26.33937    5.04984
   5.81582    8.07628  -18.31695   27.94534    6.97913
   5.82583    8.18807  -17.56733   29.74551    8.95026
   5.83584    8.31535  -16.81371   31.76628   10.95753
   5.84585    8.45919  -16.05622   34.03784   12.99176
   5.85586    8.62071  -15.29516   36.59497   15.03930
   5.86587    8.80090  -14.53122   39.47678   17.07999
   5.87588    9.00058  -13.76536   42.72725   19.08529
   5.88589    9.22020  -12.99902   46.39452   21.01543
   5.89590    9.45960  -12.23376   50.53075   22.81627
   5.90591    9.71778  -11.47132   55.18891   24.41460
   5.91592    9.99261  -10.71327   60.41948   25.71350
   5.92593   10.28085   -9.96012   66.26467   26.58723
   5.93594   10.57826   -9.21105   72.74725   26.87632
   5.94595   10.88022   -8.46302   79.85687   26.38536
   5.95596   11.18283   -7.71048   87.53027   24.88556
   5.96597   11.48410   -6.94549   95.62929   22.12608
    5.9760    11.7850    -6.1589   103.9159    17.8593
    5.9860    12.0897    -5.3417   112.0378    11.8819
    5.9960    12.4053    -4.4863   119.5320     4.0918
    6.0060    12.7408    -3.5872   125.8610    -5.4532
    6.0160    13.1056    -2.6417   130.4818   -16.4889
    6.0260    13.5088    -1.6489   132.9447   -28.5406
    6.0360    13.9588    -0.6090   132.9895   -40.9717
    6.0460    14.4632     0.4771   130.6068   -53.0844
    6.0561    15.0287     1.6087   126.0399   -64.2344
    6.0661    15.6624     2.7852   119.7272   -73.9335
    6.0761    16.3713     4.0070   112.2071   -81.9015
    6.0861    17.1637     5.2746   104.0194   -88.0664
   6.09610   18.04881    6.58878   95.63377  -92.51979
   6.10611   19.03785    7.95022   87.41082  -95.45851
   6.11612   20.14360    9.35900   79.59701  -97.12793
   6.12613   21.38117   10.81468   72.33752  -97.77945
   6.13614   22.76778   12.31538   65.70080  -97.64393
   6.14615   24.32331   13.85772   59.70064  -96.91948
   6.15616   26.07048   15.43601   54.31639  -95.76855
   6.16617   28.03554   17.04189   49.50695  -94.31941
   6.17618   30.24822   18.66275   45.22226  -92.67123
   6.18619   32.74220   20.28064   41.40931  -90.89906
   6.19620   35.55557   21.87055   38.01566  -89.05858
   6.20621   38.73002   23.39762   34.99271  -87.19076
   6.21622   42.31046   24.81441   32.29606  -85.32502
   6.22623   46.34291   26.05697   29.88608  -83.48235
   6.23624   50.87197   27.04070   27.72748  -81.67703
   6.24625   55.93427   27.65540   25.78961  -79.91871
   6.25626   61.55036   27.76091   24.04563  -78.21359
   6.26627   67.71144   27.18471   22.47226  -76.56525
   6.27628   74.36295   25.72348   21.04913  -74.97523
   6.28629   81.38153   23.15289   19.75868  -73.44395
   6.29630   88.55361   19.24979   18.58564  -71.97079
   6.30631   95.55904   13.83081   17.51678  -70.55459
    6.3163   101.9741     6.8053    16.5404   -69.1935
    6.3263   107.3027    -1.7638    15.6465   -67.8856
    6.3363   111.0480   -11.6154    14.8263   -66.6288
    6.3463   112.8111   -22.2861    14.0721   -65.4208
    6.3564   112.3887   -33.1677    13.3770   -64.2594
    6.3664   109.8271   -43.6115    12.7351   -63.1424
    6.3764   105.4104   -53.0514    12.1412   -62.0675
   6.38639   99.58540  -61.09418   11.59067  -61.03266
   6.39640   92.85839  -67.55484   11.07938  -60.03587
   6.40641   85.70573  -72.43245   10.60372  -59.07513
   6.41642   78.51593  -75.85805   10.16045  -58.14869
   6.42643   71.56870  -78.03570    9.74665  -57.25471
   6.43644   65.04253  -79.19255    9.35979  -56.39157
   6.44645   59.03314  -79.54755    8.99754  -55.55769
   6.45646   53.57630  -79.29382    8.65786  -54.75163
   6.46647   48.66739  -78.59247    8.33887  -53.97195
   6.47648   44.27832  -77.57281    8.03890  -53.21735
   6.48649   40.36794  -76.33558    7.75645  -52.48662
   6.49650   36.88985  -74.95755    7.49017  -51.77862
   6.50651   33.79647  -73.49586    7.23880  -51.09220
   6.51652   31.04278  -71.99248    7.00124  -50.42636
   6.52653   28.58724  -70.47713    6.77647  -49.78016
   6.53654   26.39282  -68.97076    6.56357  -49.15267
   6.54655   24.42688  -67.48745    6.36168  -48.54303
   6.55656   22.66140  -66.03662    6.17005  -47.95043
   6.56657   21.07230  -64.62440    5.98797  -47.37414
   6.57658   19.63885  -63.25472    5.81480  -46.81342
   6.58659   18.34299  -61.92983    5.64993  -46.26759
   6.59660   17.16916  -60.65104    5.49285  -45.73603
   6.60661   16.10369  -59.41867    5.34303  -45.21814
   6.61662   15.13461  -58.23257    5.20004  -44.71334
   6.62663   14.25127  -57.09172    5.06343  -44.22109
   6.63664   13.44442  -55.99513    4.93282  -43.74089
   6.64665   12.70587  -54.94143    4.80785  -43.27225
   6.65666   12.02846  -53.92901    4.68820  -42.81475
   6.66667   11.40578  -52.95612    4.57354  -42.36791
   6.67668   10.83228  -52.02106    4.46358  -41.93134
   6.68669   10.30303  -51.12213    4.35808  -41.50469
   6.69670    9.81366  -50.25750    4.25676  -41.08753
   6.70671    9.36032  -49.42550    4.15941  -40.67952
   6.71672    8.93961  -48.62456    4.06581  -40.28036
   6.72673    8.54851  -47.85306    3.97577  -39.88972
   6.73674    8.18429  -47.10948    3.88909  -39.50730
   6.74675    7.84456  -46.39240    3.80559  -39.13281
   6.75676    7.52718  -45.70049    3.72512  -38.76599
   6.76677    7.23024  -45.03243    3.64753  -38.40656
   6.77678    6.95200  -44.38702    3.57267  -38.05427
   6.78679    6.69091  -43.76310    3.50040  -37.70890
   6.79680    6.44560  -43.15963    3.43060  -37.37024
   6.80681    6.21480  -42.57559    3.36316  -37.03803
   6.81682    5.99738  -42.00999    3.29796  -36.71211
   6.82683    5.79232  -41.46200    3.23490  -36.39226
   6.83684    5.59866  -40.93064    3.17387  -36.07825
   6.84685    5.41559  -40.41529    3.11479  -35.76999
   6.85686    5.24232  -39.91505    3.05757  -35.46724
   6.86687    5.07816  -39.42933    3.00214  -35.16986
   6.87688    4.92247  -38.95742    2.94840  -34.87769
   6.88689    4.77465  -38.49865    2.89628  -34.59055
   6.89690    4.63419  -38.05248    2.84572  -34.30835
   6.90691    4.50058  -37.61837    2.79666  -34.03091
   6.91692    4.37337  -37.19577    2.74902  -33.75808
   6.92693    4.25216  -36.78421    2.70276  -33.48977
   6.93694    4.13656  -36.38321    2.65781  -33.22584
   6.94695    4.02621  -35.99229    2.61412  -32.96616
   6.95696    3.92081  -35.61110    2.57164  -32.71064
   6.96697    3.82003  -35.23916    2.53033  -32.45914
   6.97698    3.72362  -34.87621    2.49014  -32.21159
   6.98699    3.63131  -34.52182    2.45102  -31.96786
   6.99700    3.54286  -34.17567    2.41294  -31.72783
   7.00701    3.45805  -33.83747    2.37585  -31.49147
   7.01702    3.37669  -33.50688    2.33973  -31.25864
   7.02703    3.29857  -33.18362    2.30453  -31.02926
   7.03704    3.22352  -32.86743    2.27022  -30.80325
   7.04705    3.15137  -32.55802    2.23677  -30.58051
   7.05706    3.08198  -32.25522    2.20414  -30.36100
   7.06707    3.01520  -31.95875    2.17232  -30.14462
   7.07708    2.95088  -31.66838    2.14127  -29.93126
   7.08709    2.88890  -31.38391    2.11096  -29.72091
   7.09710    2.82916  -31.10516    2.08137  -29.51349
   7.10711    2.77153  -30.83187    2.05247  -29.30887
   7.11712    2.71591  -30.56394    2.02425  -29.10706
   7.12713    2.66220  -30.30111    1.99668  -28.90797
   7.13714    2.61032  -30.04329    1.96973  -28.71154
   7.14715    2.56018  -29.79031    1.94340  -28.51770
   7.15716    2.51169  -29.54195    1.91765  -28.32640
   7.16717    2.46479  -29.29812    1.89247  -28.13760
   7.17718    2.41939  -29.05871    1.86784  -27.95123
   7.18719    2.37543  -28.82350    1.84374  -27.76721
   7.19720    2.33285  -28.59240    1.82017  -27.58557
   7.20721    2.29159  -28.36533    1.79710  -27.40619
   7.21722    2.25158  -28.14212    1.77451  -27.22904
   7.22723    2.21278  -27.92271    1.75239  -27.05408
   7.23724    2.17513  -27.70691    1.73073  -26.88126
   7.24725    2.13859  -27.49468    1.70952  -26.71055
   7.25726    2.10312  -27.28591    1.68874  -26.54191
   7.26727    2.06865  -27.08047    1.66838  -26.37526
   7.27728    2.03517  -26.87834    1.64842  -26.21062
   7.28729    2.00262  -26.67935    1.62886  -26.04790
   7.29730    1.97097  -26.48346    1.60969  -25.88707
   7.30731    1.94019  -26.29058    1.59088  -25.72813
   7.31732    1.91024  -26.10062    1.57244  -25.57100
   7.32733    1.88109  -25.91351    1.55436  -25.41568
   7.33734    1.85271  -25.72920    1.53661  -25.26211
   7.34735    1.82507  -25.54757    1.51920  -25.11028
   7.35736    1.79815  -25.36860    1.50212  -24.96013
   7.36737    1.77191  -25.19221    1.48535  -24.81166
   7.37738    1.74634  -25.01830    1.46889  -24.66483
   7.38739    1.72140  -24.84688    1.45273  -24.51959
   7.39740    1.69708  -24.67781    1.43686  -24.37592
   7.40741    1.67336  -24.51109    1.42128  -24.23382
   7.41742    1.65020  -24.34666    1.40598  -24.09324
   7.42743    1.62761  -24.18444    1.39094  -23.95415
   7.43744    1.60554  -24.02439    1.37617  -23.81653
   7.44745    1.58400  -23.86647    1.36166  -23.68036
   7.45746    1.56295  -23.71064    1.34739  -23.54560
   7.46747    1.54239  -23.55681    1.33337  -23.41224
   7.47748    1.52230  -23.40497    1.31959  -23.28025
   7.48749    1.50266  -23.25507    1.30605  -23.14960
   7.49750    1.48346  -23.10706    1.29273  -23.02029
   7.50751    1.46468  -22.96091    1.27963  -22.89227
   7.51752    1.44631  -22.81659    1.26675  -22.76555
   7.52753    1.42834  -22.67403    1.25408  -22.64009
   7.53754    1.41075  -22.53320    1.24161  -22.51586
   7.54755    1.39354  -22.39410    1.22935  -22.39286
   7.55756    1.37669  -22.25666    1.21728  -22.27106
   7.56757    1.36019  -22.12083    1.20541  -22.15044
   7.57758    1.34404  -21.98662    1.19373  -22.03098
   7.58759    1.32821  -21.85397    1.18223  -21.91268
   7.59760    1.31271  -21.72284    1.17091  -21.79550
   7.60761    1.29752  -21.59325    1.15977  -21.67944
   7.61762    1.28263  -21.46510    1.14879  -21.56446
   7.62763    1.26803  -21.33842    1.13799  -21.45057
   7.63764    1.25372  -21.21317    1.12735  -21.33774
   7.64765    1.23969  -21.08929    1.11687  -21.22593
   7.65766    1.22593  -20.96679    1.10656  -21.11518
   7.66767    1.21244  -20.84561    1.09639  -21.00543
   7.67768    1.19919  -20.72576    1.08638  -20.89670
   7.68769    1.18620  -20.60719    1.07651  -20.78893
   7.69770    1.17345  -20.48989    1.06679  -20.68213
   7.70771    1.16093  -20.37384    1.05721  -20.57630
   7.71772    1.14865  -20.25902    1.04777  -20.47142
   7.72773    1.13659  -20.14536    1.03847  -20.36745
   7.73774    1.12474  -20.03291    1.02930  -20.26440
   7.74775    1.11311  -19.92161    1.02026  -20.16225
   7.75776    1.10168  -19.81145    1.01135  -20.06099
   7.76777    1.09046  -19.70240    1.00256  -19.96061
   7.77778    1.07943  -19.59444    0.99390  -19.86110
   7.78779    1.06860  -19.48757    0.98536  -19.76243
   7.79780    1.05795  -19.38176    0.97693  -19.66462
   7.80781    1.04748  -19.27698    0.96863  -19.56763
   7.81782    1.03719  -19.17324    0.96043  -19.47145
   7.82783    1.02707  -19.07050    0.95235  -19.37609
   7.83784    1.01712  -18.96874    0.94438  -19.28153
   7.84785    1.00734  -18.86797    0.93651  -19.18775
   7.85786    0.99772  -18.76814    0.92875  -19.09473
   7.86787    0.98826  -18.66927    0.92110  -19.00249
   7.87788    0.97895  -18.57132    0.91354  -18.91101
   7.88789    0.96979  -18.47429    0.90609  -18.82026
   7.89790    0.96078  -18.37815    0.89873  -18.73026
   7.90791    0.95192  -18.28289    0.89147  -18.64098
   7.91792    0.94319  -18.18850    0.88431  -18.55241
   7.92793    0.93460  -18.09499    0.87723  -18.46456
   7.93794    0.92614  -18.00229    0.87025  -18.37740
   7.94795    0.91782  -17.91044    0.86336  -18.29092
   7.95796    0.90962  -17.81941    0.85656  -18.20514
   7.96797    0.90155  -17.72916    0.84984  -18.12001
   7.97798    0.89361  -17.63972    0.84320  -18.03557
   7.98799    0.88578  -17.55108    0.83665  -17.95177
   7.99800    0.87807  -17.46319    0.83019  -17.86860
   8.00801    0.87048  -17.37605    0.82380  -17.78610
   8.01802    0.86300  -17.28967    0.81749  -17.70421
   8.02803    0.85563  -17.20402    0.81126  -17.62295
   8.03804    0.84837  -17.11909    0.80511  -17.54231
   8.04805    0.84121  -17.03488    0.79903  -17.46227
   8.05806    0.83416  -16.95138    0.79303  -17.38283
   8.06807    0.82721  -16.86856    0.78710  -17.30399
   8.07808    0.82037  -16.78643    0.78124  -17.22572
   8.08809    0.81361  -16.70497    0.77545  -17.14805
   8.09810    0.80696  -16.62418    0.76973  -17.07095
   8.10811    0.80040  -16.54404    0.76408  -16.99441
   8.11812    0.79393  -16.46456    0.75849  -16.91842
   8.12813    0.78755  -16.38570    0.75297  -16.84299
   8.13814    0.78126  -16.30747    0.74752  -16.76811
   8.14815    0.77506  -16.22987    0.74213  -16.69377
   8.15816    0.76895  -16.15288    0.73681  -16.61995
   8.16817    0.76291  -16.07648    0.73154  -16.54667
   8.17818    0.75696  -16.00069    0.72634  -16.47390
   8.18819    0.75110  -15.92548    0.72120  -16.40166
   8.19820    0.74531  -15.85086    0.71612  -16.32992
   8.20821    0.73960  -15.77680    0.71109  -16.25868
   8.21822    0.73396  -15.70329    0.70613  -16.18793
   8.22823    0.72840  -15.63036    0.70122  -16.11769
   8.23824    0.72292  -15.55795    0.69636  -16.04792
   8.24825    0.71750  -15.48611    0.69157  -15.97864
   8.25826    0.71216  -15.41480    0.68682  -15.90983
   8.26827    0.70689  -15.34400    0.68213  -15.84149
   8.27828    0.70169  -15.27373    0.67749  -15.77361
   8.28829    0.69656  -15.20398    0.67291  -15.70621
   8.29830    0.69149  -15.13471    0.66837  -15.63925
   8.30831    0.68649  -15.06597    0.66389  -15.57273
   8.31832    0.68155  -14.99771    0.65945  -15.50666
   8.32833    0.67668  -14.92995    0.65507  -15.44104
   8.33834    0.67187  -14.86267    0.65073  -15.37585
   8.34835    0.66712  -14.79585    0.64644  -15.31108
   8.35836    0.66243  -14.72951    0.64220  -15.24674
   8.36837    0.65780  -14.66362    0.63801  -15.18283
   8.37838    0.65323  -14.59820    0.63386  -15.11932
   8.38839    0.64872  -14.53323    0.62976  -15.05622
   8.39840    0.64426  -14.46871    0.62570  -14.99353
   8.40841    0.63986  -14.40462    0.62169  -14.93125
   8.41842    0.63552  -14.34097    0.61771  -14.86937
   8.42843    0.63123  -14.27775    0.61379  -14.80787
   8.43844    0.62699  -14.21496    0.60990  -14.74677
   8.44845    0.62281  -14.15259    0.60606  -14.68605
   8.45846    0.61867  -14.09062    0.60226  -14.62570
   8.46847    0.61459  -14.02907    0.59850  -14.56575
   8.47848    0.61057  -13.96792    0.59478  -14.50616
   8.48849    0.60659  -13.90717    0.59110  -14.44694
   8.49850    0.60266  -13.84680    0.58746  -14.38809
   8.50851    0.59877  -13.78683    0.58386  -14.32959
   8.51852    0.59494  -13.72725    0.58030  -14.27145
   8.52853    0.59115  -13.66805    0.57678  -14.21367
   8.53854    0.58742  -13.60920    0.57329  -14.15623
   8.54855    0.58372  -13.55075    0.56985  -14.09914
   8.55856    0.58008  -13.49266    0.56644  -14.04240
   8.56857    0.57647  -13.43492    0.56306  -13.98599
   8.57858    0.57291  -13.37754    0.55973  -13.92992
   8.58859    0.56940  -13.32052    0.55643  -13.87417
   8.59860    0.56593  -13.26383    0.55316  -13.81875
   8.60861    0.56250  -13.20750    0.54993  -13.76367
   8.61862    0.55912  -13.15149    0.54674  -13.70889
   8.62863    0.55578  -13.09584    0.54358  -13.65444
   8.63864    0.55248  -13.04052    0.54045  -13.60029
   8.64865    0.54922  -12.98551    0.53736  -13.54646
   8.65866    0.54600  -12.93083    0.53430  -13.49294
   8.66867    0.54282  -12.87646    0.53128  -13.43972
   8.67868    0.53968  -12.82242    0.52828  -13.38679
   8.68869    0.53658  -12.76869    0.52533  -13.33417
   8.69870    0.53352  -12.71525    0.52240  -13.28184
   8.70871    0.53050  -12.66213    0.51951  -13.22980
   8.71872    0.52752  -12.60930    0.51665  -13.17805
   8.72873    0.52458  -12.55678    0.51382  -13.12658
   8.73874    0.52167  -12.50454    0.51102  -13.07540
   8.74875    0.51881  -12.45259    0.50826  -13.02449
   8.75876    0.51598  -12.40092    0.50552  -12.97385
   8.76877    0.51318  -12.34953    0.50282  -12.92349
   8.77878    0.51043  -12.29843    0.50015  -12.87339
   8.78879    0.50771  -12.24760    0.49751  -12.82357
   8.79880    0.50503  -12.19703    0.49490  -12.77400
   8.80881    0.50238  -12.14673    0.49232  -12.72469
   8.81882    0.49977  -12.09670    0.48977  -12.67564
   8.82883    0.49720  -12.04691    0.48726  -12.62684
   8.83884    0.49466  -11.99739    0.48477  -12.57830
   8.84885    0.49216  -11.94812    0.48231  -12.53000
   8.85886    0.48969  -11.89910    0.47989  -12.48193
   8.86887    0.48726  -11.85032    0.47749  -12.43412
   8.87888    0.48487  -11.80179    0.47512  -12.38655
   8.88889    0.48251  -11.75348    0.47279  -12.33920
   8.89890    0.48018  -11.70542    0.47048  -12.29210
   8.90891    0.47790  -11.65759    0.46821  -12.24522
   8.91892    0.47564  -11.60998    0.46596  -12.19856
   8.92893    0.47342  -11.56260    0.46375  -12.15214
   8.93894    0.47124  -11.51543    0.46157  -12.10592
   8.94895    0.46910  -11.46849    0.45941  -12.05993
   8.95896    0.46698  -11.42177    0.45729  -12.01416
   8.96897    0.46491  -11.37524    0.45520  -11.96859
   8.97898    0.46287  -11.32893    0.45314  -11.92323
   8.98899    0.46086  -11.28281    0.45111  -11.87808
   8.99900    0.45890  -11.23690    0.44911  -11.83313
   9.00901    0.45696  -11.19118    0.44715  -11.78838
   9.01902    0.45507  -11.14566    0.44521  -11.74382
   9.02903    0.45321  -11.10032    0.44331  -11.69946
   9.03904    0.45139  -11.05518    0.44144  -11.65529
   9.04905    0.44961  -11.01021    0.43960  -11.61130
   9.05906    0.44786  -10.96542    0.43780  -11.56750
   9.06907    0.44615  -10.92080    0.43603  -11.52388
   9.07908    0.44448  -10.87635    0.43430  -11.48044
   9.08909    0.44285  -10.83208    0.43260  -11.43717
   9.09910    0.44126  -10.78795    0.43093  -11.39407
   9.10911    0.43971  -10.74400    0.42930  -11.35114
   9.11912    0.43820  -10.70019    0.42771  -11.30836
   9.12913    0.43674  -10.65655    0.42616  -11.26575
   9.13914    0.43531  -10.61304    0.42464  -11.22330
   9.14915    0.43392  -10.56969    0.42316  -11.18101
   9.15916    0.43258  -10.52645    0.42172  -11.13885
   9.16917    0.43129  -10.48337    0.42033  -11.09684
   9.17918    0.43004  -10.44042    0.41897  -11.05498
   9.18919    0.42883  -10.39759    0.41766  -11.01326
   9.19920    0.42767  -10.35488    0.41639  -10.97166
   9.20921    0.42656  -10.31229    0.41516  -10.93020
   9.21922    0.42550  -10.26982    0.41399  -10.88886
   9.22923    0.42449  -10.22745    0.41286  -10.84764
   9.23924    0.42353  -10.18518    0.41178  -10.80654
   9.24925    0.42263  -10.14301    0.41075  -10.76555
   9.25926    0.42178  -10.10094    0.40977  -10.72467
   9.26927    0.42099  -10.05896    0.40885  -10.68389
   9.27928    0.42025  -10.01706    0.40799  -10.64321
   9.28929    0.41958   -9.97523    0.40719  -10.60261
   9.29930    0.41897   -9.93346    0.40645  -10.56211
   9.30931    0.41842   -9.89178    0.40577  -10.52168
   9.31932    0.41794   -9.85015    0.40516  -10.48133
   9.32933    0.41752   -9.80857    0.40462  -10.44105
   9.33934    0.41718   -9.76704    0.40416  -10.40083
   9.34935    0.41691   -9.72556    0.40377  -10.36066
   9.35936    0.41673   -9.68410    0.40347  -10.32055
   9.36937    0.41662   -9.64268    0.40325  -10.28048
   9.37938    0.41659   -9.60127    0.40312  -10.24044
   9.38939    0.41666   -9.55987    0.40309  -10.20043
   9.39940    0.41681   -9.51847    0.40316  -10.16043
   9.40941    0.41706   -9.47708    0.40333  -10.12045
   9.41942    0.41741   -9.43566    0.40362  -10.08047
   9.42943    0.41787   -9.39423    0.40403  -10.04047
   9.43944    0.41844   -9.35275    0.40457  -10.00046
  9.449449   0.419122  -9.311253   0.405240  -9.960427
  9.459459   0.419929  -9.269689   0.406058  -9.920341
  9.469469   0.420866  -9.228061   0.407033  -9.880215
  9.479480   0.421940  -9.186362   0.408173  -9.840019
  9.489489   0.423158  -9.144584   0.409493  -9.799745
  9.499498   0.424529  -9.102704   0.411004  -9.759383
  9.509509   0.426063  -9.060703   0.412722  -9.718913
  9.519519   0.427768  -9.018589   0.414663  -9.678328
  9.529529   0.429657  -8.976334   0.416845  -9.637599
  9.539539   0.431741  -8.933912   0.419287  -9.596720
  9.549549   0.434033  -8.891336   0.422012  -9.555668
  9.559559   0.436546  -8.848573   0.425044  -9.514424
  9.569570   0.439297  -8.805589   0.428411  -9.472971
  9.579579   0.442302  -8.762386   0.432141  -9.431283
  9.589589   0.445580  -8.718941   0.436271  -9.389337
  9.599599   0.449151  -8.675230   0.440837  -9.347111
  9.609609   0.453036  -8.631229   0.445882  -9.304584
  9.619619   0.457261  -8.586916   0.451455  -9.261718
  9.629629   0.461853  -8.542270   0.457609  -9.218495
  9.639639   0.466841  -8.497264   0.464405  -9.174884
  9.649650   0.472260  -8.451863   0.471913  -9.130857
  9.659659   0.478144  -8.406041   0.480212  -9.086375
  9.669669   0.484536  -8.359765   0.489390  -9.041410
  9.679679   0.491480  -8.313007   0.499550  -8.995939
  9.689689   0.499028  -8.265735   0.510807  -8.949931
  9.699699   0.507236  -8.217895   0.523295  -8.903349
  9.709709   0.516168  -8.169464   0.537166  -8.856176
  9.719719   0.525894  -8.120394   0.552596  -8.808393
  9.729730   0.536496  -8.070655   0.569788  -8.759988
  9.739739   0.548064  -8.020184   0.588971  -8.710957
  9.749749   0.560699  -7.968953   0.610415  -8.661325
  9.759759   0.574520  -7.916900   0.634429  -8.611135
  9.769769   0.589654  -7.864000   0.661366  -8.560457
  9.779779   0.606253  -7.810190   0.691637  -8.509404
  9.789789   0.624485  -7.755442   0.725704  -8.458169
  9.799799   0.644544  -7.699712   0.764099  -8.407009
  9.809810   0.666652  -7.642967   0.807420  -8.356291
  9.819819   0.691054  -7.585201   0.856318  -8.306539
  9.829829   0.718038  -7.526398   0.911510  -8.258465
  9.839839   0.747929  -7.466570   0.973737  -8.213020
  9.849849   0.781087  -7.405779   1.043710  -8.171502
  9.859859   0.817928  -7.344083   1.122060  -8.135564
  9.869869   0.858909  -7.281631   1.209167  -8.107354
  9.879879   0.904544  -7.218605   1.305009  -8.089526
  9.889890   0.955408  -7.155268   1.408885  -8.085221
  9.899899   1.012123  -7.091983   1.519050  -8.097977
  9.909909   1.075386  -7.029233   1.632406  -8.131394
  9.919920   1.145967  -6.967660   1.744195  -8.188581
  9.929930   1.224672  -6.908123   1.847925  -8.271315
  9.939939   1.312366  -6.851783   1.935853  -8.379137
  9.949949   1.409839  -6.800197   1.999939  -8.508484
  9.959959   1.517734  -6.755363   2.033413  -8.652540
  9.969970   1.636332  -6.719799   2.032359  -8.801939
  9.979980   1.765267  -6.696535   1.996768  -8.946269
  9.989989   1.903283  -6.688923   1.930542  -9.076146
  10.00000    2.04793   -6.70032    1.84044   -9.18475
# 
# 05/23/2017 at 21:58 YAMBO_MAGNETIC @ narro [start]
# 05/23/2017 at 21:58                        [end]
#  
# Timing   [Min/Max/Average]: 01s/01s/01s
#
# .-Input file : ../INPUTS/04_bse
# | optics                       # [R OPT] Optics
# | bse                          # [R BSE] Bethe Salpeter Equation.
# | bsk                          # [R BSK] Bethe Salpeter Equation kernel
# | bss                          # [R BSS] Bethe Salpeter Equation solver
# | em1s                         # [R Xs] Static Inverse Dielectric Matrix
# | BoseTemp= 0.000000     eV    # Bosonic Temperature
# | FFTGvecs=  363         RL    # [FFT] Plane-waves
# | X_Threads=  4                # [OPENMP/X] Number of threads for response functions
# | DIP_Threads=  4              # [OPENMP/X] Number of threads for dipoles
# | Chimod= "hartree"            # [X] IP/Hartree/ALDA/LRC/BSfxc
# | BSEmod= "retarded"           # [BSE] resonant/retarded/coupling
# | BSKmod= "SEX"                # [BSE] IP/Hartree/HF/ALDA/SEX/BSfxc
# | BSSmod= "d"                  # [BSS] (h)aydock/(d)iagonalization/(i)nversion/(t)ddft`
# | BSENGexx=  363         RL    # [BSK] Exchange components
# | BSENGBlk= 1            RL    # [BSK] Screened interaction block size
# | #WehCpl                      # [BSK] eh interaction included also in coupling
# | KfnQPdb= " E < 03_gw/ndb.QP" # [EXTQP BSK BSS] Database
# | % BEnRange
# |   0.00000 | 10.00000 | eV    # [BSS] Energy range
# | %
# | % BDmRange
# |   0.10000 |  0.10000 | eV    # [BSS] Damping range
# | %
# | BEnSteps= 1000               # [BSS] Energy steps
# | % BLongDir
# | 0.1000E-4 | 0.000    | 0.000    |        # [BSS] [cc] Electric Field
# | %
# | % BSEBands
# |   1 |  7 |                   # [BSK] Bands range
# | %
# | % BndsRnXs
# |   1 |  7 |                   # [Xs] Polarization function bands
# | %
# | NGsBlkXs= 1            RL    # [Xs] Response block size
# | % DmRngeXs
# |   0.10000 |  0.10000 | eV    # [Xs] Damping range
# | %
# | % LongDrXs
# | 0.1000E-4 | 0.000    | 0.000    |        # [Xs] [cc] Electric Field
# | %
