#                                                           
#  __  __   ________   ___ __ __    _______   ______        
# /_/\/_/\ /_______/\ /__//_//_/\ /_______/\ /_____/\       
# \ \ \ \ \\::: _  \ \\::\| \| \ \\::: _  \ \\:::_ \ \      
#  \:\_\ \ \\::(_)  \ \\:.      \ \\::(_)  \/_\:\ \ \ \     
#   \::::_\/ \:: __  \ \\:.\-/\  \ \\::  _  \ \\:\ \ \ \    
#     \::\ \  \:.\ \  \ \\. \  \  \ \\::(_)  \ \\:\_\ \ \   
#      \__\/   \__\/\__\/ \__\/ \__\/ \_______\/ \_____\/   
#                                                           
#                                                           
#        Version 4.3.0 Revision 15186 Hash adaf3b3          
#                  MPI+SLK+OpenMP Build                     
#                http://www.yambo-code.org                  
#
# Absorption @ Q(11) [iku] :-0.1250000  0.1250000 -0.3750000
#
#
# BZ Energy DbGd points: 1000
#
# - Energies      are  Analyt. E
# - Wavefunctions are Slater exchange(X)+Perdew & Zunger(C)
#
# - The Green`s function is T-ordered -
#
#    E/ev[1]       EPS-Im[2]     EPS-Re[3]
#
    10.000       0.15227E-3     1.0172   
    10.030       0.15321E-3     1.0173   
    10.060       0.15415E-3     1.0173   
    10.090       0.15511E-3     1.0173   
    10.120       0.15608E-3     1.0174   
    10.150       0.15707E-3     1.0174   
    10.180       0.15806E-3     1.0174   
    10.210       0.15907E-3     1.0175   
    10.240       0.16009E-3     1.0175   
    10.271       0.16112E-3     1.0176   
    10.301       0.16216E-3     1.0176   
    10.331       0.16322E-3     1.0176   
    10.361       0.16428E-3     1.0177   
    10.391       0.16537E-3     1.0177   
    10.421       0.16646E-3     1.0178   
    10.451       0.16757E-3     1.0178   
    10.481       0.16869E-3     1.0179   
    10.511       0.16983E-3     1.0179   
    10.541       0.17098E-3     1.0179   
    10.571       0.17214E-3     1.0180   
    10.601       0.17332E-3     1.0180   
    10.631       0.17452E-3     1.0181   
    10.661       0.17573E-3     1.0181   
    10.691       0.17695E-3     1.0182   
    10.721       0.17819E-3     1.0182   
    10.752       0.17945E-3     1.0182   
    10.782       0.18073E-3     1.0183   
    10.812       0.18202E-3     1.0183   
    10.842       0.18332E-3     1.0184   
    10.872       0.18465E-3     1.0184   
    10.902       0.18599E-3     1.0185   
    10.932       0.18735E-3     1.0185   
    10.962       0.18873E-3     1.0186   
    10.992       0.19013E-3     1.0186   
    11.022       0.19154E-3     1.0187   
    11.052       0.19298E-3     1.0187   
    11.082       0.19443E-3     1.0188   
    11.112       0.19591E-3     1.0188   
    11.142       0.19740E-3     1.0189   
    11.172       0.19892E-3     1.0189   
    11.202       0.20046E-3     1.0190   
    11.232       0.20202E-3     1.0190   
    11.263       0.20360E-3     1.0191   
    11.293       0.20520E-3     1.0191   
    11.323       0.20683E-3     1.0192   
    11.353       0.20848E-3     1.0193   
    11.383       0.21015E-3     1.0193   
    11.413       0.21185E-3     1.0194   
    11.443       0.21358E-3     1.0194   
    11.473       0.21533E-3     1.0195   
    11.503       0.21710E-3     1.0195   
    11.533       0.21890E-3     1.0196   
    11.563       0.22073E-3     1.0197   
    11.593       0.22259E-3     1.0197   
    11.623       0.22447E-3     1.0198   
    11.653       0.22639E-3     1.0198   
    11.683       0.22833E-3     1.0199   
    11.713       0.23030E-3     1.0200   
    11.743       0.23231E-3     1.0200   
    11.774       0.23434E-3     1.0201   
    11.804       0.23641E-3     1.0201   
    11.834       0.23851E-3     1.0202   
    11.864       0.24065E-3     1.0203   
    11.894       0.24281E-3     1.0203   
    11.924       0.24502E-3     1.0204   
    11.954       0.24726E-3     1.0205   
    11.984       0.24954E-3     1.0205   
    12.014       0.25185E-3     1.0206   
    12.044       0.25421E-3     1.0207   
    12.074       0.25660E-3     1.0207   
    12.104       0.25903E-3     1.0208   
    12.134       0.26151E-3     1.0209   
    12.164       0.26403E-3     1.0210   
    12.194       0.26659E-3     1.0210   
    12.224       0.26920E-3     1.0211   
    12.255       0.27185E-3     1.0212   
    12.285       0.27455E-3     1.0212   
    12.315       0.27730E-3     1.0213   
    12.345       0.28010E-3     1.0214   
    12.375       0.28295E-3     1.0215   
    12.405       0.28586E-3     1.0216   
    12.435       0.28881E-3     1.0216   
    12.465       0.29182E-3     1.0217   
    12.495       0.29489E-3     1.0218   
    12.525       0.29802E-3     1.0219   
    12.555       0.30121E-3     1.0220   
    12.585       0.30446E-3     1.0220   
    12.615       0.30777E-3     1.0221   
    12.645       0.31115E-3     1.0222   
    12.675       0.31459E-3     1.0223   
    12.705       0.31811E-3     1.0224   
    12.735       0.32169E-3     1.0225   
    12.766       0.32535E-3     1.0226   
    12.796       0.32909E-3     1.0227   
    12.826       0.33290E-3     1.0227   
    12.856       0.33679E-3     1.0228   
    12.886       0.34077E-3     1.0229   
    12.916       0.34483E-3     1.0230   
    12.946       0.34898E-3     1.0231   
    12.976       0.35323E-3     1.0232   
    13.006       0.35756E-3     1.0233   
    13.036       0.36200E-3     1.0234   
    13.066       0.36654E-3     1.0235   
    13.096       0.37118E-3     1.0236   
    13.126       0.37593E-3     1.0237   
    13.156       0.38079E-3     1.0238   
    13.186       0.38577E-3     1.0240   
    13.216       0.39086E-3     1.0241   
    13.246       0.39609E-3     1.0242   
    13.277       0.40144E-3     1.0243   
    13.307       0.40693E-3     1.0244   
    13.337       0.41256E-3     1.0245   
    13.367       0.41833E-3     1.0246   
    13.397       0.42426E-3     1.0248   
    13.427       0.43034E-3     1.0249   
    13.457       0.43659E-3     1.0250   
    13.487       0.44301E-3     1.0251   
    13.517       0.44961E-3     1.0253   
    13.547       0.45640E-3     1.0254   
    13.577       0.46338E-3     1.0255   
    13.607       0.47056E-3     1.0256   
    13.637       0.47797E-3     1.0258   
    13.667       0.48559E-3     1.0259   
    13.697       0.49345E-3     1.0261   
    13.727       0.50156E-3     1.0262   
    13.758       0.50992E-3     1.0263   
    13.788       0.51857E-3     1.0265   
    13.818       0.52750E-3     1.0266   
    13.848       0.53673E-3     1.0268   
    13.878       0.54629E-3     1.0270   
    13.908       0.55619E-3     1.0271   
    13.938       0.56645E-3     1.0273   
    13.968       0.57709E-3     1.0274   
    13.998       0.58815E-3     1.0276   
    14.028       0.59964E-3     1.0278   
    14.058       0.61160E-3     1.0280   
    14.088       0.62406E-3     1.0281   
    14.118       0.63706E-3     1.0283   
    14.148       0.65064E-3     1.0285   
    14.178       0.66485E-3     1.0287   
    14.208       0.67974E-3     1.0289   
    14.238       0.69537E-3     1.0291   
    14.269       0.71182E-3     1.0293   
    14.299       0.72916E-3     1.0295   
    14.329       0.74748E-3     1.0297   
    14.359       0.76691E-3     1.0299   
    14.389       0.78757E-3     1.0302   
    14.419       0.80963E-3     1.0304   
    14.449       0.83328E-3     1.0306   
    14.479       0.85878E-3     1.0309   
    14.509       0.88643E-3     1.0311   
    14.539       0.91665E-3     1.0314   
    14.569       0.95000E-3     1.0317   
    14.599       0.98721E-3     1.0319   
    14.629       0.10293E-2     1.0322   
    14.659       0.10778E-2     1.0325   
    14.689       0.11347E-2     1.0328   
    14.719       0.12020E-2     1.0332   
    14.749       0.12806E-2     1.0335   
    14.780       0.13668E-2     1.0338   
    14.810       0.14546E-2     1.0341   
    14.840       0.15471E-2     1.0345   
    14.870       0.16594E-2     1.0349   
    14.900       0.18022E-2     1.0353   
    14.930       0.19705E-2     1.0356   
    14.960       0.21472E-2     1.0360   
    14.990       0.23190E-2     1.0363   
    15.020       0.24931E-2     1.0367   
    15.050       0.26869E-2     1.0371   
    15.080       0.29120E-2     1.0375   
    15.110       0.31718E-2     1.0380   
    15.140       0.34655E-2     1.0384   
    15.170       0.38038E-2     1.0388   
    15.200       0.42171E-2     1.0392   
    15.230       0.47146E-2     1.0395   
    15.261       0.52464E-2     1.0397   
    15.291       0.57174E-2     1.0398   
    15.321       0.60173E-2     1.0397   
    15.351       0.61078E-2     1.0397   
    15.381       0.60998E-2     1.0399   
    15.411       0.61314E-2     1.0402   
    15.441       0.62490E-2     1.0406   
    15.471       0.64322E-2     1.0410   
    15.501       0.66508E-2     1.0414   
    15.531       0.69109E-2     1.0418   
    15.561       0.72311E-2     1.0422   
    15.591       0.75692E-2     1.0425   
    15.621       0.78187E-2     1.0428   
    15.651       0.79225E-2     1.0431   
    15.681       0.79956E-2     1.0437   
    15.711       0.82276E-2     1.0444   
    15.741       0.87037E-2     1.0453   
    15.772       0.93964E-2     1.0460   
    15.802       0.10234E-1     1.0466   
    15.832       0.11118E-1     1.0470   
    15.862       0.11981E-1     1.0473   
    15.892       0.12870E-1     1.0475   
    15.922       0.13837E-1     1.0476   
    15.952       0.14763E-1     1.0474   
    15.982       0.15417E-1     1.0469   
    16.012       0.15712E-1     1.0465   
    16.042       0.15761E-1     1.0463   
    16.072       0.15682E-1     1.0462   
    16.102       0.15530E-1     1.0464   
    16.132       0.15394E-1     1.0469   
    16.162       0.15382E-1     1.0475   
    16.192       0.15568E-1     1.0484   
    16.222       0.15988E-1     1.0493   
    16.252504      0.016603      1.050153
    16.282566      0.017333      1.050951
    16.312624      0.018153      1.051728
    16.342686      0.019101      1.052467
    16.372744      0.020138      1.053106
    16.402805      0.021171      1.053677
    16.432865      0.022188      1.054300
    16.462925      0.023303      1.055083
    16.492987      0.024740      1.056029
    16.523045      0.026742      1.056909
    16.553106      0.029314      1.057278
    16.583166      0.032081      1.056756
    16.613226      0.034460      1.055304
    16.643286      0.035904      1.053289
    16.673346      0.036245      1.051485
    16.703405      0.036046      1.050544
    16.733467      0.036080      1.050339
    16.763527      0.036547      1.050314
    16.793587      0.037174      1.050200
    16.823647      0.037742      1.050130
    16.853706      0.038340      1.050346
    16.883768      0.039318      1.050865
    16.913826      0.040880      1.051334
    16.943888      0.042863      1.051462
    16.973946      0.045155      1.051204
    17.004007      0.047768      1.050358
    17.034067      0.050425      1.048554
    17.064127      0.052416      1.045673
    17.094189      0.052975      1.042345
    17.124247      0.052174      1.039738
    17.154308      0.051003      1.038440
    17.184368      0.050342      1.038095
    17.214430      0.050483      1.038071
    17.244488      0.051376      1.037782
    17.274548      0.052565      1.036737
    17.304609      0.053302      1.035038
    17.334669      0.053384      1.033382
    17.364729      0.053302      1.032080
    17.394789      0.053303      1.030811
    17.424849      0.053116      1.029434
    17.454908      0.052644      1.028238
    17.484970      0.052166      1.027343
    17.515030      0.051838      1.026522
    17.545090      0.051480      1.025605
    17.575150      0.050908      1.024746
    17.605209      0.050235      1.024165
    17.635271      0.049713      1.023818
    17.665331      0.049367      1.023461
    17.695391      0.049001      1.023026
    17.725449      0.048508      1.022618
    17.755510      0.047825      1.022375
    17.785570      0.047029      1.022590
    17.815632      0.046569      1.023435
    17.845690      0.046956      1.024565
    17.875750      0.048227      1.025301
    17.905811      0.049897      1.025192
    17.935871      0.051378      1.024290
    17.965933      0.052379      1.022988
    17.995991      0.053014      1.021626
    18.026051      0.053492      1.020179
    18.056110      0.053688      1.018471
    18.086172      0.053251      1.016702
    18.116232      0.052255      1.015432
    18.146292      0.051273      1.014848
    18.176352      0.050676      1.014607
    18.206411      0.050411      1.014361
    18.236473      0.050317      1.014011
    18.266533      0.050321      1.013538
    18.296593      0.050345      1.012909
    18.326653      0.050321      1.012162
    18.356712      0.050236      1.011271
    18.386772      0.049929      1.010225
    18.416834      0.049276      1.009237
    18.446892      0.048402      1.008545
    18.476954      0.047568      1.008204
    18.507013      0.046981      1.008032
    18.537073      0.046575      1.007777
    18.567135      0.046150      1.007426
    18.597193      0.045662      1.007101
    18.627254      0.045188      1.006881
    18.657312      0.044879      1.006701
    18.687374      0.044739      1.006311
    18.717434      0.044456      1.005523
    18.747496      0.043590      1.004573
    18.777555      0.042115      1.004042
    18.807613      0.040491      1.004302
    18.837675      0.039292      1.005256
    18.867735      0.038800      1.006423
    18.897797      0.038829      1.007348
    18.927855      0.038984      1.007979
    18.957914      0.039167      1.008608
    18.987974      0.039705      1.009286
    19.018036      0.040711      1.009542
    19.048096      0.041635      1.009064
    19.078156      0.041981      1.008289
    19.108215      0.041940      1.007742
    19.138275      0.041935      1.007454
    19.168337      0.042125      1.007151
    19.198397      0.042388      1.006589
    19.228456      0.042414      1.005710
    19.258514      0.041951      1.004804
    19.288576      0.041116      1.004225
    19.318636      0.040169      1.004118
    19.348698      0.039419      1.004468
    19.378757      0.039076      1.005029
    19.408815      0.039091      1.005565
    19.438877      0.039390      1.006004
    19.468937      0.039999      1.006271
    19.498999      0.040900      1.006142
    19.529057      0.041832      1.005382
    19.559116      0.042370      1.003994
    19.589176      0.042131      1.002261
    19.619238      0.040927      1.000745
    19.649298      0.039094      1.000109
    19.679358      0.037409      1.000509
    19.709417      0.036433      1.001484
    19.739477      0.036175      1.002424
    19.769539      0.036309      1.003043
    19.799599      0.036608      1.003306
    19.829659      0.036840      1.003147
    19.859718      0.036629      1.002746
    19.889778      0.035907      1.002628
    19.919840      0.035115      1.003165
    19.949900      0.034795      1.004204
    19.979959      0.035127      1.005293
    20.010019      0.035947      1.006114
    20.040079      0.037103      1.006593
    20.070139      0.038583      1.006612
    20.100201      0.040243      1.005854
    20.130259      0.041522      1.004100
    20.160320      0.041719      1.001748
    20.190380      0.040725      0.999645
    20.220440      0.039027      0.998337
    20.250502      0.037191      0.997899
    20.280560      0.035601      0.998116
    20.310621      0.034418      0.998700
    20.340679      0.033631      0.999353
    20.370741      0.033007      0.999907
    20.400801      0.032356      1.000515
    20.430862      0.031811      1.001330
    20.460920      0.031499      1.002243
    20.490980      0.031349      1.003168
    20.521042      0.031335      1.004178
    20.551102      0.031577      1.005312
    20.581163      0.032234      1.006482
    20.611221      0.033424      1.007430
    20.641281      0.034996      1.007768
    20.671341      0.036465      1.007332
    20.701403      0.037373      1.006409
    20.731462      0.037662      1.005500
    20.761522      0.037607      1.004898
    20.791582      0.037484      1.004627
    20.821642      0.037502      1.004621
    20.851704      0.037840      1.004660
    20.881763      0.038402      1.004401
    20.911823      0.038802      1.003751
    20.941881      0.038774      1.003018
    20.971943      0.038467      1.002555
    21.002003      0.038198      1.002366
    21.032064      0.038049      1.002240
    21.062124      0.037886      1.002105
    21.092182      0.037679      1.002077
    21.122244      0.037545      1.002193
    21.152304      0.037565      1.002348
    21.182365      0.037664      1.002439
    21.212423      0.037752      1.002532
    21.242483      0.037932      1.002700
    21.272543      0.038287      1.002787
    21.302605      0.038634      1.002677
    21.332664      0.038824      1.002548
    21.362724      0.039015      1.002557
    21.392784      0.039354      1.002572
    21.422844      0.039716      1.002477
    21.452906      0.040038      1.002406
    21.482965      0.040473      1.002385
    21.513025      0.041052      1.002253
    21.543083      0.041643      1.001943
    21.573145      0.042150      1.001528
    21.603205      0.042571      1.001103
    21.633266      0.042978      1.000753
    21.663326      0.043539      1.000468
    21.693386      0.044380      1.000039
    21.723446      0.045365      0.999165
    21.753506      0.046104      0.997780
    21.783567      0.046298      0.996173
    21.813625      0.045995      0.994748
    21.843687      0.045513      0.993681
    21.873745      0.045130      0.992859
    21.903807      0.044937      0.992010
    21.933867      0.044741      0.990878
    21.963928      0.044162      0.989502
    21.993988      0.043021      0.988288
    22.024046      0.041570      0.987592
    22.054108      0.040151      0.987450
    22.084167      0.039029      0.987756
    22.114229      0.038409      0.988255
    22.144287      0.038273      0.988571
    22.174347      0.038313      0.988452
    22.204407      0.038164      0.987974
    22.234468      0.037692      0.987411
    22.264528      0.036973      0.986940
    22.294588      0.036049      0.986614
    22.324648      0.034928      0.986578
    22.354708      0.033807      0.987008
    22.384769      0.033007      0.987872
    22.414829      0.032758      0.988905
    22.444889      0.033054      0.989750
    22.474949      0.033678      0.990148
    22.505009      0.034298      0.990007
    22.535070      0.034581      0.989511
    22.565130      0.034507      0.989019
    22.595190      0.034308      0.988646
    22.625248      0.034045      0.988276
    22.655310      0.033631      0.987932
    22.685369      0.033104      0.987730
    22.715431      0.032585      0.987665
    22.745489      0.032093      0.987645
    22.775549      0.031540      0.987644
    22.805611      0.030864      0.987785
    22.835670      0.030184      0.988201
    22.865732      0.029663      0.988887
    22.895790      0.029448      0.989781
    22.925850      0.029686      0.990704
    22.955910      0.030362      0.991361
    22.985971      0.031253      0.991523
    23.016031      0.032014      0.991156
    23.046091      0.032374      0.990482
    23.076151      0.032303      0.989804
    23.106211      0.031920      0.989331
    23.136272      0.031435      0.989191
    23.166332      0.031137      0.989314
    23.196392      0.031138      0.989382
    23.226452      0.031202      0.989107
    23.256512      0.030895      0.988559
    23.286572      0.030061      0.988209
    23.316633      0.029045      0.988426
    23.346691      0.028280      0.989110
    23.376753      0.027881      0.989945
    23.406813      0.027715      0.990762
    23.436872      0.027669      0.991587
    23.466934      0.027761      0.992512
    23.496992      0.028132      0.993551
    23.527054      0.028919      0.994564
    23.557112      0.030142      0.995312
    23.587173      0.031644      0.995548
    23.617233      0.033092      0.995184
    23.647295      0.034212      0.994416
    23.677353      0.035001      0.993484
    23.707413      0.035536      0.992422
    23.737474      0.035691      0.991218
    23.767534      0.035323      0.990145
    23.797596      0.034650      0.989549
    23.827652      0.034111      0.989425
    23.857714      0.033894      0.989395
    23.887774      0.033707      0.989205
    23.917835      0.033314      0.989121
    23.947895      0.032969      0.989385
    23.977953      0.032945      0.989831
    24.008015      0.033228      0.990208
    24.038074      0.033685      0.990433
    24.068136      0.034265      0.990518
    24.098196      0.034975      0.990414
    24.128254      0.035753      0.990000
    24.158314      0.036379      0.989205
    24.188375      0.036622      0.988201
    24.218435      0.036464      0.987225
    24.248497      0.035967      0.986452
    24.278557      0.035276      0.986037
    24.308615      0.034606      0.986018
    24.338676      0.034140      0.986309
    24.368736      0.033968      0.986771
    24.398798      0.034132      0.987263
    24.428858      0.034591      0.987610
    24.458916      0.035175      0.987725
    24.488976      0.035781      0.987714
    24.519037      0.036506      0.987589
    24.549097      0.037276      0.987187
    24.579159      0.037867      0.986584
    24.609217      0.038297      0.986001
    24.639277      0.038713      0.985484
    24.669338      0.039208      0.985011
    24.699398      0.039916      0.984496
    24.729460      0.040856      0.983674
    24.759518      0.041764      0.982360
    24.789577      0.042365      0.980650
    24.819639      0.042574      0.978740
    24.849699      0.042436      0.976709
    24.879759      0.041853      0.974513
    24.909817      0.040569      0.972334
    24.939878      0.038561      0.970645
    24.969938      0.036255      0.969815
    25.000000      0.034175      0.969723
# 
# 01/08/2018 at 17:17 YAMBO @ polluce [start]
# 01/08/2018 at 17:18                 [end]
#  
# Timing   [Min/Max/Average]: 01m-29s/01m-29s/01m-29s
#
# .-Input file : yambo.in
# | optics                         # [R OPT] Optics
# | chi                            # [R CHI] Dyson equation for Chi.
# | ElecTemp=0.1723E-4     eV      # Electronic Temperature
# | BoseTemp=0.1723E-4     eV      # Bosonic Temperature
# | FFTGvecs= 1807         RL      # [FFT] Plane-waves
# | X_Threads= 1                   # [OPENMP/X] Number of threads for response functions
# | DIP_Threads= 1                 # [OPENMP/X] Number of threads for dipoles
# | Chimod= "IP"                   # [X] IP/Hartree/ALDA/LRC/BSfxc
# | NGsBlkXd= 1            RL      # [Xd] Response block size
# | % QpntsRXd
# |   1 | 19 |                     # [Xd] Transferred momenta
# | %
# | % BndsRnXd
# |   2 |  7 |                     # [Xd] Polarization function bands
# | %
# | % EnRngeXd
# |  10.00000 | 25.00000 | eV      # [Xd] Energy range
# | %
# | % DmRngeXd
# |   0.10000 |  0.10000 | eV      # [Xd] Damping range
# | %
# | ETStpsXd=  500                 # [Xd] Total Energy steps
# | % LongDrXd
# | 0.1000E-4 | 0.000    | 0.000    |        # [Xd] [cc] Electric Field
# | %
# | % XfnQP_E
# |  5.350000 | 1.000000 | 1.000000 |        # [EXTQP Xd] E parameters  (c/v) eV|adim|adim
# | %
