#                                                           
#  __  __   ________   ___ __ __    _______   ______        
# /_/\/_/\ /_______/\ /__//_//_/\ /_______/\ /_____/\       
# \ \ \ \ \\::: _  \ \\::\| \| \ \\::: _  \ \\:::_ \ \      
#  \:\_\ \ \\::(_)  \ \\:.      \ \\::(_)  \/_\:\ \ \ \     
#   \::::_\/ \:: __  \ \\:.\-/\  \ \\::  _  \ \\:\ \ \ \    
#     \::\ \  \:.\ \  \ \\. \  \  \ \\::(_)  \ \\:\_\ \ \   
#      \__\/   \__\/\__\/ \__\/ \__\/ \_______\/ \_____\/   
#                                                           
#                                                           
#        Version 4.3.0 Revision 15186 Hash adaf3b3          
#                  MPI+SLK+OpenMP Build                     
#                http://www.yambo-code.org                  
#
# Absorption @ Q(3) [iku] : 0.1250000 -0.1250000 -0.1250000
#
#
# BZ Energy DbGd points: 1000
#
# - Energies      are  Analyt. E
# - Wavefunctions are Slater exchange(X)+Perdew & Zunger(C)
#
# - The Green`s function is T-ordered -
#
#    E/ev[1]       EPS-Im[2]     EPS-Re[3]
#
    10.000       0.42563E-3     1.0437   
    10.030       0.42862E-3     1.0438   
    10.060       0.43165E-3     1.0439   
    10.090       0.43472E-3     1.0441   
    10.120       0.43783E-3     1.0442   
    10.150       0.44098E-3     1.0443   
    10.180       0.44418E-3     1.0444   
    10.210       0.44741E-3     1.0445   
    10.240       0.45069E-3     1.0446   
    10.271       0.45402E-3     1.0447   
    10.301       0.45739E-3     1.0448   
    10.331       0.46080E-3     1.0450   
    10.361       0.46427E-3     1.0451   
    10.391       0.46778E-3     1.0452   
    10.421       0.47134E-3     1.0453   
    10.451       0.47495E-3     1.0454   
    10.481       0.47861E-3     1.0456   
    10.511       0.48233E-3     1.0457   
    10.541       0.48610E-3     1.0458   
    10.571       0.48992E-3     1.0459   
    10.601       0.49379E-3     1.0461   
    10.631       0.49772E-3     1.0462   
    10.661       0.50171E-3     1.0463   
    10.691       0.50576E-3     1.0465   
    10.721       0.50987E-3     1.0466   
    10.752       0.51404E-3     1.0467   
    10.782       0.51827E-3     1.0469   
    10.812       0.52256E-3     1.0470   
    10.842       0.52692E-3     1.0471   
    10.872       0.53134E-3     1.0473   
    10.902       0.53584E-3     1.0474   
    10.932       0.54040E-3     1.0476   
    10.962       0.54503E-3     1.0477   
    10.992       0.54973E-3     1.0478   
    11.022       0.55451E-3     1.0480   
    11.052       0.55936E-3     1.0481   
    11.082       0.56429E-3     1.0483   
    11.112       0.56930E-3     1.0484   
    11.142       0.57439E-3     1.0486   
    11.172       0.57956E-3     1.0487   
    11.202       0.58482E-3     1.0489   
    11.232       0.59016E-3     1.0491   
    11.263       0.59559E-3     1.0492   
    11.293       0.60111E-3     1.0494   
    11.323       0.60672E-3     1.0495   
    11.353       0.61243E-3     1.0497   
    11.383       0.61823E-3     1.0499   
    11.413       0.62413E-3     1.0500   
    11.443       0.63013E-3     1.0502   
    11.473       0.63624E-3     1.0504   
    11.503       0.64246E-3     1.0505   
    11.533       0.64878E-3     1.0507   
    11.563       0.65522E-3     1.0509   
    11.593       0.66177E-3     1.0511   
    11.623       0.66844E-3     1.0513   
    11.653       0.67523E-3     1.0514   
    11.683       0.68214E-3     1.0516   
    11.713       0.68918E-3     1.0518   
    11.743       0.69635E-3     1.0520   
    11.774       0.70366E-3     1.0522   
    11.804       0.71110E-3     1.0524   
    11.834       0.71868E-3     1.0526   
    11.864       0.72641E-3     1.0528   
    11.894       0.73429E-3     1.0530   
    11.924       0.74232E-3     1.0532   
    11.954       0.75051E-3     1.0534   
    11.984       0.75886E-3     1.0536   
    12.014       0.76738E-3     1.0538   
    12.044       0.77608E-3     1.0540   
    12.074       0.78494E-3     1.0542   
    12.104       0.79400E-3     1.0545   
    12.134       0.80324E-3     1.0547   
    12.164       0.81267E-3     1.0549   
    12.194       0.82230E-3     1.0551   
    12.224       0.83214E-3     1.0554   
    12.255       0.84219E-3     1.0556   
    12.285       0.85246E-3     1.0558   
    12.315       0.86295E-3     1.0561   
    12.345       0.87368E-3     1.0563   
    12.375       0.88464E-3     1.0566   
    12.405       0.89586E-3     1.0568   
    12.435       0.90733E-3     1.0571   
    12.465       0.91907E-3     1.0573   
    12.495       0.93108E-3     1.0576   
    12.525       0.94338E-3     1.0578   
    12.555       0.95597E-3     1.0581   
    12.585       0.96887E-3     1.0584   
    12.615       0.98209E-3     1.0587   
    12.645       0.99563E-3     1.0589   
    12.675       0.10095E-2     1.0592   
    12.705       0.10237E-2     1.0595   
    12.735       0.10383E-2     1.0598   
    12.766       0.10533E-2     1.0601   
    12.796       0.10687E-2     1.0604   
    12.826       0.10845E-2     1.0607   
    12.856       0.11007E-2     1.0610   
    12.886       0.11173E-2     1.0613   
    12.916       0.11344E-2     1.0616   
    12.946       0.11520E-2     1.0620   
    12.976       0.11701E-2     1.0623   
    13.006       0.11888E-2     1.0626   
    13.036       0.12079E-2     1.0630   
    13.066       0.12277E-2     1.0633   
    13.096       0.12480E-2     1.0637   
    13.126       0.12690E-2     1.0640   
    13.156       0.12906E-2     1.0644   
    13.186       0.13130E-2     1.0648   
    13.216       0.13360E-2     1.0652   
    13.246       0.13598E-2     1.0656   
    13.277       0.13844E-2     1.0659   
    13.307       0.14099E-2     1.0663   
    13.337       0.14362E-2     1.0668   
    13.367       0.14634E-2     1.0672   
    13.397       0.14917E-2     1.0676   
    13.427       0.15210E-2     1.0680   
    13.457       0.15514E-2     1.0685   
    13.487       0.15830E-2     1.0689   
    13.517       0.16158E-2     1.0694   
    13.547       0.16499E-2     1.0699   
    13.577       0.16854E-2     1.0704   
    13.607       0.17225E-2     1.0708   
    13.637       0.17611E-2     1.0713   
    13.667       0.18015E-2     1.0719   
    13.697       0.18437E-2     1.0724   
    13.727       0.18879E-2     1.0729   
    13.758       0.19343E-2     1.0735   
    13.788       0.19830E-2     1.0741   
    13.818       0.20342E-2     1.0746   
    13.848       0.20881E-2     1.0752   
    13.878       0.21451E-2     1.0759   
    13.908       0.22053E-2     1.0765   
    13.938       0.22692E-2     1.0771   
    13.968       0.23371E-2     1.0778   
    13.998       0.24095E-2     1.0785   
    14.028       0.24868E-2     1.0792   
    14.058       0.25699E-2     1.0800   
    14.088       0.26594E-2     1.0807   
    14.118       0.27562E-2     1.0815   
    14.148       0.28617E-2     1.0823   
    14.178       0.29773E-2     1.0832   
    14.208       0.31049E-2     1.0841   
    14.238       0.32472E-2     1.0850   
    14.269       0.34075E-2     1.0859   
    14.299       0.35908E-2     1.0869   
    14.329       0.38038E-2     1.0880   
    14.359       0.40563E-2     1.0891   
    14.389       0.43618E-2     1.0902   
    14.419       0.47375E-2     1.0914   
    14.449       0.51981E-2     1.0926   
    14.479       0.57383E-2     1.0938   
    14.509       0.63268E-2     1.0950   
    14.539       0.69632E-2     1.0962   
    14.569       0.77033E-2     1.0974   
    14.599       0.85335E-2     1.0985   
    14.629       0.93058E-2     1.0994   
    14.659       0.98576E-2     1.1002   
    14.689       0.10142E-1     1.1012   
    14.719       0.10293E-1     1.1025   
    14.749       0.10534E-1     1.1041   
    14.780       0.10982E-1     1.1061   
    14.810       0.11645E-1     1.1082   
    14.840       0.12570E-1     1.1106   
    14.870       0.13872E-1     1.1133   
    14.899799      0.015721      1.116198
    14.929859      0.018357      1.119211
    14.959920      0.022015      1.122004
    14.989979      0.026744      1.123999
    15.020040      0.032112      1.124520
    15.050100      0.037141      1.123386
    15.080159      0.041165      1.121294
    15.110220      0.044436      1.118769
    15.140280      0.046948      1.115577
    15.170341      0.047988      1.111933
    15.200401      0.047337      1.108981
    15.230460      0.046023      1.107633
    15.260521      0.045335      1.107435
    15.290580      0.045449      1.107164
    15.320641      0.045389      1.106134
    15.350701      0.043959      1.105006
    15.380760      0.041294      1.105410
    15.410821      0.038965      1.107984
    15.440881      0.038195      1.111899
    15.470942      0.039145      1.116041
    15.501002      0.041417      1.119777
    15.531061      0.044724      1.122845
    15.561122      0.048764      1.124822
    15.591181      0.052710      1.125482
    15.621242      0.055677      1.125505
    15.651302      0.057832      1.126192
    15.681361      0.060464      1.128048
    15.711422      0.064754      1.130370
    15.741482      0.071158      1.131644
    15.771543      0.078546      1.130105
    15.801603      0.084439      1.125935
    15.831662      0.088264      1.121390
    15.861723      0.091641      1.117084
    15.891782      0.094950      1.111584
    15.921843      0.096463      1.104105
    15.951903      0.094158      1.096221
    15.981964      0.088307      1.091002
    16.012024      0.081676      1.090057
    16.042082      0.076969      1.092211
    16.072144      0.074660      1.095068
    16.102203      0.073273      1.097509
    16.132265      0.071888      1.100571
    16.162325      0.071666      1.105080
    16.192385      0.073856      1.110013
    16.222445      0.078300      1.113808
    16.252504      0.083982      1.115650
    16.282566      0.090074      1.115413
    16.312624      0.095798      1.112739
    16.342686      0.099430      1.107844
    16.372744      0.099884      1.102690
    16.402805      0.098012      1.099202
    16.432865      0.095344      1.097859
    16.462925      0.092651      1.098293
    16.492987      0.090231      1.100600
    16.523045      0.089100      1.104996
    16.553106      0.090519      1.110646
    16.583166      0.094887      1.116021
    16.613226      0.101733      1.119574
    16.643286      0.109423      1.120136
    16.673346      0.115731      1.118494
    16.703405      0.120420      1.116968
    16.733467      0.125367      1.116621
    16.763527      0.132452      1.116284
    16.793587      0.141795      1.113370
    16.823647      0.151020      1.105766
    16.853706      0.156236      1.094086
    16.883768      0.155433      1.082368
    16.913826      0.150818      1.074330
    16.943888      0.145639      1.070198
    16.973946      0.141295      1.068864
    17.004007      0.138672      1.069593
    17.034067      0.138463      1.071077
    17.064127      0.140392      1.071932
    17.094189      0.143683      1.071174
    17.124247      0.146940      1.068278
    17.154308      0.148627      1.064066
    17.184368      0.148545      1.060253
    17.214430      0.147891      1.057907
    17.244488      0.148159      1.056589
    17.274548      0.149508      1.054803
    17.304609      0.150663      1.052091
    17.334669      0.151100      1.049552
    17.364729      0.151856      1.047668
    17.394789      0.153405      1.045555
    17.424849      0.155303      1.042672
    17.454908      0.156981      1.038841
    17.484970      0.157780      1.034523
    17.515030      0.158012      1.030520
    17.545090      0.158411      1.026542
    17.575150      0.158568      1.021871
    17.605209      0.157638      1.017007
    17.635271      0.156070      1.013050
    17.665331      0.155400      1.009714
    17.695391      0.155721      1.004822
    17.725449      0.154300      0.997373
    17.755510      0.148727      0.989911
    17.785570      0.140118      0.986015
    17.815632      0.131999      0.986817
    17.845690      0.127277      0.990357
    17.875750      0.126262      0.993521
    17.905811      0.127174      0.994309
    17.935871      0.127601      0.992654
    17.965933      0.126204      0.990374
    17.995991      0.123954      0.989120
    18.026051      0.122199      0.988519
    18.056110      0.120870      0.987511
    18.086172      0.118836      0.985946
    18.116232      0.115565      0.985213
    18.146292      0.112409      0.986466
    18.176352      0.111106      0.989008
    18.206411      0.112029      0.991025
    18.236473      0.113979      0.991335
    18.266533      0.115793      0.990258
    18.296593      0.117338      0.988234
    18.326653      0.118398      0.985191
    18.356712      0.118528      0.981262
    18.386772      0.117168      0.976749
    18.416834      0.113853      0.972718
    18.446892      0.109316      0.970455
    18.476954      0.105067      0.970238
    18.507013      0.102325      0.971058
    18.537073      0.100879      0.971394
    18.567135      0.099535      0.970905
    18.597193      0.097845      0.970221
    18.627254      0.096007      0.969574
    18.657312      0.093932      0.968922
    18.687374      0.091473      0.968598
    18.717434      0.088985      0.969014
    18.747496      0.087129      0.970059
    18.777555      0.086138      0.971046
    18.807613      0.085566      0.971590
    18.837675      0.085248      0.971866
    18.867735      0.085339      0.971596
    18.897797      0.085305      0.970349
    18.927855      0.084412      0.968478
    18.957914      0.082533      0.966750
    18.987974      0.080162      0.965682
    19.018036      0.077905      0.965141
    19.048096      0.075880      0.964657
    19.078156      0.073852      0.963967
    19.108215      0.071440      0.962944
    19.138275      0.068024      0.961975
    19.168337      0.063705      0.962045
    19.198397      0.059353      0.963553
    19.228456      0.055641      0.966240
    19.258514      0.052918      0.969739
    19.288576      0.051503      0.973643
    19.318636      0.051519      0.977193
    19.348698      0.052391      0.979667
    19.378757      0.053260      0.981071
    19.408815      0.053701      0.981896
    19.438877      0.053699      0.982618
    19.468937      0.053564      0.983552
    19.498999      0.053689      0.984544
    19.529057      0.053987      0.985155
    19.559116      0.053887      0.985427
    19.589176      0.053327      0.986150
    19.619238      0.053279      0.987609
    19.649298      0.054407      0.988879
    19.679358      0.056219      0.988918
    19.709417      0.057653      0.987462
    19.739477      0.057781      0.984990
    19.769539      0.056125      0.982480
    19.799599      0.052963      0.981115
    19.829659      0.049432      0.981595
    19.859718      0.046793      0.983488
    19.889778      0.045435      0.985684
    19.919840      0.044812      0.987340
    19.949900      0.044050      0.988495
    19.979959      0.042934      0.989853
    20.010019      0.041934      0.991743
    20.040079      0.041445      0.993999
    20.070139      0.041642      0.996306
    20.100201      0.042490      0.998292
    20.130259      0.043714      0.999721
    20.160320      0.045104      1.000615
    20.190380      0.046647      1.000884
    20.220440      0.048085      1.000158
    20.250502      0.048541      0.998347
    20.280560      0.047157      0.996405
    20.310621      0.044303      0.995790
    20.340679      0.041349      0.997007
    20.370741      0.039321      0.999408
    20.400801      0.038375      1.002082
    20.430862      0.038079      1.004488
    20.460920      0.037948      1.006667
    20.490980      0.037885      1.008898
    20.521042      0.038026      1.011297
    20.551102      0.038492      1.013839
    20.581163      0.039395      1.016459
    20.611221      0.040817      1.018959
    20.641281      0.042613      1.021111
    20.671341      0.044502      1.022962
    20.701403      0.046474      1.024801
    20.731462      0.048889      1.026735
    20.761522      0.052117      1.028370
    20.791582      0.055991      1.029016
    20.821642      0.059798      1.028363
    20.851704      0.062880      1.026686
    20.881763      0.064922      1.024461
    20.911823      0.065754      1.022200
    20.941881      0.065454      1.020631
    20.971943      0.064706      1.020445
    21.002003      0.064703      1.021623
    21.032064      0.066259      1.023137
    21.062124      0.069094      1.023713
    21.092182      0.072137      1.022764
    21.122244      0.074277      1.020632
    21.152304      0.075038      1.018402
    21.182365      0.075082      1.017035
    21.212423      0.075369      1.016359
    21.242483      0.076028      1.015727
    21.272543      0.076759      1.014927
    21.302605      0.077360      1.014032
    21.332664      0.077727      1.013264
    21.362724      0.078146      1.012947
    21.392784      0.079211      1.012830
    21.422844      0.080887      1.012063
    21.452906      0.082215      1.010345
    21.482965      0.082570      1.008548
    21.513025      0.082585      1.007481
    21.543083      0.083095      1.006826
    21.573145      0.084084      1.005835
    21.603205      0.084992      1.004311
    21.633266      0.085556      1.002536
    21.663326      0.085757      1.000673
    21.693386      0.085541      0.998931
    21.723446      0.085132      0.997605
    21.753506      0.084962      0.996578
    21.783567      0.085045      0.995445
    21.813625      0.085153      0.994134
    21.843687      0.085282      0.992617
    21.873745      0.085196      0.990686
    21.903807      0.084370      0.988598
    21.933867      0.082814      0.987149
    21.963928      0.081347      0.986773
    21.993988      0.080796      0.987007
    22.024046      0.081348      0.986964
    22.054108      0.082463      0.985859
    22.084167      0.083207      0.983702
    22.114229      0.083274      0.981071
    22.144287      0.082779      0.978131
    22.174347      0.081508      0.974870
    22.204407      0.079129      0.971587
    22.234468      0.075458      0.968916
    22.264528      0.070933      0.967774
    22.294588      0.066841      0.968415
    22.324648      0.064196      0.969842
    22.354708      0.062725      0.970604
    22.384769      0.060918      0.970209
    22.414829      0.057690      0.969935
    22.444889      0.053802      0.971213
    22.474949      0.050652      0.974026
    22.505009      0.048863      0.977502
    22.535070      0.048373      0.980877
    22.565130      0.048841      0.983608
    22.595190      0.049660      0.985458
    22.625248      0.050305      0.986679
    22.655310      0.050646      0.987697
    22.685369      0.050854      0.988825
    22.715431      0.051272      0.990084
    22.745489      0.052022      0.991151
    22.775549      0.052859      0.991846
    22.805611      0.053609      0.992246
    22.835670      0.054149      0.992384
    22.865732      0.054229      0.992496
    22.895790      0.054015      0.993144
    22.925850      0.054270      0.994442
    22.955910      0.055499      0.995675
    22.985971      0.057328      0.996034
    23.016031      0.058970      0.995417
    23.046091      0.060020      0.994185
    23.076151      0.060237      0.992645
    23.106211      0.059499      0.991407
    23.136272      0.058343      0.991039
    23.166332      0.057489      0.991366
    23.196392      0.057082      0.991824
    23.226452      0.056796      0.992209
    23.256512      0.056572      0.992720
    23.286572      0.056631      0.993273
    23.316633      0.056867      0.993563
    23.346691      0.056919      0.993610
    23.376753      0.056681      0.993764
    23.406813      0.056405      0.994259
    23.436872      0.056416      0.995031
    23.466934      0.056882      0.995789
    23.496992      0.057731      0.996209
    23.527054      0.058726      0.996066
    23.557112      0.059529      0.995247
    23.587173      0.059641      0.993795
    23.617233      0.058545      0.992294
    23.647295      0.056457      0.991615
    23.677353      0.054062      0.992096
    23.707413      0.051962      0.993635
    23.737474      0.050542      0.995815
    23.767534      0.049718      0.998170
    23.797596      0.049161      1.000672
    23.827652      0.048933      1.003671
    23.857714      0.049599      1.007133
    23.887774      0.051425      1.010417
    23.917835      0.054053      1.012939
    23.947895      0.056865      1.014611
    23.977953      0.059534      1.015849
    24.008015      0.062315      1.016914
    24.038074      0.065344      1.017563
    24.068136      0.068374      1.017673
    24.098196      0.071309      1.017380
    24.128254      0.074176      1.016597
    24.158314      0.076653      1.015186
    24.188375      0.078310      1.013508
    24.218435      0.079287      1.012184
    24.248497      0.080090      1.011312
    24.278557      0.080817      1.010680
    24.308615      0.081428      1.010404
    24.338676      0.082181      1.010587
    24.368736      0.083301      1.011101
    24.398798      0.084938      1.011769
    24.428858      0.087120      1.012300
    24.458916      0.089633      1.012535
    24.488976      0.092406      1.012608
    24.519037      0.095713      1.012423
    24.549097      0.099451      1.011404
    24.579159      0.102827      1.009440
    24.609217      0.105445      1.007341
    24.639277      0.107972      1.005736
    24.669338      0.111250      1.004250
    24.699398      0.115376      1.001858
    24.729460      0.119307      0.997913
    24.759518      0.122063      0.993287
    24.789577      0.124350      0.988958
    24.819639      0.127117      0.984246
    24.849699      0.129804      0.977914
    24.879759      0.130721      0.969980
    24.909817      0.129097      0.962201
    24.939878      0.126171      0.955792
    24.969938      0.123005      0.950104
    25.000000      0.119095      0.944354
# 
# 01/08/2018 at 17:17 YAMBO @ polluce [start]
# 01/08/2018 at 17:18                 [end]
#  
# Timing   [Min/Max/Average]: 01m-29s/01m-29s/01m-29s
#
# .-Input file : yambo.in
# | optics                         # [R OPT] Optics
# | chi                            # [R CHI] Dyson equation for Chi.
# | ElecTemp=0.1723E-4     eV      # Electronic Temperature
# | BoseTemp=0.1723E-4     eV      # Bosonic Temperature
# | FFTGvecs= 1807         RL      # [FFT] Plane-waves
# | X_Threads= 1                   # [OPENMP/X] Number of threads for response functions
# | DIP_Threads= 1                 # [OPENMP/X] Number of threads for dipoles
# | Chimod= "IP"                   # [X] IP/Hartree/ALDA/LRC/BSfxc
# | NGsBlkXd= 1            RL      # [Xd] Response block size
# | % QpntsRXd
# |   1 | 19 |                     # [Xd] Transferred momenta
# | %
# | % BndsRnXd
# |   2 |  7 |                     # [Xd] Polarization function bands
# | %
# | % EnRngeXd
# |  10.00000 | 25.00000 | eV      # [Xd] Energy range
# | %
# | % DmRngeXd
# |   0.10000 |  0.10000 | eV      # [Xd] Damping range
# | %
# | ETStpsXd=  500                 # [Xd] Total Energy steps
# | % LongDrXd
# | 0.1000E-4 | 0.000    | 0.000    |        # [Xd] [cc] Electric Field
# | %
# | % XfnQP_E
# |  5.350000 | 1.000000 | 1.000000 |        # [EXTQP Xd] E parameters  (c/v) eV|adim|adim
# | %
