#                                                           
#  __  __   ________   ___ __ __    _______   ______        
# /_/\/_/\ /_______/\ /__//_//_/\ /_______/\ /_____/\       
# \ \ \ \ \\::: _  \ \\::\| \| \ \\::: _  \ \\:::_ \ \      
#  \:\_\ \ \\::(_)  \ \\:.      \ \\::(_)  \/_\:\ \ \ \     
#   \::::_\/ \:: __  \ \\:.\-/\  \ \\::  _  \ \\:\ \ \ \    
#     \::\ \  \:.\ \  \ \\. \  \  \ \\::(_)  \ \\:\_\ \ \   
#      \__\/   \__\/\__\/ \__\/ \__\/ \_______\/ \_____\/   
#                                                           
#                                                           
#        Version 4.3.0 Revision 15186 Hash adaf3b3          
#                  MPI+SLK+OpenMP Build                     
#                http://www.yambo-code.org                  
#
# Absorption @ Q(5) [iku] : 0.2500000 -0.2500000 -0.1250000
#
#
# BZ Energy DbGd points: 1000
#
# - Energies      are  Analyt. E
# - Wavefunctions are Slater exchange(X)+Perdew & Zunger(C)
#
# - The Green`s function is T-ordered -
#
#    E/ev[1]       EPS-Im[2]     EPS-Re[3]
#
    10.000       0.19295E-3     1.0217   
    10.030       0.19415E-3     1.0217   
    10.060       0.19537E-3     1.0218   
    10.090       0.19660E-3     1.0218   
    10.120       0.19784E-3     1.0219   
    10.150       0.19910E-3     1.0219   
    10.180       0.20037E-3     1.0220   
    10.210       0.20166E-3     1.0220   
    10.240       0.20296E-3     1.0221   
    10.271       0.20428E-3     1.0221   
    10.301       0.20562E-3     1.0222   
    10.331       0.20697E-3     1.0222   
    10.361       0.20834E-3     1.0223   
    10.391       0.20972E-3     1.0223   
    10.421       0.21113E-3     1.0224   
    10.451       0.21255E-3     1.0224   
    10.481       0.21399E-3     1.0225   
    10.511       0.21544E-3     1.0225   
    10.541       0.21692E-3     1.0226   
    10.571       0.21841E-3     1.0226   
    10.601       0.21992E-3     1.0227   
    10.631       0.22145E-3     1.0228   
    10.661       0.22301E-3     1.0228   
    10.691       0.22458E-3     1.0229   
    10.721       0.22617E-3     1.0229   
    10.752       0.22778E-3     1.0230   
    10.782       0.22942E-3     1.0230   
    10.812       0.23107E-3     1.0231   
    10.842       0.23275E-3     1.0232   
    10.872       0.23445E-3     1.0232   
    10.902       0.23617E-3     1.0233   
    10.932       0.23792E-3     1.0233   
    10.962       0.23968E-3     1.0234   
    10.992       0.24148E-3     1.0235   
    11.022       0.24330E-3     1.0235   
    11.052       0.24514E-3     1.0236   
    11.082       0.24701E-3     1.0237   
    11.112       0.24890E-3     1.0237   
    11.142       0.25082E-3     1.0238   
    11.172       0.25277E-3     1.0239   
    11.202       0.25474E-3     1.0239   
    11.232       0.25675E-3     1.0240   
    11.263       0.25878E-3     1.0241   
    11.293       0.26084E-3     1.0241   
    11.323       0.26293E-3     1.0242   
    11.353       0.26505E-3     1.0243   
    11.383       0.26720E-3     1.0243   
    11.413       0.26938E-3     1.0244   
    11.443       0.27160E-3     1.0245   
    11.473       0.27385E-3     1.0245   
    11.503       0.27613E-3     1.0246   
    11.533       0.27845E-3     1.0247   
    11.563       0.28080E-3     1.0248   
    11.593       0.28319E-3     1.0248   
    11.623       0.28561E-3     1.0249   
    11.653       0.28808E-3     1.0250   
    11.683       0.29058E-3     1.0251   
    11.713       0.29311E-3     1.0252   
    11.743       0.29569E-3     1.0252   
    11.774       0.29831E-3     1.0253   
    11.804       0.30098E-3     1.0254   
    11.834       0.30368E-3     1.0255   
    11.864       0.30643E-3     1.0256   
    11.894       0.30922E-3     1.0256   
    11.924       0.31206E-3     1.0257   
    11.954       0.31495E-3     1.0258   
    11.984       0.31788E-3     1.0259   
    12.014       0.32087E-3     1.0260   
    12.044       0.32390E-3     1.0261   
    12.074       0.32699E-3     1.0262   
    12.104       0.33013E-3     1.0262   
    12.134       0.33332E-3     1.0263   
    12.164       0.33657E-3     1.0264   
    12.194       0.33987E-3     1.0265   
    12.224       0.34324E-3     1.0266   
    12.255       0.34666E-3     1.0267   
    12.285       0.35014E-3     1.0268   
    12.315       0.35369E-3     1.0269   
    12.345       0.35731E-3     1.0270   
    12.375       0.36099E-3     1.0271   
    12.405       0.36474E-3     1.0272   
    12.435       0.36855E-3     1.0273   
    12.465       0.37245E-3     1.0274   
    12.495       0.37641E-3     1.0275   
    12.525       0.38045E-3     1.0276   
    12.555       0.38457E-3     1.0277   
    12.585       0.38877E-3     1.0278   
    12.615       0.39306E-3     1.0279   
    12.645       0.39743E-3     1.0280   
    12.675       0.40189E-3     1.0281   
    12.705       0.40644E-3     1.0283   
    12.735       0.41108E-3     1.0284   
    12.766       0.41582E-3     1.0285   
    12.796       0.42066E-3     1.0286   
    12.826       0.42560E-3     1.0287   
    12.856       0.43065E-3     1.0288   
    12.886       0.43581E-3     1.0290   
    12.916       0.44108E-3     1.0291   
    12.946       0.44647E-3     1.0292   
    12.976       0.45198E-3     1.0293   
    13.006       0.45761E-3     1.0295   
    13.036       0.46338E-3     1.0296   
    13.066       0.46928E-3     1.0297   
    13.096       0.47532E-3     1.0299   
    13.126       0.48151E-3     1.0300   
    13.156       0.48784E-3     1.0301   
    13.186       0.49433E-3     1.0303   
    13.216       0.50099E-3     1.0304   
    13.246       0.50781E-3     1.0306   
    13.277       0.51481E-3     1.0307   
    13.307       0.52199E-3     1.0308   
    13.337       0.52936E-3     1.0310   
    13.367       0.53693E-3     1.0311   
    13.397       0.54471E-3     1.0313   
    13.427       0.55271E-3     1.0315   
    13.457       0.56094E-3     1.0316   
    13.487       0.56941E-3     1.0318   
    13.517       0.57813E-3     1.0319   
    13.547       0.58711E-3     1.0321   
    13.577       0.59637E-3     1.0323   
    13.607       0.60593E-3     1.0324   
    13.637       0.61580E-3     1.0326   
    13.667       0.62600E-3     1.0328   
    13.697       0.63654E-3     1.0330   
    13.727       0.64747E-3     1.0332   
    13.758       0.65879E-3     1.0334   
    13.788       0.67053E-3     1.0335   
    13.818       0.68274E-3     1.0337   
    13.848       0.69544E-3     1.0339   
    13.878       0.70868E-3     1.0341   
    13.908       0.72250E-3     1.0343   
    13.938       0.73696E-3     1.0346   
    13.968       0.75213E-3     1.0348   
    13.998       0.76807E-3     1.0350   
    14.028       0.78489E-3     1.0352   
    14.058       0.80269E-3     1.0354   
    14.088       0.82162E-3     1.0357   
    14.118       0.84184E-3     1.0359   
    14.148       0.86358E-3     1.0362   
    14.178       0.88712E-3     1.0364   
    14.208       0.91283E-3     1.0367   
    14.238       0.94122E-3     1.0369   
    14.269       0.97300E-3     1.0372   
    14.299       0.10092E-2     1.0375   
    14.329       0.10511E-2     1.0378   
    14.359       0.11010E-2     1.0381   
    14.389       0.11618E-2     1.0384   
    14.419       0.12374E-2     1.0387   
    14.449       0.13320E-2     1.0390   
    14.479       0.14456E-2     1.0394   
    14.509       0.15702E-2     1.0397   
    14.539       0.16955E-2     1.0399   
    14.569       0.18215E-2     1.0402   
    14.599       0.19475E-2     1.0405   
    14.629       0.20589E-2     1.0407   
    14.659       0.21399E-2     1.0410   
    14.689       0.21954E-2     1.0412   
    14.719       0.22488E-2     1.0415   
    14.749       0.23087E-2     1.0418   
    14.780       0.23590E-2     1.0421   
    14.810       0.23904E-2     1.0424   
    14.840       0.24091E-2     1.0427   
    14.870       0.24132E-2     1.0430   
    14.900       0.24003E-2     1.0434   
    14.930       0.23834E-2     1.0439   
    14.960       0.23897E-2     1.0443   
    14.990       0.24404E-2     1.0449   
    15.020       0.25440E-2     1.0455   
    15.050       0.27052E-2     1.0460   
    15.080       0.29202E-2     1.0466   
    15.110       0.31717E-2     1.0471   
    15.140       0.34437E-2     1.0477   
    15.170       0.37390E-2     1.0482   
    15.200       0.40709E-2     1.0487   
    15.230       0.44249E-2     1.0491   
    15.261       0.47441E-2     1.0495   
    15.291       0.49768E-2     1.0498   
    15.321       0.51399E-2     1.0502   
    15.351       0.52823E-2     1.0507   
    15.381       0.54327E-2     1.0512   
    15.411       0.56058E-2     1.0518   
    15.441       0.58120E-2     1.0524   
    15.471       0.60496E-2     1.0531   
    15.501       0.63206E-2     1.0538   
    15.531       0.66476E-2     1.0546   
    15.561       0.70656E-2     1.0555   
    15.591       0.76265E-2     1.0563   
    15.621       0.83665E-2     1.0572   
    15.651       0.92278E-2     1.0578   
    15.681       0.10055E-1     1.0582   
    15.711       0.10717E-1     1.0586   
    15.741       0.11206E-1     1.0590   
    15.772       0.11650E-1     1.0595   
    15.802       0.12195E-1     1.0602   
    15.832       0.12867E-1     1.0609   
    15.862       0.13636E-1     1.0616   
    15.892       0.14466E-1     1.0622   
    15.922       0.15282E-1     1.0627   
    15.951903      0.016023      1.063172
    15.981964      0.016737      1.063726
    16.012024      0.017465      1.064316
    16.042082      0.018165      1.064962
    16.072144      0.018873      1.065765
    16.102203      0.019733      1.066734
    16.132265      0.020805      1.067764
    16.162325      0.022065      1.068839
    16.192385      0.023629      1.069967
    16.222445      0.025610      1.070960
    16.252504      0.027930      1.071595
    16.282566      0.030434      1.071720
    16.312624      0.032835      1.071216
    16.342686      0.034713      1.070267
    16.372744      0.036006      1.069405
    16.402805      0.037116      1.068867
    16.432865      0.038279      1.068474
    16.462925      0.039453      1.068070
    16.492987      0.040474      1.067681
    16.523045      0.041343      1.067633
    16.553106      0.042570      1.068093
    16.583166      0.044622      1.068564
    16.613226      0.047306      1.068350
    16.643286      0.049984      1.067193
    16.673346      0.052084      1.065387
    16.703405      0.053519      1.063508
    16.733467      0.054667      1.061815
    16.763527      0.055723      1.060066
    16.793587      0.056383      1.058168
    16.823647      0.056512      1.056604
    16.853706      0.056715      1.055690
    16.883768      0.057502      1.054847
    16.913826      0.058454      1.053456
    16.943888      0.058952      1.051708
    16.973946      0.058966      1.050122
    17.004007      0.058853      1.048864
    17.034067      0.058822      1.047711
    17.064127      0.058690      1.046420
    17.094189      0.058074      1.045176
    17.124247      0.057060      1.044562
    17.154308      0.056306      1.044751
    17.184368      0.056246      1.045286
    17.214430      0.056828      1.045720
    17.244488      0.057907      1.045740
    17.274548      0.059072      1.045059
    17.304609      0.059738      1.043915
    17.334669      0.059876      1.042929
    17.364729      0.059945      1.042307
    17.394789      0.060192      1.041793
    17.424849      0.060509      1.041151
    17.454908      0.060616      1.040396
    17.484970      0.060426      1.039906
    17.515030      0.060376      1.039917
    17.545090      0.060856      1.040067
    17.575150      0.061701      1.039897
    17.605209      0.062515      1.039364
    17.635271      0.063138      1.038706
    17.665331      0.063652      1.038090
    17.695391      0.064153      1.037524
    17.725449      0.064666      1.037024
    17.755510      0.065334      1.036628
    17.785570      0.066338      1.036095
    17.815632      0.067451      1.035058
    17.845690      0.068187      1.033584
    17.875750      0.068368      1.032091
    17.905811      0.068144      1.030934
    17.935871      0.067845      1.030281
    17.965933      0.067795      1.030028
    17.995991      0.068132      1.029974
    18.026051      0.068955      1.029967
    18.056110      0.070416      1.029706
    18.086172      0.072320      1.028609
    18.116232      0.073894      1.026510
    18.146292      0.074670      1.023942
    18.176352      0.074664      1.021335
    18.206411      0.073949      1.019078
    18.236473      0.072972      1.017493
    18.266533      0.072231      1.016324
    18.296593      0.071653      1.015128
    18.326653      0.070903      1.013927
    18.356712      0.070018      1.013004
    18.386772      0.069248      1.012351
    18.416834      0.068640      1.011803
    18.446892      0.068138      1.011315
    18.476954      0.067764      1.010883
    18.507013      0.067526      1.010451
    18.537073      0.067426      1.010005
    18.567135      0.067530      1.009438
    18.597193      0.067699      1.008540
    18.627254      0.067589      1.007339
    18.657312      0.067027      1.006249
    18.687374      0.066417      1.005647
    18.717434      0.066306      1.005206
    18.747496      0.066529      1.004253
    18.777555      0.066371      1.002693
    18.807613      0.065430      1.001119
    18.837675      0.063980      1.000130
    18.867735      0.062572      0.999859
    18.897797      0.061603      1.000026
    18.927855      0.061062      1.000271
    18.957914      0.060844      1.000593
    18.987974      0.061217      1.000919
    19.018036      0.062242      1.000699
    19.048096      0.063413      0.999547
    19.078156      0.064215      0.997522
    19.108215      0.064193      0.994816
    19.138275      0.062942      0.991993
    19.168337      0.060611      0.989866
    19.198397      0.057894      0.988857
    19.228456      0.055477      0.988776
    19.258514      0.053634      0.989107
    19.288576      0.052167      0.989421
    19.318636      0.050699      0.989739
    19.348698      0.049209      0.990418
    19.378757      0.048093      0.991591
    19.408815      0.047701      0.992933
    19.438877      0.047956      0.994000
    19.468937      0.048626      0.994662
    19.498999      0.049701      0.994810
    19.529057      0.050991      0.994043
    19.559116      0.051810      0.992197
    19.589176      0.051505      0.989752
    19.619238      0.049964      0.987490
    19.649298      0.047560      0.985981
    19.679358      0.044792      0.985455
    19.709417      0.042173      0.985891
    19.739477      0.040080      0.986987
    19.769539      0.038599      0.988371
    19.799599      0.037659      0.989807
    19.829659      0.037200      0.991156
    19.859718      0.037181      0.992240
    19.889778      0.037430      0.992824
    19.919840      0.037566      0.992785
    19.949900      0.037122      0.992346
    19.979959      0.035955      0.992065
    20.010019      0.034359      0.992378
    20.040079      0.032755      0.993427
    20.070139      0.031562      0.995097
    20.100201      0.030994      0.997031
    20.130259      0.030976      0.998947
    20.160320      0.031425      1.000730
    20.190380      0.032302      1.002238
    20.220440      0.033455      1.003293
    20.250502      0.034589      1.003849
    20.280560      0.035452      1.004136
    20.310621      0.036127      1.004472
    20.340679      0.036886      1.004876
    20.370741      0.037784      1.005139
    20.400801      0.038654      1.005208
    20.430862      0.039476      1.005221
    20.460920      0.040383      1.005151
    20.490980      0.041335      1.004814
    20.521042      0.042086      1.004199
    20.551102      0.042529      1.003549
    20.581163      0.042824      1.003048
    20.611221      0.043182      1.002650
    20.641281      0.043661      1.002164
    20.671341      0.044138      1.001450
    20.701403      0.044450      1.000505
    20.731462      0.044475      0.999401
    20.761522      0.044110      0.998248
    20.791582      0.043271      0.997240
    20.821642      0.042009      0.996684
    20.851704      0.040629      0.996854
    20.881763      0.039648      0.997759
    20.911823      0.039504      0.998952
    20.941881      0.040114      0.999759
    20.971943      0.040891      0.999853
    21.002003      0.041291      0.999529
    21.032064      0.041326      0.999310
    21.062124      0.041368      0.999352
    21.092182      0.041641      0.999452
    21.122244      0.042101      0.999381
    21.152304      0.042574      0.999026
    21.182365      0.042841      0.998445
    21.212423      0.042800      0.997860
    21.242483      0.042577      0.997500
    21.272543      0.042448      0.997398
    21.302605      0.042628      0.997305
    21.332664      0.042951      0.996837
    21.362724      0.042915      0.995994
    21.392784      0.042271      0.995281
    21.422844      0.041362      0.995205
    21.452906      0.040814      0.995716
    21.482965      0.040858      0.996292
    21.513025      0.041231      0.996598
    21.543083      0.041712      0.996678
    21.573145      0.042320      0.996544
    21.603205      0.042970      0.996052
    21.633266      0.043419      0.995182
    21.663326      0.043457      0.994085
    21.693386      0.042985      0.993044
    21.723446      0.042134      0.992370
    21.753506      0.041230      0.992206
    21.783567      0.040592      0.992404
    21.813625      0.040295      0.992680
    21.843687      0.040232      0.992856
    21.873745      0.040278      0.992855
    21.903807      0.040260      0.992679
    21.933867      0.040056      0.992508
    21.963928      0.039805      0.992559
    21.993988      0.039782      0.992777
    22.024046      0.040031      0.992905
    22.054108      0.040419      0.992855
    22.084167      0.040940      0.992606
    22.114229      0.041538      0.991988
    22.144287      0.041947      0.990910
    22.174347      0.041873      0.989500
    22.204407      0.041139      0.988076
    22.234468      0.039820      0.987027
    22.264528      0.038189      0.986598
    22.294588      0.036601      0.986900
    22.324648      0.035496      0.987800
    22.354708      0.035122      0.988850
    22.384769      0.035323      0.989586
    22.414829      0.035747      0.989825
    22.444889      0.036078      0.989596
    22.474949      0.036059      0.989107
    22.505009      0.035711      0.988706
    22.535070      0.035324      0.988461
    22.565130      0.034922      0.988147
    22.595190      0.034266      0.987813
    22.625248      0.033405      0.987738
    22.655310      0.032598      0.987937
    22.685369      0.031890      0.988239
    22.715431      0.031188      0.988654
    22.745489      0.030564      0.989273
    22.775549      0.030155      0.990051
    22.805611      0.030015      0.990856
    22.835670      0.030118      0.991583
    22.865732      0.030439      0.992128
    22.895790      0.030851      0.992348
    22.925850      0.031095      0.992257
    22.955910      0.031024      0.992057
    22.985971      0.030638      0.991979
    23.016031      0.030097      0.992237
    23.046091      0.029706      0.992848
    23.076151      0.029648      0.993577
    23.106211      0.029843      0.994205
    23.136272      0.030178      0.994701
    23.166332      0.030652      0.995014
    23.196392      0.031119      0.994994
    23.226452      0.031247      0.994732
    23.256512      0.030952      0.994663
    23.286572      0.030620      0.995082
    23.316633      0.030705      0.995798
    23.346691      0.031281      0.996322
    23.376753      0.031979      0.996362
    23.406813      0.032441      0.996054
    23.436872      0.032592      0.995639
    23.466934      0.032448      0.995261
    23.496992      0.032070      0.995088
    23.527054      0.031677      0.995173
    23.557112      0.031364      0.995348
    23.587173      0.030999      0.995545
    23.617233      0.030528      0.995886
    23.647295      0.030023      0.996461
    23.677353      0.029564      0.997319
    23.707413      0.029298      0.998509
    23.737474      0.029438      0.999937
    23.767534      0.030059      1.001355
    23.797596      0.031048      1.002584
    23.827652      0.032306      1.003606
    23.857714      0.033844      1.004370
    23.887774      0.035604      1.004716
    23.917835      0.037380      1.004549
    23.947895      0.038947      1.003904
    23.977953      0.040110      1.002933
    24.008015      0.040802      1.001892
    24.038074      0.041135      1.000992
    24.068136      0.041272      1.000284
    24.098196      0.041278      0.999727
    24.128254      0.041126      0.999354
    24.158314      0.040887      0.999289
    24.188375      0.040728      0.999550
    24.218435      0.040747      1.000095
    24.248497      0.041094      1.000919
    24.278557      0.042006      1.001803
    24.308615      0.043367      1.002321
    24.338676      0.044730      1.002452
    24.368736      0.046044      1.002595
    24.398798      0.047720      1.002792
    24.428858      0.049928      1.002594
    24.458916      0.052329      1.001599
    24.488976      0.054444      0.999832
    24.519037      0.056013      0.997518
    24.549097      0.056822      0.994884
    24.579159      0.056750      0.992405
    24.609217      0.056157      0.990564
    24.639277      0.055617      0.989343
    24.669338      0.055397      0.988366
    24.699398      0.055405      0.987278
    24.729460      0.055341      0.985961
    24.759518      0.054984      0.984614
    24.789577      0.054412      0.983493
    24.819639      0.053877      0.982655
    24.849699      0.053548      0.981898
    24.879759      0.053321      0.980985
    24.909817      0.052938      0.979878
    24.939878      0.052196      0.978791
    24.969938      0.051149      0.978057
    25.000000      0.050151      0.977901
# 
# 01/08/2018 at 17:17 YAMBO @ polluce [start]
# 01/08/2018 at 17:18                 [end]
#  
# Timing   [Min/Max/Average]: 01m-29s/01m-29s/01m-29s
#
# .-Input file : yambo.in
# | optics                         # [R OPT] Optics
# | chi                            # [R CHI] Dyson equation for Chi.
# | ElecTemp=0.1723E-4     eV      # Electronic Temperature
# | BoseTemp=0.1723E-4     eV      # Bosonic Temperature
# | FFTGvecs= 1807         RL      # [FFT] Plane-waves
# | X_Threads= 1                   # [OPENMP/X] Number of threads for response functions
# | DIP_Threads= 1                 # [OPENMP/X] Number of threads for dipoles
# | Chimod= "IP"                   # [X] IP/Hartree/ALDA/LRC/BSfxc
# | NGsBlkXd= 1            RL      # [Xd] Response block size
# | % QpntsRXd
# |   1 | 19 |                     # [Xd] Transferred momenta
# | %
# | % BndsRnXd
# |   2 |  7 |                     # [Xd] Polarization function bands
# | %
# | % EnRngeXd
# |  10.00000 | 25.00000 | eV      # [Xd] Energy range
# | %
# | % DmRngeXd
# |   0.10000 |  0.10000 | eV      # [Xd] Damping range
# | %
# | ETStpsXd=  500                 # [Xd] Total Energy steps
# | % LongDrXd
# | 0.1000E-4 | 0.000    | 0.000    |        # [Xd] [cc] Electric Field
# | %
# | % XfnQP_E
# |  5.350000 | 1.000000 | 1.000000 |        # [EXTQP Xd] E parameters  (c/v) eV|adim|adim
# | %
