#                                                           
#  __  __   ________   ___ __ __    _______   ______        
# /_/\/_/\ /_______/\ /__//_//_/\ /_______/\ /_____/\       
# \ \ \ \ \\::: _  \ \\::\| \| \ \\::: _  \ \\:::_ \ \      
#  \:\_\ \ \\::(_)  \ \\:.      \ \\::(_)  \/_\:\ \ \ \     
#   \::::_\/ \:: __  \ \\:.\-/\  \ \\::  _  \ \\:\ \ \ \    
#     \::\ \  \:.\ \  \ \\. \  \  \ \\::(_)  \ \\:\_\ \ \   
#      \__\/   \__\/\__\/ \__\/ \__\/ \_______\/ \_____\/   
#                                                           
#                                                           
#        Version 4.3.0 Revision 15186 Hash adaf3b3          
#                  MPI+SLK+OpenMP Build                     
#                http://www.yambo-code.org                  
#
# Absorption @ Q(18) [iku] : 0.0000000 -0.3750000  0.3750000
#
#
# BZ Energy DbGd points: 1000
#
# - Energies      are  Analyt. E
# - Wavefunctions are Slater exchange(X)+Perdew & Zunger(C)
#
# - The Green`s function is T-ordered -
#
#    E/ev[1]       EPS-Im[2]     EPS-Re[3]
#
    10.000       0.10424E-3     1.0128   
    10.030       0.10482E-3     1.0128   
    10.060       0.10540E-3     1.0128   
    10.090       0.10599E-3     1.0129   
    10.120       0.10658E-3     1.0129   
    10.150       0.10718E-3     1.0129   
    10.180       0.10778E-3     1.0129   
    10.210       0.10840E-3     1.0130   
    10.240       0.10902E-3     1.0130   
    10.271       0.10964E-3     1.0130   
    10.301       0.11028E-3     1.0130   
    10.331       0.11092E-3     1.0131   
    10.361       0.11156E-3     1.0131   
    10.391       0.11222E-3     1.0131   
    10.421       0.11288E-3     1.0131   
    10.451       0.11355E-3     1.0132   
    10.481       0.11422E-3     1.0132   
    10.511       0.11491E-3     1.0132   
    10.541       0.11560E-3     1.0133   
    10.571       0.11630E-3     1.0133   
    10.601       0.11701E-3     1.0133   
    10.631       0.11772E-3     1.0133   
    10.661       0.11845E-3     1.0134   
    10.691       0.11918E-3     1.0134   
    10.721       0.11992E-3     1.0134   
    10.752       0.12067E-3     1.0135   
    10.782       0.12143E-3     1.0135   
    10.812       0.12220E-3     1.0135   
    10.842       0.12298E-3     1.0136   
    10.872       0.12376E-3     1.0136   
    10.902       0.12456E-3     1.0136   
    10.932       0.12536E-3     1.0137   
    10.962       0.12618E-3     1.0137   
    10.992       0.12700E-3     1.0137   
    11.022       0.12784E-3     1.0137   
    11.052       0.12868E-3     1.0138   
    11.082       0.12954E-3     1.0138   
    11.112       0.13040E-3     1.0138   
    11.142       0.13128E-3     1.0139   
    11.172       0.13217E-3     1.0139   
    11.202       0.13307E-3     1.0139   
    11.232       0.13398E-3     1.0140   
    11.263       0.13490E-3     1.0140   
    11.293       0.13583E-3     1.0140   
    11.323       0.13678E-3     1.0141   
    11.353       0.13773E-3     1.0141   
    11.383       0.13870E-3     1.0142   
    11.413       0.13969E-3     1.0142   
    11.443       0.14068E-3     1.0142   
    11.473       0.14169E-3     1.0143   
    11.503       0.14271E-3     1.0143   
    11.533       0.14375E-3     1.0143   
    11.563       0.14480E-3     1.0144   
    11.593       0.14586E-3     1.0144   
    11.623       0.14694E-3     1.0145   
    11.653       0.14803E-3     1.0145   
    11.683       0.14914E-3     1.0145   
    11.713       0.15026E-3     1.0146   
    11.743       0.15140E-3     1.0146   
    11.774       0.15256E-3     1.0146   
    11.804       0.15373E-3     1.0147   
    11.834       0.15491E-3     1.0147   
    11.864       0.15612E-3     1.0148   
    11.894       0.15734E-3     1.0148   
    11.924       0.15858E-3     1.0149   
    11.954       0.15983E-3     1.0149   
    11.984       0.16111E-3     1.0149   
    12.014       0.16240E-3     1.0150   
    12.044       0.16372E-3     1.0150   
    12.074       0.16505E-3     1.0151   
    12.104       0.16640E-3     1.0151   
    12.134       0.16777E-3     1.0152   
    12.164       0.16917E-3     1.0152   
    12.194       0.17058E-3     1.0152   
    12.224       0.17202E-3     1.0153   
    12.255       0.17348E-3     1.0153   
    12.285       0.17496E-3     1.0154   
    12.315       0.17646E-3     1.0154   
    12.345       0.17799E-3     1.0155   
    12.375       0.17954E-3     1.0155   
    12.405       0.18112E-3     1.0156   
    12.435       0.18272E-3     1.0156   
    12.465       0.18435E-3     1.0157   
    12.495       0.18601E-3     1.0157   
    12.525       0.18769E-3     1.0158   
    12.555       0.18940E-3     1.0158   
    12.585       0.19115E-3     1.0159   
    12.615       0.19292E-3     1.0159   
    12.645       0.19472E-3     1.0160   
    12.675       0.19655E-3     1.0160   
    12.705       0.19841E-3     1.0161   
    12.735       0.20031E-3     1.0161   
    12.766       0.20224E-3     1.0162   
    12.796       0.20420E-3     1.0163   
    12.826       0.20620E-3     1.0163   
    12.856       0.20824E-3     1.0164   
    12.886       0.21031E-3     1.0164   
    12.916       0.21242E-3     1.0165   
    12.946       0.21457E-3     1.0165   
    12.976       0.21677E-3     1.0166   
    13.006       0.21900E-3     1.0167   
    13.036       0.22128E-3     1.0167   
    13.066       0.22360E-3     1.0168   
    13.096       0.22597E-3     1.0169   
    13.126       0.22838E-3     1.0169   
    13.156       0.23084E-3     1.0170   
    13.186       0.23336E-3     1.0170   
    13.216       0.23592E-3     1.0171   
    13.246       0.23854E-3     1.0172   
    13.277       0.24121E-3     1.0172   
    13.307       0.24394E-3     1.0173   
    13.337       0.24673E-3     1.0174   
    13.367       0.24958E-3     1.0174   
    13.397       0.25249E-3     1.0175   
    13.427       0.25547E-3     1.0176   
    13.457       0.25851E-3     1.0177   
    13.487       0.26163E-3     1.0177   
    13.517       0.26481E-3     1.0178   
    13.547       0.26807E-3     1.0179   
    13.577       0.27141E-3     1.0180   
    13.607       0.27483E-3     1.0180   
    13.637       0.27833E-3     1.0181   
    13.667       0.28192E-3     1.0182   
    13.697       0.28561E-3     1.0183   
    13.727       0.28938E-3     1.0184   
    13.758       0.29325E-3     1.0184   
    13.788       0.29723E-3     1.0185   
    13.818       0.30131E-3     1.0186   
    13.848       0.30551E-3     1.0187   
    13.878       0.30982E-3     1.0188   
    13.908       0.31425E-3     1.0189   
    13.938       0.31882E-3     1.0190   
    13.968       0.32351E-3     1.0190   
    13.998       0.32835E-3     1.0191   
    14.028       0.33334E-3     1.0192   
    14.058       0.33848E-3     1.0193   
    14.088       0.34378E-3     1.0194   
    14.118       0.34926E-3     1.0195   
    14.148       0.35492E-3     1.0196   
    14.178       0.36078E-3     1.0197   
    14.208       0.36684E-3     1.0198   
    14.238       0.37311E-3     1.0199   
    14.269       0.37962E-3     1.0200   
    14.299       0.38638E-3     1.0202   
    14.329       0.39340E-3     1.0203   
    14.359       0.40070E-3     1.0204   
    14.389       0.40831E-3     1.0205   
    14.419       0.41624E-3     1.0206   
    14.449       0.42452E-3     1.0207   
    14.479       0.43318E-3     1.0209   
    14.509       0.44226E-3     1.0210   
    14.539       0.45179E-3     1.0211   
    14.569       0.46182E-3     1.0213   
    14.599       0.47240E-3     1.0214   
    14.629       0.48358E-3     1.0215   
    14.659       0.49545E-3     1.0217   
    14.689       0.50808E-3     1.0218   
    14.719       0.52157E-3     1.0220   
    14.749       0.53606E-3     1.0221   
    14.780       0.55170E-3     1.0223   
    14.810       0.56869E-3     1.0224   
    14.840       0.58730E-3     1.0226   
    14.870       0.60788E-3     1.0228   
    14.900       0.63089E-3     1.0229   
    14.930       0.65701E-3     1.0231   
    14.960       0.68719E-3     1.0233   
    14.990       0.72281E-3     1.0235   
    15.020       0.76584E-3     1.0237   
    15.050       0.81893E-3     1.0239   
    15.080       0.88468E-3     1.0241   
    15.110       0.96246E-3     1.0244   
    15.140       0.10419E-2     1.0245   
    15.170       0.11049E-2     1.0247   
    15.200       0.11506E-2     1.0249   
    15.230       0.12026E-2     1.0252   
    15.261       0.12851E-2     1.0255   
    15.291       0.14121E-2     1.0257   
    15.321       0.15881E-2     1.0260   
    15.351       0.17979E-2     1.0262   
    15.381       0.19975E-2     1.0263   
    15.411       0.21422E-2     1.0264   
    15.441       0.22060E-2     1.0265   
    15.471       0.21809E-2     1.0267   
    15.501       0.21175E-2     1.0269   
    15.531       0.20918E-2     1.0273   
    15.561       0.21462E-2     1.0277   
    15.591       0.22966E-2     1.0281   
    15.621       0.25502E-2     1.0286   
    15.651       0.28985E-2     1.0290   
    15.681       0.32896E-2     1.0293   
    15.711       0.36384E-2     1.0295   
    15.741       0.39233E-2     1.0297   
    15.772       0.42062E-2     1.0300   
    15.802       0.45192E-2     1.0302   
    15.832       0.48493E-2     1.0305   
    15.862       0.52512E-2     1.0309   
    15.892       0.58174E-2     1.0313   
    15.922       0.65124E-2     1.0315   
    15.952       0.72204E-2     1.0315   
    15.982       0.79345E-2     1.0314   
    16.012       0.86391E-2     1.0312   
    16.042       0.91772E-2     1.0307   
    16.072       0.94430E-2     1.0302   
    16.102       0.94747E-2     1.0297   
    16.132       0.93682E-2     1.0295   
    16.162       0.92934E-2     1.0294   
    16.192       0.93698E-2     1.0294   
    16.222       0.95037E-2     1.0294   
    16.253       0.95312E-2     1.0292   
    16.283       0.94439E-2     1.0291   
    16.313       0.93307E-2     1.0292   
    16.343       0.92126E-2     1.0293   
    16.373       0.91288E-2     1.0296   
    16.403       0.92125E-2     1.0301   
    16.433       0.95659E-2     1.0305   
    16.463       0.10132E-1     1.0308   
    16.493       0.10736E-1     1.0308   
    16.523       0.11240E-1     1.0305   
    16.553       0.11516E-1     1.0301   
    16.583       0.11482E-1     1.0297   
    16.613       0.11220E-1     1.0294   
    16.643       0.10925E-1     1.0295   
    16.673       0.10783E-1     1.0298   
    16.703       0.10842E-1     1.0301   
    16.733       0.11030E-1     1.0303   
    16.764       0.11198E-1     1.0303   
    16.794       0.11227E-1     1.0303   
    16.824       0.11119E-1     1.0304   
    16.854       0.10962E-1     1.0306   
    16.884       0.10868E-1     1.0309   
    16.914       0.10853E-1     1.0313   
    16.944       0.10885E-1     1.0317   
    16.974       0.10992E-1     1.0322   
    17.004       0.11218E-1     1.0327   
    17.034       0.11532E-1     1.0332   
    17.064       0.11853E-1     1.0336   
    17.094       0.12192E-1     1.0340   
    17.124       0.12655E-1     1.0344   
    17.154       0.13202E-1     1.0346   
    17.184       0.13678E-1     1.0347   
    17.214       0.13990E-1     1.0347   
    17.244       0.14079E-1     1.0347   
    17.275       0.13906E-1     1.0348   
    17.305       0.13603E-1     1.0353   
    17.335       0.13449E-1     1.0362   
    17.365       0.13615E-1     1.0373   
    17.395       0.14092E-1     1.0385   
    17.425       0.14834E-1     1.0397   
    17.455       0.15835E-1     1.0408   
    17.485       0.17091E-1     1.0418   
    17.515030      0.018563      1.042769
    17.545090      0.020293      1.043579
    17.575150      0.022384      1.044131
    17.605209      0.024710      1.044118
    17.635271      0.026836      1.043491
    17.665331      0.028508      1.042622
    17.695391      0.029905      1.041850
    17.725449      0.031346      1.041211
    17.755510      0.033073      1.040431
    17.785570      0.034898      1.039054
    17.815632      0.036207      1.037071
    17.845690      0.036728      1.035043
    17.875750      0.036707      1.033400
    17.905811      0.036484      1.032311
    17.935871      0.036490      1.031748
    17.965933      0.037049      1.031288
    17.995991      0.037940      1.030427
    18.026051      0.038737      1.029164
    18.056110      0.039365      1.027683
    18.086172      0.039800      1.025933
    18.116232      0.039780      1.023968
    18.146292      0.039251      1.022150
    18.176352      0.038485      1.020621
    18.206411      0.037587      1.019235
    18.236473      0.036407      1.017975
    18.266533      0.034908      1.017104
    18.296593      0.033371      1.016802
    18.326653      0.032082      1.016977
    18.356712      0.031218      1.017428
    18.386772      0.030810      1.017846
    18.416834      0.030630      1.017998
    18.446892      0.030379      1.017939
    18.476954      0.029989      1.017936
    18.507013      0.029686      1.018120
    18.537073      0.029672      1.018294
    18.567135      0.029834      1.018159
    18.597193      0.029828      1.017650
    18.627254      0.029387      1.017000
    18.657312      0.028480      1.016547
    18.687374      0.027275      1.016574
    18.717434      0.026076      1.017249
    18.747496      0.025290      1.018549
    18.777555      0.025276      1.020155
    18.807613      0.026089      1.021570
    18.837675      0.027479      1.022412
    18.867735      0.029121      1.022509
    18.897797      0.030643      1.021769
    18.927855      0.031533      1.020338
    18.957914      0.031476      1.018805
    18.987974      0.030777      1.017795
    19.018036      0.030020      1.017370
    19.048096      0.029435      1.017222
    19.078156      0.028956      1.017193
    19.108215      0.028592      1.017306
    19.138275      0.028507      1.017448
    19.168337      0.028617      1.017255
    19.198397      0.028431      1.016641
    19.228456      0.027623      1.016062
    19.258514      0.026415      1.016017
    19.288576      0.025290      1.016598
    19.318636      0.024547      1.017529
    19.348698      0.024137      1.018527
    19.378757      0.023923      1.019558
    19.408815      0.023941      1.020674
    19.438877      0.024284      1.021770
    19.468937      0.024910      1.022690
    19.498999      0.025699      1.023337
    19.529057      0.026498      1.023702
    19.559116      0.027198      1.023847
    19.589176      0.027722      1.023848
    19.619238      0.028017      1.023830
    19.649298      0.028111      1.023935
    19.679358      0.028095      1.024274
    19.709417      0.028109      1.024936
    19.739477      0.028405      1.025925
    19.769539      0.029217      1.026991
    19.799599      0.030478      1.027767
    19.829659      0.031905      1.028083
    19.859718      0.033207      1.027974
    19.889778      0.034148      1.027655
    19.919840      0.034725      1.027535
    19.949900      0.035348      1.027882
    19.979959      0.036493      1.028483
    20.010019      0.038301      1.028839
    20.040079      0.040529      1.028478
    20.070139      0.042635      1.027191
    20.100201      0.044056      1.025255
    20.130259      0.044685      1.023229
    20.160320      0.044788      1.021394
    20.190380      0.044517      1.019720
    20.220440      0.043783      1.018238
    20.250502      0.042542      1.017260
    20.280560      0.041170      1.017156
    20.310621      0.040304      1.017771
    20.340679      0.040099      1.018497
    20.370741      0.040178      1.019045
    20.400801      0.040310      1.019617
    20.430862      0.040677      1.020401
    20.460920      0.041571      1.021213
    20.490980      0.042927      1.021613
    20.521042      0.044294      1.021453
    20.551102      0.045356      1.021034
    20.581163      0.046218      1.020723
    20.611221      0.047209      1.020558
    20.641281      0.048449      1.020309
    20.671341      0.049853      1.019846
    20.701403      0.051399      1.019121
    20.731462      0.053021      1.017976
    20.761522      0.054477      1.016371
    20.791582      0.055659      1.014440
    20.821642      0.056543      1.012152
    20.851704      0.056846      1.009492
    20.881763      0.056283      1.006809
    20.911823      0.054939      1.004604
    20.941881      0.053186      1.003152
    20.971943      0.051367      1.002494
    21.002003      0.049839      1.002593
    21.032064      0.048952      1.003173
    21.062124      0.048773      1.003769
    21.092182      0.049060      1.004085
    21.122244      0.049585      1.004039
    21.152304      0.050096      1.003651
    21.182365      0.050502      1.003195
    21.212423      0.051121      1.002729
    21.242483      0.052011      1.001824
    21.272543      0.052711      1.000275
    21.302605      0.052861      0.998353
    21.332664      0.052437      0.996327
    21.362724      0.051335      0.994322
    21.392784      0.049423      0.992788
    21.422844      0.047114      0.992279
    21.452906      0.045157      0.992809
    21.482965      0.044018      0.993868
    21.513025      0.043682      0.994864
    21.543083      0.043759      0.995423
    21.573145      0.043764      0.995683
    21.603205      0.043741      0.996063
    21.633266      0.044051      0.996508
    21.663326      0.044651      0.996662
    21.693386      0.045216      0.996518
    21.723446      0.045718      0.996329
    21.753506      0.046391      0.996112
    21.783567      0.047267      0.995553
    21.813625      0.047941      0.994550
    21.843687      0.048241      0.993532
    21.873745      0.048577      0.992696
    21.903807      0.049186      0.991663
    21.933867      0.049773      0.990086
    21.963928      0.049950      0.988074
    21.993988      0.049645      0.985802
    22.024046      0.048631      0.983255
    22.054108      0.046459      0.980882
    22.084167      0.043312      0.979587
    22.114229      0.040086      0.979783
    22.144287      0.037567      0.981163
    22.174347      0.036165      0.983174
    22.204407      0.035976      0.985164
    22.234468      0.036726      0.986557
    22.264528      0.037924      0.987066
    22.294588      0.039079      0.986709
    22.324648      0.039867      0.985694
    22.354708      0.040082      0.984234
    22.384769      0.039514      0.982654
    22.414829      0.038243      0.981476
    22.444889      0.036720      0.980974
    22.474949      0.035366      0.981030
    22.505009      0.034362      0.981368
    22.535070      0.033693      0.981736
    22.565130      0.033221      0.981995
    22.595190      0.032833      0.982145
    22.625248      0.032489      0.982199
    22.655310      0.032166      0.982124
    22.685369      0.031739      0.981880
    22.715431      0.031069      0.981587
    22.745489      0.030151      0.981423
    22.775549      0.029085      0.981537
    22.805611      0.028050      0.981972
    22.835670      0.027176      0.982679
    22.865732      0.026614      0.983586
    22.895790      0.026453      0.984390
    22.925850      0.026343      0.984839
    22.955910      0.025911      0.985263
    22.985971      0.025407      0.986122
    23.016031      0.025337      0.987359
    23.046091      0.025925      0.988541
    23.076151      0.026984      0.989229
    23.106211      0.028100      0.989308
    23.136272      0.029022      0.988949
    23.166332      0.029687      0.988270
    23.196392      0.029960      0.987337
    23.226452      0.029692      0.986401
    23.256512      0.029013      0.985841
    23.286572      0.028376      0.985768
    23.316633      0.028076      0.985812
    23.346691      0.027893      0.985581
    23.376753      0.027388      0.985139
    23.406813      0.026445      0.984897
    23.436872      0.025309      0.985147
    23.466934      0.024318      0.985908
    23.496992      0.023692      0.987011
    23.527       0.23526E-1    0.98826   
    23.557112      0.023849      0.989406
    23.587173      0.024505      0.990183
    23.617233      0.025126      0.990530
    23.647295      0.025483      0.990729
    23.677353      0.025687      0.991052
    23.707413      0.025954      0.991547
    23.737474      0.026429      0.992101
    23.767534      0.027111      0.992546
    23.797596      0.027876      0.992800
    23.827652      0.028617      0.992911
    23.857714      0.029315      0.992959
    23.887774      0.029991      0.993017
    23.917835      0.030783      0.993152
    23.947895      0.031884      0.993169
    23.977953      0.033103      0.992747
    24.008015      0.034064      0.992000
    24.038074      0.034800      0.991262
    24.068136      0.035568      0.990530
    24.098196      0.036390      0.989570
    24.128254      0.037018      0.988282
    24.158314      0.037247      0.986865
    24.188375      0.037139      0.985554
    24.218435      0.036839      0.984410
    24.248497      0.036418      0.983414
    24.278557      0.035902      0.982568
    24.308615      0.035337      0.981881
    24.338676      0.034756      0.981331
    24.368736      0.034149      0.980923
    24.398798      0.033546      0.980743
    24.428858      0.033151      0.980843
    24.458916      0.033183      0.981011
    24.488976      0.033612      0.980908
    24.519037      0.034174      0.980305
    24.549097      0.034500      0.979175
    24.579159      0.034225      0.977789
    24.609217      0.033344      0.976679
    24.639277      0.032289      0.976108
    24.669338      0.031392      0.975907
    24.699398      0.030714      0.975879
    24.729460      0.030271      0.975888
    24.759518      0.029979      0.975767
    24.789577      0.029626      0.975514
    24.819639      0.029139      0.975319
    24.849699      0.028652      0.975311
    24.879759      0.028322      0.975454
    24.909817      0.028232      0.975652
    24.939878      0.028473      0.975764
    24.969938      0.028991      0.975482
    25.000000      0.029387      0.974636
# 
# 01/08/2018 at 17:17 YAMBO @ polluce [start]
# 01/08/2018 at 17:18                 [end]
#  
# Timing   [Min/Max/Average]: 01m-29s/01m-29s/01m-29s
#
# .-Input file : yambo.in
# | optics                         # [R OPT] Optics
# | chi                            # [R CHI] Dyson equation for Chi.
# | ElecTemp=0.1723E-4     eV      # Electronic Temperature
# | BoseTemp=0.1723E-4     eV      # Bosonic Temperature
# | FFTGvecs= 1807         RL      # [FFT] Plane-waves
# | X_Threads= 1                   # [OPENMP/X] Number of threads for response functions
# | DIP_Threads= 1                 # [OPENMP/X] Number of threads for dipoles
# | Chimod= "IP"                   # [X] IP/Hartree/ALDA/LRC/BSfxc
# | NGsBlkXd= 1            RL      # [Xd] Response block size
# | % QpntsRXd
# |   1 | 19 |                     # [Xd] Transferred momenta
# | %
# | % BndsRnXd
# |   2 |  7 |                     # [Xd] Polarization function bands
# | %
# | % EnRngeXd
# |  10.00000 | 25.00000 | eV      # [Xd] Energy range
# | %
# | % DmRngeXd
# |   0.10000 |  0.10000 | eV      # [Xd] Damping range
# | %
# | ETStpsXd=  500                 # [Xd] Total Energy steps
# | % LongDrXd
# | 0.1000E-4 | 0.000    | 0.000    |        # [Xd] [cc] Electric Field
# | %
# | % XfnQP_E
# |  5.350000 | 1.000000 | 1.000000 |        # [EXTQP Xd] E parameters  (c/v) eV|adim|adim
# | %
