#                                                           
#  __  __   ________   ___ __ __    _______   ______        
# /_/\/_/\ /_______/\ /__//_//_/\ /_______/\ /_____/\       
# \ \ \ \ \\::: _  \ \\::\| \| \ \\::: _  \ \\:::_ \ \      
#  \:\_\ \ \\::(_)  \ \\:.      \ \\::(_)  \/_\:\ \ \ \     
#   \::::_\/ \:: __  \ \\:.\-/\  \ \\::  _  \ \\:\ \ \ \    
#     \::\ \  \:.\ \  \ \\. \  \  \ \\::(_)  \ \\:\_\ \ \   
#      \__\/   \__\/\__\/ \__\/ \__\/ \_______\/ \_____\/   
#                                                           
#                                                           
#        Version 4.3.0 Revision 15186 Hash adaf3b3          
#                  MPI+SLK+OpenMP Build                     
#                http://www.yambo-code.org                  
#
# Absorption @ Q(7) [iku] :0.25000    -.25000    0.18034E-7
#
#
# BZ Energy DbGd points: 1000
#
# - Energies      are  Analyt. E
# - Wavefunctions are Slater exchange(X)+Perdew & Zunger(C)
#
# - The Green`s function is T-ordered -
#
#    E/ev[1]       EPS-Im[2]     EPS-Re[3]
#
    10.000       0.28715E-3     1.0317   
    10.030       0.28898E-3     1.0318   
    10.060       0.29083E-3     1.0319   
    10.090       0.29271E-3     1.0319   
    10.120       0.29460E-3     1.0320   
    10.150       0.29652E-3     1.0321   
    10.180       0.29847E-3     1.0322   
    10.210       0.30043E-3     1.0322   
    10.240       0.30242E-3     1.0323   
    10.271       0.30444E-3     1.0324   
    10.301       0.30648E-3     1.0325   
    10.331       0.30855E-3     1.0325   
    10.361       0.31064E-3     1.0326   
    10.391       0.31276E-3     1.0327   
    10.421       0.31491E-3     1.0328   
    10.451       0.31709E-3     1.0329   
    10.481       0.31929E-3     1.0329   
    10.511       0.32152E-3     1.0330   
    10.541       0.32378E-3     1.0331   
    10.571       0.32607E-3     1.0332   
    10.601       0.32839E-3     1.0333   
    10.631       0.33074E-3     1.0334   
    10.661       0.33312E-3     1.0334   
    10.691       0.33554E-3     1.0335   
    10.721       0.33798E-3     1.0336   
    10.752       0.34046E-3     1.0337   
    10.782       0.34297E-3     1.0338   
    10.812       0.34552E-3     1.0339   
    10.842       0.34810E-3     1.0340   
    10.872       0.35072E-3     1.0341   
    10.902       0.35337E-3     1.0341   
    10.932       0.35606E-3     1.0342   
    10.962       0.35879E-3     1.0343   
    10.992       0.36155E-3     1.0344   
    11.022       0.36436E-3     1.0345   
    11.052       0.36720E-3     1.0346   
    11.082       0.37009E-3     1.0347   
    11.112       0.37302E-3     1.0348   
    11.142       0.37598E-3     1.0349   
    11.172       0.37900E-3     1.0350   
    11.202       0.38205E-3     1.0351   
    11.232       0.38516E-3     1.0352   
    11.263       0.38830E-3     1.0353   
    11.293       0.39150E-3     1.0354   
    11.323       0.39474E-3     1.0355   
    11.353       0.39803E-3     1.0356   
    11.383       0.40138E-3     1.0357   
    11.413       0.40477E-3     1.0358   
    11.443       0.40821E-3     1.0359   
    11.473       0.41171E-3     1.0360   
    11.503       0.41527E-3     1.0362   
    11.533       0.41887E-3     1.0363   
    11.563       0.42254E-3     1.0364   
    11.593       0.42626E-3     1.0365   
    11.623       0.43005E-3     1.0366   
    11.653       0.43389E-3     1.0367   
    11.683       0.43780E-3     1.0368   
    11.713       0.44177E-3     1.0370   
    11.743       0.44581E-3     1.0371   
    11.774       0.44991E-3     1.0372   
    11.804       0.45408E-3     1.0373   
    11.834       0.45832E-3     1.0374   
    11.864       0.46264E-3     1.0376   
    11.894       0.46703E-3     1.0377   
    11.924       0.47149E-3     1.0378   
    11.954       0.47603E-3     1.0380   
    11.984       0.48065E-3     1.0381   
    12.014       0.48535E-3     1.0382   
    12.044       0.49013E-3     1.0383   
    12.074       0.49500E-3     1.0385   
    12.104       0.49996E-3     1.0386   
    12.134       0.50501E-3     1.0388   
    12.164       0.51015E-3     1.0389   
    12.194       0.51539E-3     1.0390   
    12.224       0.52072E-3     1.0392   
    12.255       0.52615E-3     1.0393   
    12.285       0.53169E-3     1.0395   
    12.315       0.53733E-3     1.0396   
    12.345       0.54308E-3     1.0398   
    12.375       0.54895E-3     1.0399   
    12.405       0.55492E-3     1.0401   
    12.435       0.56102E-3     1.0402   
    12.465       0.56724E-3     1.0404   
    12.495       0.57358E-3     1.0405   
    12.525       0.58006E-3     1.0407   
    12.555       0.58667E-3     1.0409   
    12.585       0.59341E-3     1.0410   
    12.615       0.60030E-3     1.0412   
    12.645       0.60733E-3     1.0414   
    12.675       0.61451E-3     1.0415   
    12.705       0.62185E-3     1.0417   
    12.735       0.62935E-3     1.0419   
    12.766       0.63702E-3     1.0421   
    12.796       0.64486E-3     1.0422   
    12.826       0.65287E-3     1.0424   
    12.856       0.66108E-3     1.0426   
    12.886       0.66947E-3     1.0428   
    12.916       0.67805E-3     1.0430   
    12.946       0.68684E-3     1.0432   
    12.976       0.69585E-3     1.0434   
    13.006       0.70506E-3     1.0436   
    13.036       0.71451E-3     1.0438   
    13.066       0.72420E-3     1.0440   
    13.096       0.73412E-3     1.0442   
    13.126       0.74431E-3     1.0444   
    13.156       0.75476E-3     1.0446   
    13.186       0.76548E-3     1.0448   
    13.216       0.77649E-3     1.0450   
    13.246       0.78780E-3     1.0452   
    13.277       0.79942E-3     1.0455   
    13.307       0.81136E-3     1.0457   
    13.337       0.82365E-3     1.0459   
    13.367       0.83629E-3     1.0462   
    13.397       0.84930E-3     1.0464   
    13.427       0.86270E-3     1.0467   
    13.457       0.87650E-3     1.0469   
    13.487       0.89074E-3     1.0472   
    13.517       0.90542E-3     1.0474   
    13.547       0.92057E-3     1.0477   
    13.577       0.93623E-3     1.0479   
    13.607       0.95241E-3     1.0482   
    13.637       0.96914E-3     1.0485   
    13.667       0.98645E-3     1.0488   
    13.697       0.10044E-2     1.0491   
    13.727       0.10230E-2     1.0493   
    13.758       0.10423E-2     1.0496   
    13.788       0.10623E-2     1.0499   
    13.818       0.10832E-2     1.0503   
    13.848       0.11048E-2     1.0506   
    13.878       0.11274E-2     1.0509   
    13.908       0.11510E-2     1.0512   
    13.938       0.11757E-2     1.0516   
    13.968       0.12015E-2     1.0519   
    13.998       0.12285E-2     1.0523   
    14.028       0.12570E-2     1.0526   
    14.058       0.12869E-2     1.0530   
    14.088       0.13185E-2     1.0534   
    14.118       0.13520E-2     1.0537   
    14.148       0.13875E-2     1.0541   
    14.178       0.14254E-2     1.0546   
    14.208       0.14660E-2     1.0550   
    14.238       0.15098E-2     1.0554   
    14.269       0.15572E-2     1.0558   
    14.299       0.16091E-2     1.0563   
    14.329       0.16663E-2     1.0568   
    14.359       0.17302E-2     1.0573   
    14.389       0.18028E-2     1.0578   
    14.419       0.18866E-2     1.0583   
    14.449       0.19857E-2     1.0588   
    14.479       0.21056E-2     1.0594   
    14.509       0.22538E-2     1.0600   
    14.539       0.24368E-2     1.0606   
    14.569       0.26528E-2     1.0611   
    14.599       0.28828E-2     1.0617   
    14.629       0.30981E-2     1.0622   
    14.659       0.32726E-2     1.0626   
    14.689       0.33922E-2     1.0632   
    14.719       0.34809E-2     1.0637   
    14.749       0.35908E-2     1.0644   
    14.780       0.37629E-2     1.0652   
    14.810       0.40051E-2     1.0659   
    14.840       0.43166E-2     1.0667   
    14.870       0.46815E-2     1.0673   
    14.900       0.50193E-2     1.0680   
    14.930       0.52531E-2     1.0686   
    14.960       0.54239E-2     1.0693   
    14.990       0.56219E-2     1.0702   
    15.020       0.58954E-2     1.0712   
    15.050       0.62838E-2     1.0723   
    15.080       0.68640E-2     1.0735   
    15.110       0.77073E-2     1.0748   
    15.140       0.88227E-2     1.0758   
    15.170       0.10114E-1     1.0766   
    15.200       0.11361E-1     1.0771   
    15.230       0.12377E-1     1.0773   
    15.261       0.13227E-1     1.0777   
    15.291       0.14073E-1     1.0781   
    15.321       0.15005E-1     1.0785   
    15.350701      0.016080      1.078705
    15.380760      0.017055      1.078507
    15.410821      0.017418      1.078074
    15.440881      0.017150      1.078057
    15.470942      0.016789      1.078753
    15.501002      0.016758      1.079950
    15.531061      0.017157      1.081345
    15.561122      0.017947      1.082736
    15.591181      0.019019      1.083976
    15.621242      0.020200      1.085052
    15.651302      0.021473      1.086083
    15.681361      0.022939      1.087020
    15.711422      0.024527      1.087713
    15.741482      0.026066      1.088164
    15.771543      0.027447      1.088472
    15.801603      0.028648      1.088820
    15.831662      0.029847      1.089303
    15.861723      0.031125      1.089768
    15.891782      0.032303      1.090195
    15.921843      0.033355      1.090834
    15.951903      0.034533      1.091849
    15.981964      0.036177      1.093176
    16.012024      0.038582      1.094475
    16.042082      0.041699      1.095151
    16.072144      0.044971      1.094799
    16.102203      0.047682      1.093566
    16.132265      0.049459      1.092081
    16.162325      0.050472      1.090997
    16.192385      0.051237      1.090679
    16.222445      0.052385      1.091079
    16.252504      0.054348      1.091743
    16.282566      0.057189      1.092071
    16.312624      0.060560      1.091510
    16.342686      0.063823      1.089965
    16.372744      0.066670      1.087685
    16.402805      0.068815      1.084718
    16.432865      0.069739      1.081593
    16.462925      0.069783      1.079279
    16.492987      0.069955      1.077852
    16.523045      0.070690      1.076617
    16.553106      0.071747      1.074987
    16.583166      0.072622      1.072738
    16.613226      0.072687      1.070047
    16.643286      0.071597      1.067748
    16.673346      0.070051      1.066658
    16.703405      0.068989      1.066517
    16.733467      0.068590      1.066678
    16.763527      0.068672      1.066818
    16.793587      0.069075      1.066814
    16.823647      0.069638      1.066608
    16.853706      0.070270      1.066266
    16.883768      0.071007      1.065725
    16.913826      0.071619      1.064825
    16.943888      0.071747      1.063803
    16.973946      0.071435      1.063122
    17.004007      0.070986      1.062959
    17.034067      0.070577      1.063418
    17.064127      0.070628      1.064701
    17.094189      0.071928      1.066559
    17.124247      0.074925      1.067910
    17.154308      0.078924      1.067554
    17.184368      0.082550      1.065319
    17.214430      0.084966      1.062017
    17.244488      0.086197      1.058432
    17.274548      0.086425      1.054860
    17.304609      0.085626      1.051618
    17.334669      0.084064      1.049215
    17.364729      0.082335      1.047839
    17.394789      0.080966      1.047302
    17.424849      0.080301      1.047144
    17.454908      0.080215      1.046766
    17.484970      0.080194      1.046039
    17.515030      0.080144      1.045271
    17.545090      0.080311      1.044334
    17.575150      0.080418      1.042822
    17.605209      0.079872      1.040882
    17.635271      0.078477      1.039032
    17.665331      0.076342      1.037687
    17.695391      0.073685      1.037163
    17.725449      0.070822      1.037715
    17.755510      0.068225      1.039512
    17.785570      0.066546      1.042477
    17.815632      0.066432      1.046034
    17.845690      0.067937      1.049172
    17.875750      0.070401      1.051229
    17.905811      0.073131      1.052128
    17.935871      0.075505      1.052053
    17.965933      0.077134      1.051720
    17.995991      0.078553      1.051790
    18.026051      0.080403      1.051956
    18.056110      0.082596      1.051724
    18.086172      0.084880      1.050961
    18.116232      0.086962      1.049549
    18.146292      0.088335      1.047758
    18.176352      0.089040      1.046348
    18.206411      0.089890      1.045556
    18.236473      0.091319      1.044640
    18.266533      0.092664      1.043060
    18.296593      0.093287      1.041455
    18.326653      0.093822      1.040584
    18.356712      0.095183      1.039904
    18.386772      0.097068      1.038325
    18.416834      0.098259      1.035746
    18.446892      0.098130      1.033355
    18.476954      0.097545      1.032306
    18.507013      0.097953      1.032408
    18.537073      0.100022      1.032462
    18.567135      0.103475      1.031206
    18.597193      0.107199      1.027694
    18.627254      0.109516      1.022106
    18.657312      0.109505      1.015827
    18.687374      0.107542      1.010208
    18.717434      0.104502      1.005659
    18.747496      0.100755      1.002109
    18.777555      0.096602      0.999732
    18.807613      0.092539      0.998359
    18.837675      0.088442      0.997615
    18.867735      0.084028      0.998021
    18.897797      0.080241      1.000258
    18.927855      0.078419      1.003605
    18.957914      0.078749      1.006487
    18.987974      0.080164      1.007806
    19.018036      0.081277      1.007783
    19.048096      0.081766      1.007496
    19.078156      0.082284      1.007331
    19.108215      0.083119      1.006868
    19.138275      0.084000      1.005775
    19.168337      0.084495      1.004068
    19.198397      0.084297      1.002077
    19.228456      0.083402      1.000264
    19.258514      0.082150      0.998969
    19.288576      0.080973      0.998136
    19.318636      0.080099      0.997517
    19.348698      0.079645      0.996695
    19.378757      0.079179      0.995066
    19.408815      0.077576      0.992774
    19.438877      0.074340      0.991267
    19.468937      0.070718      0.991780
    19.498999      0.068312      0.993854
    19.529057      0.067632      0.996260
    19.559116      0.068413      0.997959
    19.589176      0.069888      0.998292
    19.619238      0.071153      0.997192
    19.649298      0.071413      0.995001
    19.679358      0.070142      0.992566
    19.709417      0.067549      0.990871
    19.739477      0.064314      0.990483
    19.769539      0.061282      0.991504
    19.799599      0.059166      0.993486
    19.829659      0.058183      0.995751
    19.859718      0.058260      0.997718
    19.889778      0.059025      0.998803
    19.919840      0.059665      0.998785
    19.949900      0.059413      0.998175
    19.979959      0.058187      0.997901
    20.010019      0.056657      0.998562
    20.040079      0.055615      0.999965
    20.070139      0.055256      1.001446
    20.100201      0.055155      1.002704
    20.130259      0.055140      1.004091
    20.160320      0.055729      1.005675
    20.190380      0.057165      1.006699
    20.220440      0.058667      1.006529
    20.250502      0.059312      1.005605
    20.280560      0.059004      1.004756
    20.310621      0.058139      1.004438
    20.340679      0.057126      1.004707
    20.370741      0.056170      1.005467
    20.400801      0.055399      1.006691
    20.430862      0.055020      1.008330
    20.460920      0.055239      1.010164
    20.490980      0.056050      1.011852
    20.521042      0.057234      1.013185
    20.551102      0.058547      1.014135
    20.581163      0.059783      1.014816
    20.611221      0.060886      1.015482
    20.641281      0.062067      1.016338
    20.671341      0.063624      1.017313
    20.701403      0.065742      1.018150
    20.731462      0.068398      1.018429
    20.761522      0.071173      1.017842
    20.791582      0.073594      1.016584
    20.821642      0.075692      1.014954
    20.851704      0.077440      1.012792
    20.881763      0.078359      1.010232
    20.911823      0.078349      1.007896
    20.941881      0.077779      1.006190
    20.971943      0.077064      1.005207
    21.002003      0.076567      1.004875
    21.032064      0.076582      1.004988
    21.062124      0.077326      1.005250
    21.092182      0.078943      1.005173
    21.122244      0.081155      1.004064
    21.152304      0.083082      1.001585
    21.182365      0.083805      0.998213
    21.212423      0.083073      0.994986
    21.242483      0.081542      0.992673
    21.272543      0.079970      0.991131
    21.302605      0.078457      0.989961
    21.332664      0.076900      0.989145
    21.362724      0.075399      0.988751
    21.392784      0.074109      0.988769
    21.422844      0.073261      0.989067
    21.452906      0.072878      0.989245
    21.482965      0.072572      0.989138
    21.513025      0.072169      0.989028
    21.543083      0.071849      0.988999
    21.573145      0.071645      0.988952
    21.603205      0.071556      0.988788
    21.633266      0.071324      0.988336
    21.663326      0.070519      0.987975
    21.693386      0.069426      0.988391
    21.723446      0.068782      0.989643
    21.753506      0.068978      0.991305
    21.783567      0.070115      0.993023
    21.813625      0.072298      0.994368
    21.843687      0.075215      0.994759
    21.873745      0.078185      0.994204
    21.903807      0.081200      0.993194
    21.933867      0.084711      0.991466
    21.963928      0.088395      0.988313
    21.993988      0.091402      0.983631
    22.024046      0.093171      0.977926
    22.054108      0.093701      0.971643
    22.084167      0.092901      0.964750
    22.114229      0.090105      0.957452
    22.144287      0.084814      0.950817
    22.174347      0.077526      0.946134
    22.204407      0.069386      0.944057
    22.234468      0.061614      0.944521
    22.264528      0.055090      0.946885
    22.294588      0.050172      0.950351
    22.324648      0.046908      0.954234
    22.354708      0.045181      0.957885
    22.384769      0.044539      0.960674
    22.414829      0.044147      0.962396
    22.444889      0.043323      0.963532
    22.474949      0.042066      0.964833
    22.505009      0.040952      0.966606
    22.535070      0.040429      0.968523
    22.565130      0.040451      0.970104
    22.595190      0.040655      0.971144
    22.625248      0.040767      0.971753
    22.655310      0.040676      0.972021
    22.685369      0.040192      0.972074
    22.715431      0.039278      0.972226
    22.745489      0.038127      0.972652
    22.775549      0.036870      0.973366
    22.805611      0.035591      0.974408
    22.835670      0.034436      0.975811
    22.865732      0.033606      0.977504
    22.895790      0.033215      0.979240
    22.925850      0.033113      0.980756
    22.955910      0.033000      0.982058
    22.985971      0.032775      0.983396
    23.016031      0.032596      0.984931
    23.046091      0.032627      0.986614
    23.076151      0.032896      0.988367
    23.106211      0.033457      0.990201
    23.136272      0.034476      0.992008
    23.166332      0.035952      0.993508
    23.196392      0.037680      0.994550
    23.226452      0.039528      0.995144
    23.256512      0.041418      0.995205
    23.286572      0.043073      0.994683
    23.316633      0.044294      0.993820
    23.346691      0.045147      0.992751
    23.376753      0.045537      0.991428
    23.406813      0.045173      0.990069
    23.436872      0.044110      0.989214
    23.466934      0.042861      0.989097
    23.496992      0.041775      0.989496
    23.527054      0.040899      0.990206
    23.557112      0.040250      0.991117
    23.587173      0.039779      0.992123
    23.617233      0.039417      0.993244
    23.647295      0.039226      0.994533
    23.677353      0.039321      0.995902
    23.707413      0.039667      0.997136
    23.737474      0.039972      0.998178
    23.767534      0.040074      0.999318
    23.797596      0.040148      1.000823
    23.827652      0.040489      1.002740
    23.857714      0.041340      1.004907
    23.887774      0.042768      1.007094
    23.917835      0.044778      1.009138
    23.947895      0.047383      1.010806
    23.977953      0.050381      1.011788
    24.008015      0.053324      1.012000
    24.038074      0.055830      1.011769
    24.068136      0.057993      1.011600
    24.098196      0.060284      1.011575
    24.128254      0.062888      1.011306
    24.158314      0.065516      1.010533
    24.188375      0.067889      1.009439
    24.218435      0.070136      1.008225
    24.248497      0.072371      1.006687
    24.278557      0.074260      1.004648
    24.308615      0.075393      1.002444
    24.338676      0.075877      1.000667
    24.368736      0.076206      0.999545
    24.398798      0.076752      0.998942
    24.428858      0.077734      0.998697
    24.458916      0.079390      0.998544
    24.488976      0.081785      0.998007
    24.519037      0.084604      0.996569
    24.549097      0.087093      0.994050
    24.579159      0.088545      0.991070
    24.609217      0.089174      0.988635
    24.639277      0.089971      0.987005
    24.669338      0.091569      0.985480
    24.699398      0.093716      0.983270
    24.729460      0.095751      0.980255
    24.759518      0.097495      0.976790
    24.789577      0.099136      0.972817
    24.819639      0.100421      0.967970
    24.849699      0.100707      0.962336
    24.879759      0.099701      0.956478
    24.909817      0.097494      0.950766
    24.939878      0.093973      0.945418
    24.969938      0.089022      0.941156
    25.000000      0.083415      0.938833
# 
# 01/08/2018 at 17:17 YAMBO @ polluce [start]
# 01/08/2018 at 17:18                 [end]
#  
# Timing   [Min/Max/Average]: 01m-29s/01m-29s/01m-29s
#
# .-Input file : yambo.in
# | optics                         # [R OPT] Optics
# | chi                            # [R CHI] Dyson equation for Chi.
# | ElecTemp=0.1723E-4     eV      # Electronic Temperature
# | BoseTemp=0.1723E-4     eV      # Bosonic Temperature
# | FFTGvecs= 1807         RL      # [FFT] Plane-waves
# | X_Threads= 1                   # [OPENMP/X] Number of threads for response functions
# | DIP_Threads= 1                 # [OPENMP/X] Number of threads for dipoles
# | Chimod= "IP"                   # [X] IP/Hartree/ALDA/LRC/BSfxc
# | NGsBlkXd= 1            RL      # [Xd] Response block size
# | % QpntsRXd
# |   1 | 19 |                     # [Xd] Transferred momenta
# | %
# | % BndsRnXd
# |   2 |  7 |                     # [Xd] Polarization function bands
# | %
# | % EnRngeXd
# |  10.00000 | 25.00000 | eV      # [Xd] Energy range
# | %
# | % DmRngeXd
# |   0.10000 |  0.10000 | eV      # [Xd] Damping range
# | %
# | ETStpsXd=  500                 # [Xd] Total Energy steps
# | % LongDrXd
# | 0.1000E-4 | 0.000    | 0.000    |        # [Xd] [cc] Electric Field
# | %
# | % XfnQP_E
# |  5.350000 | 1.000000 | 1.000000 |        # [EXTQP Xd] E parameters  (c/v) eV|adim|adim
# | %
