#                                                           
#  __  __   ________   ___ __ __    _______   ______        
# /_/\/_/\ /_______/\ /__//_//_/\ /_______/\ /_____/\       
# \ \ \ \ \\::: _  \ \\::\| \| \ \\::: _  \ \\:::_ \ \      
#  \:\_\ \ \\::(_)  \ \\:.      \ \\::(_)  \/_\:\ \ \ \     
#   \::::_\/ \:: __  \ \\:.\-/\  \ \\::  _  \ \\:\ \ \ \    
#     \::\ \  \:.\ \  \ \\. \  \  \ \\::(_)  \ \\:\_\ \ \   
#      \__\/   \__\/\__\/ \__\/ \__\/ \_______\/ \_____\/   
#                                                           
#                                                           
#        Version 4.3.0 Revision 15186 Hash adaf3b3          
#                  MPI+SLK+OpenMP Build                     
#                http://www.yambo-code.org                  
#
# Absorption @ Q(10) [iku] :-0.1250000 -0.2500000 -0.3750000
#
#
# BZ Energy DbGd points: 1000
#
# - Energies      are  Analyt. E
# - Wavefunctions are Slater exchange(X)+Perdew & Zunger(C)
#
# - The Green`s function is T-ordered -
#
#    E/ev[1]       EPS-Im[2]     EPS-Re[3]
#
    10.000       0.11306E-3     1.0133   
    10.030       0.11372E-3     1.0133   
    10.060       0.11439E-3     1.0134   
    10.090       0.11506E-3     1.0134   
    10.120       0.11574E-3     1.0134   
    10.150       0.11643E-3     1.0134   
    10.180       0.11713E-3     1.0135   
    10.210       0.11784E-3     1.0135   
    10.240       0.11855E-3     1.0135   
    10.271       0.11927E-3     1.0136   
    10.301       0.12000E-3     1.0136   
    10.331       0.12074E-3     1.0136   
    10.361       0.12149E-3     1.0137   
    10.391       0.12225E-3     1.0137   
    10.421       0.12301E-3     1.0137   
    10.451       0.12379E-3     1.0137   
    10.481       0.12457E-3     1.0138   
    10.511       0.12536E-3     1.0138   
    10.541       0.12616E-3     1.0138   
    10.571       0.12698E-3     1.0139   
    10.601       0.12780E-3     1.0139   
    10.631       0.12863E-3     1.0139   
    10.661       0.12947E-3     1.0140   
    10.691       0.13032E-3     1.0140   
    10.721       0.13118E-3     1.0140   
    10.752       0.13206E-3     1.0141   
    10.782       0.13294E-3     1.0141   
    10.812       0.13383E-3     1.0141   
    10.842       0.13474E-3     1.0142   
    10.872       0.13566E-3     1.0142   
    10.902       0.13658E-3     1.0142   
    10.932       0.13752E-3     1.0143   
    10.962       0.13848E-3     1.0143   
    10.992       0.13944E-3     1.0143   
    11.022       0.14042E-3     1.0144   
    11.052       0.14141E-3     1.0144   
    11.082       0.14241E-3     1.0144   
    11.112       0.14342E-3     1.0145   
    11.142       0.14445E-3     1.0145   
    11.172       0.14549E-3     1.0146   
    11.202       0.14655E-3     1.0146   
    11.232       0.14762E-3     1.0146   
    11.263       0.14870E-3     1.0147   
    11.293       0.14980E-3     1.0147   
    11.323       0.15092E-3     1.0148   
    11.353       0.15205E-3     1.0148   
    11.383       0.15319E-3     1.0148   
    11.413       0.15435E-3     1.0149   
    11.443       0.15553E-3     1.0149   
    11.473       0.15672E-3     1.0150   
    11.503       0.15793E-3     1.0150   
    11.533       0.15915E-3     1.0150   
    11.563       0.16040E-3     1.0151   
    11.593       0.16166E-3     1.0151   
    11.623       0.16294E-3     1.0152   
    11.653       0.16423E-3     1.0152   
    11.683       0.16555E-3     1.0152   
    11.713       0.16689E-3     1.0153   
    11.743       0.16824E-3     1.0153   
    11.774       0.16962E-3     1.0154   
    11.804       0.17101E-3     1.0154   
    11.834       0.17243E-3     1.0155   
    11.864       0.17387E-3     1.0155   
    11.894       0.17533E-3     1.0156   
    11.924       0.17681E-3     1.0156   
    11.954       0.17831E-3     1.0157   
    11.984       0.17984E-3     1.0157   
    12.014       0.18139E-3     1.0158   
    12.044       0.18297E-3     1.0158   
    12.074       0.18457E-3     1.0159   
    12.104       0.18619E-3     1.0159   
    12.134       0.18784E-3     1.0160   
    12.164       0.18952E-3     1.0160   
    12.194       0.19123E-3     1.0161   
    12.224       0.19296E-3     1.0161   
    12.255       0.19472E-3     1.0162   
    12.285       0.19652E-3     1.0162   
    12.315       0.19834E-3     1.0163   
    12.345       0.20019E-3     1.0163   
    12.375       0.20207E-3     1.0164   
    12.405       0.20399E-3     1.0164   
    12.435       0.20594E-3     1.0165   
    12.465       0.20792E-3     1.0165   
    12.495       0.20994E-3     1.0166   
    12.525       0.21199E-3     1.0167   
    12.555       0.21408E-3     1.0167   
    12.585       0.21620E-3     1.0168   
    12.615       0.21837E-3     1.0168   
    12.645       0.22057E-3     1.0169   
    12.675       0.22282E-3     1.0170   
    12.705       0.22511E-3     1.0170   
    12.735       0.22744E-3     1.0171   
    12.766       0.22981E-3     1.0171   
    12.796       0.23223E-3     1.0172   
    12.826       0.23470E-3     1.0173   
    12.856       0.23721E-3     1.0173   
    12.886       0.23978E-3     1.0174   
    12.916       0.24239E-3     1.0175   
    12.946       0.24506E-3     1.0175   
    12.976       0.24778E-3     1.0176   
    13.006       0.25056E-3     1.0177   
    13.036       0.25339E-3     1.0178   
    13.066       0.25629E-3     1.0178   
    13.096       0.25924E-3     1.0179   
    13.126       0.26226E-3     1.0180   
    13.156       0.26535E-3     1.0180   
    13.186       0.26850E-3     1.0181   
    13.216       0.27172E-3     1.0182   
    13.246       0.27502E-3     1.0183   
    13.277       0.27839E-3     1.0183   
    13.307       0.28183E-3     1.0184   
    13.337       0.28536E-3     1.0185   
    13.367       0.28898E-3     1.0186   
    13.397       0.29267E-3     1.0187   
    13.427       0.29646E-3     1.0188   
    13.457       0.30035E-3     1.0188   
    13.487       0.30433E-3     1.0189   
    13.517       0.30841E-3     1.0190   
    13.547       0.31260E-3     1.0191   
    13.577       0.31690E-3     1.0192   
    13.607       0.32131E-3     1.0193   
    13.637       0.32585E-3     1.0194   
    13.667       0.33051E-3     1.0195   
    13.697       0.33530E-3     1.0196   
    13.727       0.34024E-3     1.0197   
    13.758       0.34531E-3     1.0197   
    13.788       0.35055E-3     1.0198   
    13.818       0.35594E-3     1.0199   
    13.848       0.36150E-3     1.0201   
    13.878       0.36725E-3     1.0202   
    13.908       0.37318E-3     1.0203   
    13.938       0.37932E-3     1.0204   
    13.968       0.38567E-3     1.0205   
    13.998       0.39226E-3     1.0206   
    14.028       0.39909E-3     1.0207   
    14.058       0.40619E-3     1.0208   
    14.088       0.41358E-3     1.0209   
    14.118       0.42128E-3     1.0211   
    14.148       0.42932E-3     1.0212   
    14.178       0.43773E-3     1.0213   
    14.208       0.44656E-3     1.0214   
    14.238       0.45585E-3     1.0216   
    14.269       0.46566E-3     1.0217   
    14.299       0.47605E-3     1.0218   
    14.329       0.48714E-3     1.0220   
    14.359       0.49902E-3     1.0221   
    14.389       0.51187E-3     1.0223   
    14.419       0.52591E-3     1.0224   
    14.449       0.54144E-3     1.0226   
    14.479       0.55892E-3     1.0227   
    14.509       0.57898E-3     1.0229   
    14.539       0.60254E-3     1.0230   
    14.569       0.63071E-3     1.0232   
    14.599       0.66421E-3     1.0234   
    14.629       0.70146E-3     1.0235   
    14.659       0.73682E-3     1.0237   
    14.689       0.76453E-3     1.0239   
    14.719       0.78633E-3     1.0241   
    14.749       0.80956E-3     1.0242   
    14.780       0.83933E-3     1.0244   
    14.810       0.87702E-3     1.0246   
    14.840       0.92396E-3     1.0249   
    14.870       0.98026E-3     1.0251   
    14.900       0.10438E-2     1.0253   
    14.930       0.11146E-2     1.0255   
    14.960       0.11925E-2     1.0257   
    14.990       0.12715E-2     1.0259   
    15.020       0.13481E-2     1.0262   
    15.050       0.14307E-2     1.0264   
    15.080       0.15364E-2     1.0267   
    15.110       0.16818E-2     1.0269   
    15.140       0.18700E-2     1.0272   
    15.170       0.20849E-2     1.0274   
    15.200       0.22991E-2     1.0275   
    15.230       0.24772E-2     1.0276   
    15.261       0.25858E-2     1.0277   
    15.291       0.26238E-2     1.0278   
    15.321       0.26249E-2     1.0279   
    15.351       0.26343E-2     1.0281   
    15.381       0.26795E-2     1.0284   
    15.411       0.27498E-2     1.0286   
    15.441       0.28240E-2     1.0288   
    15.471       0.29016E-2     1.0291   
    15.501       0.29914E-2     1.0294   
    15.531       0.30916E-2     1.0296   
    15.561       0.31927E-2     1.0299   
    15.591       0.33035E-2     1.0302   
    15.621       0.34450E-2     1.0306   
    15.651       0.36191E-2     1.0309   
    15.681       0.38192E-2     1.0312   
    15.711       0.40442E-2     1.0315   
    15.741       0.42856E-2     1.0318   
    15.772       0.45267E-2     1.0321   
    15.802       0.47481E-2     1.0323   
    15.832       0.49444E-2     1.0325   
    15.862       0.51314E-2     1.0328   
    15.892       0.53160E-2     1.0331   
    15.922       0.55068E-2     1.0334   
    15.952       0.57256E-2     1.0337   
    15.982       0.59727E-2     1.0340   
    16.012       0.62190E-2     1.0343   
    16.042       0.64315E-2     1.0345   
    16.072       0.65973E-2     1.0348   
    16.102       0.67383E-2     1.0352   
    16.132       0.69042E-2     1.0356   
    16.162       0.71467E-2     1.0361   
    16.192       0.74878E-2     1.0367   
    16.222       0.79239E-2     1.0372   
    16.253       0.84205E-2     1.0376   
    16.283       0.89041E-2     1.0379   
    16.313       0.92979E-2     1.0382   
    16.343       0.95815E-2     1.0386   
    16.373       0.98524E-2     1.0391   
    16.403       0.10288E-1     1.0398   
    16.433       0.10966E-1     1.0405   
    16.463       0.11790E-1     1.0411   
    16.493       0.12649E-1     1.0416   
    16.523       0.13580E-1     1.0421   
    16.553       0.14632E-1     1.0424   
    16.583       0.15738E-1     1.0426   
    16.613226      0.016748      1.042546
    16.643286      0.017561      1.042429
    16.673346      0.018216      1.042413
    16.703405      0.018876      1.042573
    16.733467      0.019688      1.042827
    16.763527      0.020668      1.043031
    16.793587      0.021739      1.043105
    16.823647      0.022817      1.043049
    16.853706      0.023850      1.042917
    16.883768      0.024859      1.042772
    16.913826      0.025901      1.042640
    16.943888      0.027073      1.042494
    16.973946      0.028431      1.042161
    17.004007      0.029794      1.041455
    17.034067      0.030863      1.040453
    17.064127      0.031548      1.039484
    17.094189      0.032120      1.038779
    17.124247      0.032884      1.038155
    17.154308      0.033746      1.037273
    17.184368      0.034353      1.036121
    17.214430      0.034554      1.035013
    17.244488      0.034549      1.034222
    17.274548      0.034636      1.033704
    17.304609      0.034881      1.033244
    17.334669      0.035195      1.032761
    17.364729      0.035557      1.032277
    17.394789      0.036005      1.031741
    17.424849      0.036473      1.031055
    17.454908      0.036823      1.030239
    17.484970      0.037022      1.029405
    17.515030      0.037107      1.028578
    17.545090      0.037021      1.027775
    17.575150      0.036742      1.027144
    17.605209      0.036418      1.026821
    17.635271      0.036284      1.026787
    17.665331      0.036497      1.026826
    17.695391      0.036987      1.026670
    17.725449      0.037515      1.026221
    17.755510      0.037896      1.025571
    17.785570      0.038050      1.024868
    17.815632      0.037993      1.024298
    17.845690      0.037892      1.024002
    17.875750      0.037991      1.023960
    17.905811      0.038476      1.023951
    17.935871      0.039289      1.023646
    17.965933      0.040123      1.022892
    17.995991      0.040708      1.021824
    18.026051      0.040996      1.020655
    18.056110      0.041032      1.019501
    18.086172      0.040894      1.018443
    18.116232      0.040668      1.017445
    18.146292      0.040284      1.016462
    18.176352      0.039676      1.015637
    18.206411      0.038997      1.015140
    18.236473      0.038526      1.014913
    18.266533      0.038354      1.014650
    18.296593      0.038239      1.014125
    18.326653      0.037880      1.013464
    18.356712      0.037269      1.012984
    18.386772      0.036676      1.012806
    18.416834      0.036278      1.012761
    18.446892      0.036012      1.012690
    18.476954      0.035789      1.012618
    18.507013      0.035676      1.012563
    18.537073      0.035673      1.012392
    18.567135      0.035609      1.012080
    18.597193      0.035449      1.011795
    18.627254      0.035355      1.011541
    18.657312      0.035304      1.011129
    18.687374      0.035067      1.010540
    18.717434      0.034500      1.009971
    18.747496      0.033647      1.009687
    18.777555      0.032759      1.009866
    18.807613      0.032166      1.010453
    18.837675      0.032077      1.011150
    18.867735      0.032404      1.011591
    18.897797      0.032814      1.011617
    18.927855      0.033011      1.011390
    18.957914      0.032970      1.011195
    18.987974      0.032889      1.011184
    19.018036      0.032959      1.011249
    19.048096      0.033157      1.011228
    19.078156      0.033397      1.011067
    19.108215      0.033584      1.010747
    19.138275      0.033605      1.010348
    19.168337      0.033489      1.010013
    19.198397      0.033337      1.009751
    19.228456      0.033157      1.009530
    19.258514      0.032948      1.009358
    19.288576      0.032709      1.009249
    19.318636      0.032479      1.009261
    19.348698      0.032396      1.009348
    19.378757      0.032429      1.009307
    19.408815      0.032345      1.009133
    19.438877      0.032078      1.009044
    19.468937      0.031775      1.009181
    19.498999      0.031623      1.009525
    19.529057      0.031731      1.009921
    19.559116      0.032052      1.010200
    19.589176      0.032458      1.010297
    19.619238      0.032830      1.010248
    19.649298      0.033123      1.010164
    19.679358      0.033419      1.010151
    19.709417      0.033877      1.010172
    19.739477      0.034558      1.010055
    19.769539      0.035385      1.009624
    19.799599      0.036173      1.008748
    19.829659      0.036618      1.007440
    19.859718      0.036489      1.005967
    19.889778      0.035822      1.004643
    19.919840      0.034750      1.003634
    19.949900      0.033412      1.003069
    19.979959      0.032012      1.003010
    20.010019      0.030727      1.003421
    20.040079      0.029702      1.004234
    20.070139      0.029069      1.005342
    20.100201      0.028928      1.006572
    20.130259      0.029275      1.007706
    20.160320      0.030019      1.008565
    20.190380      0.030996      1.008998
    20.220440      0.031938      1.008981
    20.250502      0.032652      1.008683
    20.280560      0.033135      1.008302
    20.310621      0.033476      1.007918
    20.340679      0.033693      1.007532
    20.370741      0.033789      1.007220
    20.400801      0.033872      1.007040
    20.430862      0.034066      1.006937
    20.460920      0.034417      1.006763
    20.490980      0.034827      1.006351
    20.521042      0.035034      1.005663
    20.551102      0.034822      1.004980
    20.581163      0.034380      1.004641
    20.611221      0.034045      1.004596
    20.641281      0.033839      1.004621
    20.671341      0.033645      1.004738
    20.701403      0.033574      1.005067
    20.731462      0.033843      1.005495
    20.761522      0.034462      1.005737
    20.791582      0.035217      1.005639
    20.821642      0.035922      1.005246
    20.851704      0.036509      1.004646
    20.881763      0.036961      1.003865
    20.911823      0.037193      1.002900
    20.941881      0.037057      1.001846
    20.971943      0.036498      1.000962
    21.002003      0.035703      1.000499
    21.032064      0.034993      1.000500
    21.062124      0.034624      1.000765
    21.092182      0.034602      1.000979
    21.122244      0.034711      1.001010
    21.152304      0.034829      1.000936
    21.182365      0.034971      1.000786
    21.212423      0.035087      1.000513
    21.242483      0.035053      1.000186
    21.272543      0.034897      0.999991
    21.302605      0.034823      0.999977
    21.332664      0.034964      0.999976
    21.362724      0.035249      0.999801
    21.392784      0.035497      0.999397
    21.422844      0.035563      0.998859
    21.452906      0.035422      0.998326
    21.482965      0.035104      0.997898
    21.513025      0.034677      0.997684
    21.543083      0.034323      0.997728
    21.573145      0.034179      0.997884
    21.603205      0.034198      0.998010
    21.633266      0.034301      0.998096
    21.663326      0.034496      0.998164
    21.693386      0.034799      0.998172
    21.723446      0.035189      0.998089
    21.753506      0.035649      0.997879
    21.783567      0.036135      0.997511
    21.813625      0.036590      0.996967
    21.843687      0.036922      0.996270
    21.873745      0.037092      0.995528
    21.903807      0.037172      0.994821
    21.933867      0.037251      0.994122
    21.963928      0.037366      0.993338
    21.993988      0.037440      0.992334
    22.024046      0.037247      0.991098
    22.054108      0.036624      0.989834
    22.084167      0.035616      0.988796
    22.114229      0.034398      0.988128
    22.144287      0.033174      0.987849
    22.174347      0.032109      0.987843
    22.204407      0.031191      0.987944
    22.234468      0.030326      0.988156
    22.264528      0.029575      0.988554
    22.294588      0.029051      0.989059
    22.324648      0.028721      0.989561
    22.354708      0.028566      0.990067
    22.384769      0.028650      0.990505
    22.414829      0.028912      0.990731
    22.444889      0.029211      0.990708
    22.474949      0.029463      0.990478
    22.505009      0.029618      0.990052
    22.535070      0.029570      0.989448
    22.565130      0.029202      0.988805
    22.595190      0.028561      0.988332
    22.625248      0.027809      0.988113
    22.655310      0.027090      0.988130
    22.685369      0.026484      0.988269
    22.715431      0.025934      0.988460
    22.745489      0.025434      0.988754
    22.775549      0.025076      0.989124
    22.805611      0.024866      0.989447
    22.835670      0.024687      0.989655
    22.865732      0.024417      0.989827
    22.895790      0.024084      0.990117
    22.925850      0.023846      0.990561
    22.955910      0.023801      0.991054
    22.985971      0.023960      0.991473
    23.016031      0.024252      0.991674
    23.046091      0.024448      0.991610
    23.076151      0.024383      0.991510
    23.106211      0.024224      0.991609
    23.136272      0.024219      0.991816
    23.166332      0.024351      0.991897
    23.196392      0.024414      0.991796
    23.226452      0.024275      0.991656
    23.256512      0.023972      0.991663
    23.286572      0.023682      0.991906
    23.316633      0.023585      0.992279
    23.346691      0.023682      0.992597
    23.376753      0.023854      0.992770
    23.406813      0.023981      0.992819
    23.436872      0.024001      0.992851
    23.466934      0.023996      0.992961
    23.496992      0.024069      0.993082
    23.527054      0.024158      0.993103
    23.557112      0.024132      0.993050
    23.587173      0.023932      0.993054
    23.617       0.23614E-1    0.99328   
    23.647       0.23382E-1    0.99381   
    23.677       0.23473E-1    0.99453   
    23.707413      0.023920      0.995155
    23.737474      0.024552      0.995531
    23.767534      0.025184      0.995660
    23.797596      0.025711      0.995649
    23.827652      0.026131      0.995636
    23.857714      0.026574      0.995701
    23.887774      0.027179      0.995728
    23.917835      0.027862      0.995527
    23.947895      0.028413      0.995107
    23.977953      0.028752      0.994636
    24.008015      0.028938      0.994244
    24.038074      0.029089      0.993976
    24.068136      0.029299      0.993785
    24.098196      0.029594      0.993597
    24.128254      0.029977      0.993340
    24.158314      0.030372      0.992918
    24.188375      0.030617      0.992370
    24.218435      0.030691      0.991864
    24.248497      0.030712      0.991471
    24.278557      0.030765      0.991137
    24.308615      0.030822      0.990791
    24.338676      0.030825      0.990492
    24.368736      0.030876      0.990315
    24.398798      0.031105      0.990157
    24.428858      0.031474      0.989831
    24.458916      0.031780      0.989271
    24.488976      0.031866      0.988643
    24.519037      0.031833      0.988141
    24.549097      0.031852      0.987729
    24.579159      0.031945      0.987294
    24.609217      0.032082      0.986779
    24.639277      0.032206      0.986114
    24.669338      0.032177      0.985299
    24.699398      0.031902      0.984458
    24.729460      0.031402      0.983736
    24.759518      0.030767      0.983232
    24.789577      0.030125      0.982981
    24.819639      0.029607      0.982945
    24.849699      0.029288      0.983013
    24.879759      0.029175      0.983083
    24.909817      0.029249      0.983050
    24.939878      0.029410      0.982815
    24.969938      0.029512      0.982397
    25.000000      0.029510      0.981892
# 
# 01/08/2018 at 17:17 YAMBO @ polluce [start]
# 01/08/2018 at 17:18                 [end]
#  
# Timing   [Min/Max/Average]: 01m-29s/01m-29s/01m-29s
#
# .-Input file : yambo.in
# | optics                         # [R OPT] Optics
# | chi                            # [R CHI] Dyson equation for Chi.
# | ElecTemp=0.1723E-4     eV      # Electronic Temperature
# | BoseTemp=0.1723E-4     eV      # Bosonic Temperature
# | FFTGvecs= 1807         RL      # [FFT] Plane-waves
# | X_Threads= 1                   # [OPENMP/X] Number of threads for response functions
# | DIP_Threads= 1                 # [OPENMP/X] Number of threads for dipoles
# | Chimod= "IP"                   # [X] IP/Hartree/ALDA/LRC/BSfxc
# | NGsBlkXd= 1            RL      # [Xd] Response block size
# | % QpntsRXd
# |   1 | 19 |                     # [Xd] Transferred momenta
# | %
# | % BndsRnXd
# |   2 |  7 |                     # [Xd] Polarization function bands
# | %
# | % EnRngeXd
# |  10.00000 | 25.00000 | eV      # [Xd] Energy range
# | %
# | % DmRngeXd
# |   0.10000 |  0.10000 | eV      # [Xd] Damping range
# | %
# | ETStpsXd=  500                 # [Xd] Total Energy steps
# | % LongDrXd
# | 0.1000E-4 | 0.000    | 0.000    |        # [Xd] [cc] Electric Field
# | %
# | % XfnQP_E
# |  5.350000 | 1.000000 | 1.000000 |        # [EXTQP Xd] E parameters  (c/v) eV|adim|adim
# | %
