#                                                                     
#  **    **    **     ****     ****  ******     *******               
# //**  **    ****   /**/**   **/** /*////**   **/////**              
#  //****    **//**  /**//** ** /** /*   /**  **     //**             
#   //**    **  //** /** //***  /** /******  /**      /**             
#    /**   **********/**  //*   /** /*//// **/**      /**             
#    /**  /**//////**/**   /    /** /*    /**//**     **              
#    /**  /**     /**/**        /** /*******  //*******               
#    //   //      // //         //  ///////    ///////                
#                                                                     
#       Version 4.5.0 Revision 17636 Hash 18ab817f6                   
#                   Branch is devel-sc                                
#                   MPI+HDF5_LIB Build                                
#                http://www.yambo-code.org                            
#
# Absorption @ Q(1) [q->0 direction] :0.1000E-4  0.000     0.000   
#
#
# - Energies      are  E < 03_gw/ndb.QP + E Fit
# - Wavefunctions are Teter 93(XC)
#
# - The Green`s function is Retarded -
# - Using the Length Gauge -
# - [r,Vnl] *is* included -
#
#   BSK|Identifier              :5917
#      |Dimension               :96
#      |Bands                   :1 - 7
#      |Exchange           [res]: yes
#      |Correlation        [res]: yes
#      |Kernel`s coupling       : no
#      |Exchange           [cpl]: no
#      |Correlation        [cpl]: no
#      |W interaction is bare   : no
#      |ALDA kernel in R-space  : no
#      |RL vectors    [exchange]:363
#      |RL vectors [correlation]:1
#      |E/h energy range    [ev]:-1.000000 - -1.000000
#      |Coupling range     [o/o]: 100.0000 -  100.0000
#    W |Interaction is diagonal : no
#      |Matrix size             :1
#      |Bands                   :1 - 7
#      |e/h energy range    [ev]:-1.000000 - -1.000000
#      |Poles              [o/o]: 100.0000
#      |RL vectors in the sum   :363
#      |[r,Vnl] included        : yes
#      |Field direction         :0.1000E-4  0.000000  0.000000
#      |Coulomb Cutoff          :none
#      |xc-Kernel               :none
#   RIM|RL components      [col]:0
#      |Random points      [col]:0
#   SOC|Perturbative SOC        : no
#      |Bands in the MAP db     :0
#
#    E/ev[1]      EPS-Im[2]    EPS-Re[3]    EPSo-Im[4]   EPSo-Re[5]
#
     0.00000      0.00000     36.17683      0.00000     35.50536
   0.1001E-1    0.3699E-2     36.18       0.3434E-2     35.51   
   0.2002E-1    0.7397E-2     36.18       0.6868E-2     35.51   
   0.3003E-1    0.1110E-1     36.18       0.1030E-1     35.51   
   0.4004E-1    0.1480E-1     36.18       0.1374E-1     35.51   
   0.5005E-1    0.1850E-1     36.18       0.1717E-1     35.51   
   0.6006E-1    0.2220E-1     36.18       0.2061E-1     35.51   
   0.7007E-1    0.2590E-1     36.19       0.2405E-1     35.51   
   0.8008E-1    0.2961E-1     36.19       0.2749E-1     35.52   
   0.9009E-1    0.3332E-1     36.19       0.3093E-1     35.52   
   0.1001       0.3703E-1     36.20       0.3438E-1     35.52   
     0.11011      0.04074     36.19921      0.03782     35.52612
     0.12012      0.04445     36.20346      0.04127     35.53008
     0.13013      0.04817     36.20807      0.04472     35.53437
     0.14014      0.05189     36.21306      0.04817     35.53902
     0.15015      0.05562     36.21844      0.05163     35.54400
     0.16016      0.05934     36.22417      0.05509     35.54933
     0.17017      0.06308     36.23027      0.05856     35.55502
     0.18018      0.06681     36.23677      0.06202     35.56104
     0.19019      0.07055     36.24363      0.06549     35.56739
     0.20020      0.07430     36.25086      0.06897     35.57412
     0.21021      0.07805     36.25846      0.07245     35.58118
     0.22022      0.08181     36.26645      0.07593     35.58857
     0.23023      0.08557     36.27480      0.07942     35.59635
     0.24024      0.08933     36.28355      0.08292     35.60446
     0.25025      0.09311     36.29266      0.08642     35.61292
     0.26026      0.09689     36.30215      0.08992     35.62172
     0.27027      0.10067     36.31201      0.09343     35.63087
     0.28028      0.10446     36.32226      0.09695     35.64038
     0.29029      0.10826     36.33289      0.10047     35.65024
     0.30030      0.11207     36.34388      0.10400     35.66045
     0.31031      0.11589     36.35527      0.10754     35.67101
     0.32032      0.11971     36.36705      0.11108     35.68193
     0.33033      0.12354     36.37920      0.11463     35.69321
     0.34034      0.12738     36.39172      0.11819     35.70483
     0.35035      0.13123     36.40464      0.12175     35.71682
     0.36036      0.13508     36.41794      0.12532     35.72916
     0.37037      0.13895     36.43161      0.12890     35.74186
     0.38038      0.14282     36.44569      0.13249     35.75491
     0.39039      0.14671     36.46015      0.13609     35.76832
     0.40040      0.15060     36.47500      0.13970     35.78209
     0.41041      0.15451     36.49023      0.14331     35.79623
     0.42042      0.15842     36.50584      0.14694     35.81072
     0.43043      0.16235     36.52187      0.15057     35.82559
     0.44044      0.16629     36.53829      0.15422     35.84081
     0.45045      0.17024     36.55508      0.15787     35.85640
     0.46046      0.17420     36.57228      0.16153     35.87235
     0.47047      0.17817     36.58988      0.16521     35.88866
     0.48048      0.18216     36.60786      0.16889     35.90533
     0.49049      0.18616     36.62624      0.17259     35.92241
     0.50050      0.19017     36.64504      0.17630     35.93982
     0.51051      0.19419     36.66424      0.18002     35.95761
     0.52052      0.19823     36.68383      0.18375     35.97578
     0.53053      0.20228     36.70385      0.18750     35.99433
     0.54054      0.20635     36.72424      0.19125     36.01324
     0.55055      0.21043     36.74506      0.19502     36.03253
     0.56056      0.21453     36.76628      0.19880     36.05219
     0.57057      0.21864     36.78790      0.20260     36.07223
     0.58058      0.22276     36.80995      0.20640     36.09267
     0.59059      0.22690     36.83239      0.21023     36.11348
     0.60060      0.23106     36.85526      0.21406     36.13465
     0.61061      0.23524     36.87855      0.21791     36.15622
     0.62062      0.23943     36.90223      0.22178     36.17819
     0.63063      0.24363     36.92637      0.22566     36.20054
     0.64064      0.24786     36.95089      0.22955     36.22327
     0.65065      0.25210     36.97585      0.23346     36.24639
     0.66066      0.25636     37.00125      0.23739     36.26990
     0.67067      0.26064     37.02705      0.24133     36.29380
     0.68068      0.26494     37.05331      0.24529     36.31811
     0.69069      0.26926     37.07998      0.24927     36.34280
     0.70070      0.27360     37.10707      0.25326     36.36790
     0.71071      0.27795     37.13461      0.25727     36.39340
     0.72072      0.28233     37.16257      0.26130     36.41929
     0.73073      0.28673     37.19099      0.26534     36.44559
     0.74074      0.29115     37.21983      0.26941     36.47228
     0.75075      0.29559     37.24915      0.27349     36.49940
     0.76076      0.30005     37.27890      0.27759     36.52691
     0.77077      0.30453     37.30907      0.28171     36.55485
     0.78078      0.30904     37.33970      0.28585     36.58319
     0.79079      0.31357     37.37082      0.29001     36.61194
     0.80080      0.31812     37.40234      0.29419     36.64111
     0.81081      0.32270     37.43433      0.29840     36.67070
     0.82082      0.32730     37.46677      0.30262     36.70071
     0.83083      0.33192     37.49969      0.30686     36.73114
     0.84084      0.33657     37.53307      0.31113     36.76200
     0.85085      0.34125     37.56690      0.31541     36.79328
     0.86086      0.34595     37.60122      0.31972     36.82500
     0.87087      0.35068     37.63599      0.32406     36.85714
     0.88088      0.35543     37.67123      0.32841     36.88971
     0.89089      0.36022     37.70698      0.33279     36.92273
     0.90090      0.36502     37.74317      0.33720     36.95619
     0.91091      0.36986     37.77987      0.34162     36.99009
     0.92092      0.37473     37.81704      0.34608     37.02441
     0.93093      0.37962     37.85469      0.35055     37.05920
     0.94094      0.38455     37.89284      0.35506     37.09443
     0.95095      0.38950     37.93149      0.35959     37.13012
     0.96096      0.39449     37.97062      0.36414     37.16623
     0.97097      0.39950     38.01024      0.36873     37.20282
     0.98098      0.40455     38.05039      0.37334     37.23988
     0.99099      0.40963     38.09103      0.37797     37.27739
     1.00100      0.41474     38.13219      0.38264     37.31535
     1.01101      0.41989     38.17386      0.38733     37.35379
     1.02102      0.42506     38.21602      0.39206     37.39271
     1.03103      0.43028     38.25871      0.39681     37.43209
     1.04104      0.43552     38.30192      0.40159     37.47196
     1.05105      0.44081     38.34568      0.40640     37.51229
     1.06106      0.44612     38.38994      0.41125     37.55310
     1.07107      0.45148     38.43474      0.41612     37.59442
     1.08108      0.45687     38.48009      0.42103     37.63620
     1.09109      0.46230     38.52598      0.42597     37.67848
     1.10110      0.46776     38.57238      0.43094     37.72127
     1.11111      0.47327     38.61934      0.43595     37.76454
     1.12112      0.47881     38.66688      0.44099     37.80833
     1.13113      0.48440     38.71495      0.44606     37.85260
     1.14114      0.49002     38.76361      0.45117     37.89740
     1.15115      0.49569     38.81279      0.45632     37.94269
     1.16116      0.50140     38.86253      0.46150     37.98851
     1.17117      0.50715     38.91288      0.46671     38.03484
     1.18118      0.51294     38.96378      0.47197     38.08170
     1.19119      0.51878     39.01527      0.47726     38.12907
     1.20120      0.52466     39.06734      0.48259     38.17700
     1.21121      0.53059     39.12000      0.48796     38.22544
     1.22122      0.53656     39.17327      0.49337     38.27440
     1.23123      0.54258     39.22712      0.49882     38.32394
     1.24124      0.54865     39.28157      0.50431     38.37401
     1.25125      0.55477     39.33664      0.50984     38.42463
     1.26126      0.56093     39.39231      0.51541     38.47580
     1.27127      0.56714     39.44860      0.52102     38.52753
     1.28128      0.57341     39.50550      0.52668     38.57983
     1.29129      0.57973     39.56306      0.53239     38.63268
     1.30130      0.58609     39.62122      0.53813     38.68612
     1.31131      0.59251     39.68003      0.54393     38.74011
     1.32132      0.59899     39.73949      0.54976     38.79470
     1.33133      0.60552     39.79958      0.55565     38.84985
     1.34134      0.61210     39.86037      0.56158     38.90563
     1.35135      0.61874     39.92177      0.56756     38.96198
     1.36136      0.62544     39.98384      0.57359     39.01893
     1.37137      0.63220     40.04660      0.57967     39.07648
     1.38138      0.63902     40.11001      0.58580     39.13464
     1.39139      0.64589     40.17414      0.59199     39.19342
     1.40140      0.65283     40.23895      0.59822     39.25282
     1.41141      0.65983     40.30442      0.60451     39.31283
     1.42142      0.66689     40.37059      0.61085     39.37348
     1.43143      0.67402     40.43748      0.61724     39.43476
     1.44144      0.68121     40.50510      0.62369     39.49669
     1.45145      0.68846     40.57343      0.63020     39.55924
     1.46146      0.69579     40.64250      0.63676     39.62248
     1.47147      0.70318     40.71227      0.64338     39.68635
     1.48148      0.71064     40.78283      0.65006     39.75089
     1.49149      0.71817     40.85410      0.65680     39.81609
     1.50150      0.72578     40.92611      0.66360     39.88197
     1.51151      0.73345     40.99892      0.67047     39.94853
     1.52152      0.74120     41.07245      0.67739     40.01578
     1.53153      0.74903     41.14680      0.68438     40.08372
     1.54154      0.75693     41.22191      0.69143     40.15236
     1.55155      0.76491     41.29783      0.69855     40.22172
     1.56156      0.77297     41.37452      0.70574     40.29177
     1.57157      0.78111     41.45202      0.71300     40.36255
     1.58158      0.78933     41.53035      0.72032     40.43406
     1.59159      0.79763     41.60952      0.72771     40.50630
     1.60160      0.80602     41.68948      0.73518     40.57928
     1.61161      0.81449     41.77030      0.74272     40.65299
     1.62162      0.82306     41.85195      0.75033     40.72749
     1.63163      0.83171     41.93447      0.75801     40.80272
     1.64164      0.84044     42.01786      0.76578     40.87873
     1.65165      0.84928     42.10215      0.77361     40.95551
     1.66166      0.85820     42.18729      0.78153     41.03308
     1.67167      0.86722     42.27333      0.78953     41.11145
     1.68168      0.87634     42.36028      0.79761     41.19061
     1.69169      0.88555     42.44809      0.80577     41.27058
     1.70170      0.89486     42.53689      0.81402     41.35135
     1.71171      0.90428     42.62658      0.82235     41.43296
     1.72172      0.91380     42.71724      0.83076     41.51542
     1.73173      0.92342     42.80883      0.83927     41.59870
     1.74174      0.93315     42.90141      0.84786     41.68284
     1.75175      0.94299     42.99492      0.85655     41.76784
     1.76176      0.95294     43.08945      0.86533     41.85371
     1.77177      0.96300     43.18494      0.87420     41.94045
     1.78178      0.97317     43.28147      0.88317     42.02810
     1.79179      0.98347     43.37901      0.89223     42.11661
     1.80180      0.99388     43.47758      0.90140     42.20607
     1.81181      1.00441     43.57718      0.91066     42.29640
     1.82182      1.01507     43.67786      0.92003     42.38768
     1.83183      1.02585     43.77958      0.92951     42.47991
     1.84184      1.03676     43.88238      0.93909     42.57307
     1.85185      1.04779     43.98625      0.94877     42.66719
     1.86186      1.05896     44.09126      0.95857     42.76228
     1.87187      1.07027     44.19737      0.96848     42.85837
     1.88188      1.08171     44.30460      0.97850     42.95543
     1.89189      1.09329     44.41300      0.98864     43.05348
     1.90190      1.10501     44.52254      0.99889     43.15256
     1.91191      1.11688     44.63328      1.00927     43.25266
     1.92192      1.12889     44.74518      1.01977     43.35382
     1.93193      1.14105     44.85828      1.03039     43.45600
     1.94194      1.15337     44.97259      1.04114     43.55925
     1.95195      1.16584     45.08813      1.05202     43.66359
     1.96196      1.17847     45.20493      1.06302     43.76900
     1.97197      1.19126     45.32299      1.07417     43.87550
     1.98198      1.20422     45.44233      1.08544     43.98314
     1.99199      1.21735     45.56299      1.09686     44.09189
     2.00200      1.23064     45.68493      1.10842     44.20181
     2.01201      1.24411     45.80820      1.12012     44.31284
     2.02202      1.25776     45.93283      1.13197     44.42507
     2.03203      1.27159     46.05880      1.14396     44.53847
     2.04204      1.28560     46.18616      1.15611     44.65307
     2.05205      1.29980     46.31492      1.16841     44.76891
     2.06206      1.31420     46.44511      1.18087     44.88595
     2.07207      1.32879     46.57673      1.19349     45.00425
     2.08208      1.34358     46.70980      1.20628     45.12379
     2.09209      1.35857     46.84435      1.21923     45.24464
     2.10210      1.37377     46.98041      1.23235     45.36676
     2.11211      1.38918     47.11798      1.24565     45.49020
     2.12212      1.40481     47.25708      1.25912     45.61496
     2.13213      1.42066     47.39776      1.27277     45.74108
     2.14214      1.43674     47.54001      1.28660     45.86856
     2.15215      1.45304     47.68384      1.30063     45.99742
     2.16216      1.46958     47.82933      1.31484     46.12766
     2.17217      1.48636     47.97647      1.32925     46.25935
     2.18218      1.50339     48.12527      1.34385     46.39247
     2.19219      1.52066     48.27579      1.35866     46.52704
     2.20220      1.53819     48.42802      1.37368     46.66310
     2.21221      1.55598     48.58199      1.38891     46.80063
     2.22222      1.57403     48.73775      1.40435     46.93972
     2.23223      1.59236     48.89531      1.42001     47.08033
     2.24224      1.61096     49.05472      1.43590     47.22250
     2.25225      1.62985     49.21595      1.45201     47.36628
     2.26226      1.64902     49.37908      1.46836     47.51167
     2.27227      1.66850     49.54411      1.48495     47.65866
     2.28228      1.68827     49.71111      1.50178     47.80732
     2.29229      1.70835     49.88005      1.51886     47.95765
     2.30230      1.72875     50.05099      1.53619     48.10971
     2.31231      1.74948     50.22400      1.55378     48.26348
     2.32232      1.77053     50.39907      1.57164     48.41902
     2.33233      1.79192     50.57621      1.58977     48.57633
     2.34234      1.81366     50.75550      1.60817     48.73546
     2.35235      1.83574     50.93695      1.62686     48.89640
     2.36236      1.85820     51.12061      1.64584     49.05923
     2.37237      1.88102     51.30650      1.66511     49.22393
     2.38238      1.90422     51.49467      1.68468     49.39058
     2.39239      1.92780     51.68513      1.70456     49.55916
     2.40240      1.95178     51.87795      1.72476     49.72973
     2.41241      1.97617     52.07322      1.74528     49.90231
     2.42242      2.00098     52.27085      1.76612     50.07693
     2.43243      2.02621     52.47097      1.78731     50.25363
     2.44244      2.05187     52.67356      1.80884     50.43245
     2.45245      2.07798     52.87876      1.83073     50.61344
     2.46246      2.10455     53.08656      1.85297     50.79657
     2.47247      2.13159     53.29700      1.87559     50.98194
     2.48248      2.15911     53.51011      1.89858     51.16954
     2.49249      2.18712     53.72598      1.92196     51.35944
     2.50250      2.21563     53.94461      1.94574     51.55167
     2.51251      2.24466     54.16607      1.96992     51.74627
     2.52252      2.27422     54.39046      1.99453     51.94328
     2.53253      2.30433     54.61776      2.01955     52.14274
     2.54254      2.33499     54.84808      2.04501     52.34468
     2.55255      2.36622     55.08141      2.07092     52.54917
     2.56256      2.39804     55.31786      2.09729     52.75624
     2.57257      2.43047     55.55750      2.12413     52.96591
     2.58258      2.46351     55.80033      2.15145     53.17828
     2.59259      2.49718     56.04644      2.17926     53.39336
     2.60260      2.53151     56.29592      2.20758     53.61119
     2.61261      2.56651     56.54878      2.23642     53.83187
     2.62262      2.60220     56.80515      2.26579     54.05540
     2.63263      2.63859     57.06505      2.29571     54.28183
     2.64264      2.67571     57.32856      2.32619     54.51123
     2.65265      2.71357     57.59576      2.35724     54.74368
     2.66266      2.75220     57.86668      2.38889     54.97923
     2.67267      2.79162     58.14145      2.42114     55.21790
     2.68268      2.83185     58.42015      2.45401     55.45980
     2.69269      2.87291     58.70285      2.48752     55.70494
     2.70270      2.91483     58.98958      2.52169     55.95341
     2.71271      2.95763     59.28052      2.55653     56.20527
     2.72272      3.00134     59.57567      2.59207     56.46059
     2.73273      3.04599     59.87515      2.62832     56.71946
     2.74274      3.09160     60.17901      2.66530     56.98190
     2.75275      3.13820     60.48746      2.70304     57.24801
     2.76276      3.18582     60.80049      2.74155     57.51787
     2.77277      3.23450     61.11820      2.78086     57.79155
     2.78278      3.28426     61.44077      2.82099     58.06913
     2.79279      3.33514     61.76826      2.86196     58.35069
     2.80280      3.38717     62.10074      2.90381     58.63632
     2.81281      3.44039     62.43839      2.94654     58.92606
     2.82282      3.49484     62.78130      2.99020     59.22005
     2.83283      3.55055     63.12961      3.03481     59.51837
     2.84284      3.60757     63.48337      3.08039     59.82108
     2.85285      3.66594     63.84282      3.12698     60.12832
     2.86286      3.72570     64.20802      3.17461     60.44016
     2.87287      3.78690     64.57910      3.22332     60.75672
     2.88288      3.84959     64.95622      3.27312     61.07810
     2.89289      3.91382     65.33949      3.32407     61.40439
     2.90290      3.97963     65.72914      3.37619     61.73574
     2.91291      4.04709     66.12519      3.42952     62.07221
     2.92292      4.11624     66.52796      3.48411     62.41394
     2.93293      4.18716     66.93752      3.53999     62.76106
     2.94294      4.25990     67.35401      3.59720     63.11371
     2.95295      4.33452     67.77773      3.65580     63.47198
     2.96296      4.41110     68.20874      3.71582     63.83604
     2.97297      4.48970     68.64727      3.77732     64.20604
     2.98298      4.57039     69.09352      3.84034     64.58207
     2.99299      4.65326     69.54771      3.90494     64.96431
     3.00300      4.73839     70.00996      3.97118     65.35293
     3.01301      4.82586     70.48061      4.03910     65.74801
     3.02302      4.91575     70.95979      4.10878     66.14980
     3.03303      5.00816     71.44781      4.18027     66.55845
     3.04304      5.10320     71.94489      4.25364     66.97411
     3.05305      5.20096     72.45120      4.32895     67.39698
     3.06306      5.30154     72.96712      4.40628     67.82722
     3.07307      5.40507     73.49279      4.48571     68.26507
     3.08308      5.51166     74.02863      4.56731     68.71070
     3.09309      5.62143     74.57484      4.65117     69.16431
     3.10310      5.73452     75.13177      4.73736     69.62614
     3.11311      5.85106     75.69965      4.82599     70.09639
     3.12312      5.97121     76.27889      4.91715     70.57532
     3.13313      6.09511     76.86982      5.01093     71.06313
     3.14314      6.22292     77.47278      5.10745     71.56017
     3.15315      6.35482     78.08813      5.20682     72.06656
     3.16316      6.49099     78.71624      5.30914     72.58266
     3.17317      6.63161     79.35760      5.41454     73.10870
     3.18318      6.77689     80.01250      5.52316     73.64503
     3.19319      6.92705     80.68146      5.63513     74.19193
     3.20320      7.08229     81.36494      5.75059     74.74969
     3.21321      7.24287     82.06332      5.86968     75.31866
     3.22322      7.40904     82.77717      5.99259     75.89919
     3.23323      7.58107     83.50702      6.11945     76.49161
     3.24324      7.75922     84.25339      6.25047     77.09634
     3.25325      7.94383     85.01680      6.38583     77.71370
     3.26326      8.13520     85.79793      6.52571     78.34418
     3.27327      8.33366     86.59734      6.67035     78.98811
     3.28328      8.53961     87.41567      6.81995     79.64602
     3.29329      8.75340     88.25369      6.97476     80.31824
     3.30330      8.97546     89.11198      7.13503     81.00543
     3.31331      9.20623     89.99134      7.30103     81.70795
     3.32332      9.44619     90.89261      7.47304     82.42640
     3.33333      9.69584     91.81657      7.65136     83.16128
     3.34334      9.95570     92.76408      7.83631     83.91319
     3.35335     10.22637     93.73611      8.02825     84.68275
     3.36336     10.50846     94.73350      8.22752     85.47060
     3.37337     10.80265     95.75739      8.43453     86.27740
     3.38338     11.10963     96.80869      8.64968     87.10379
     3.39339     11.43019     97.88864      8.87344     87.95052
     3.40340     11.76516     98.99841      9.10627     88.81849
      3.4134      12.1154     100.1391       9.3487      89.7083
      3.4234      12.4819     101.3122       9.6012      90.6209
      3.4334      12.8657     102.5191       9.8645      91.5572
      3.4434      13.2680     103.7612      10.1391      92.5182
      3.4535      13.6898     105.0399      10.4258      93.5047
      3.4635      14.1327     106.3571      10.7252      94.5179
      3.4735      14.5980     107.7142      11.0382      95.5589
      3.4835      15.0872     109.1135      11.3656      96.6288
      3.4935      15.6021     110.5565      11.7084      97.7288
      3.5035      16.1446     112.0456      12.0675      98.8603
      3.5135      16.7166     113.5827      12.4440     100.0245
      3.5235      17.3204     115.1703      12.8391     101.2231
      3.5335      17.9584     116.8107      13.2541     102.4573
      3.5435      18.6334     118.5067      13.6903     103.7291
      3.5536      19.3481     120.2609      14.1494     105.0399
      3.5636      20.1060     122.0764      14.6329     106.3917
      3.5736      20.9105     123.9560      15.1426     107.7863
      3.5836      21.7656     125.9035      15.6805     109.2259
      3.5936      22.6757     127.9221      16.2489     110.7125
      3.6036      23.6457     130.0155      16.8501     112.2484
      3.6136      24.6809     132.1878      17.4867     113.8362
      3.6236      25.7874     134.4431      18.1616     115.4784
      3.6336      26.9719     136.7858      18.8781     117.1777
      3.6436      28.2419     139.2206      19.6396     118.9369
      3.6537      29.6059     141.7524      20.4502     120.7592
      3.6637      31.0733     144.3864      21.3142     122.6480
      3.6737      32.6550     147.1277      22.2365     124.6065
      3.6837      34.3628     149.9821      23.2225     126.6383
      3.6937      36.2106     152.9553      24.2784     128.7474
      3.7037      38.2139     156.0531      25.4109     130.9377
      3.7137      40.3902     159.2812      26.6278     133.2134
      3.7237      42.7597     162.6451      27.9377     135.5787
      3.7337      45.3455     166.1506      29.3504     138.0383
      3.7437      48.1737     169.8023      30.8769     140.5967
      3.7538      51.2746     173.6042      32.5299     143.2583
      3.7638      54.6825     177.5585      34.3235     146.0279
      3.7738      58.4376     181.6663      36.2741     148.9098
      3.7838      62.5854     185.9250      38.4003     151.9080
      3.7938      67.1786     190.3284      40.7232     155.0260
      3.8038      72.2772     194.8643      43.2672     158.2662
      3.8138      77.9509     199.5139      46.0602     161.6299
      3.8238      84.2782     204.2467      49.1342     165.1163
      3.8338      91.3482     209.0190      52.5258     168.7221
      3.8438      99.2603     213.7677      56.2768     172.4395
      3.8539     108.1246     218.4054      60.4353     176.2564
      3.8639     118.0576     222.8113      65.0554     180.1528
      3.8739     129.1783     226.8223      70.1979     184.0990
      3.8839     141.6010     230.2225      75.9309     188.0527
      3.8939     155.4174     232.7305      82.3275     191.9543
      3.9039     170.6752     233.9893      89.4651     195.7216
      3.9139     187.3441     233.5624      97.4202     199.2439
      3.9239     205.2721     230.9389     106.2633     202.3755
      3.9339     224.1284     225.5644     116.0454     204.9279
      3.9439     243.3512     216.9001     126.7823     206.6664
      3.9540     262.1137     204.5281     138.4306     207.3101
      3.9640     279.3421     188.2851     150.8590     206.5423
      3.9740     293.8104     168.4132     163.8144     204.0386
      3.9840     304.3327     145.6549     176.8960     199.5162
      3.9940     310.0147     121.2392     189.5514     192.8078
      4.0040     310.4835      96.7135     201.1144     183.9469
      4.0140     305.9958      73.6693     210.8943     173.2428
      4.0240     297.3757      53.4432     218.3148     161.3005
      4.0340     285.8116      36.9150     223.0636     148.9592
      4.0440     272.6000      24.4489     225.1906     137.1464
      4.0541     258.9361      15.9689     225.1137     126.6993
      4.0641     245.7901      11.0940     223.5273     118.2130
      4.0741     233.8724       9.2813     221.2583     111.9677
      4.0841     223.6564       9.9363     219.1244     107.9387
      4.0941     215.4329      12.4824     217.8388     105.8615
      4.1041     209.3635      16.3922     217.9659     105.3092
      4.1141     205.5286      21.1939     219.9176     105.7578
      4.1241     203.9628      26.4608     223.9665     106.6255
      4.1341     204.6750      31.7928     230.2606     107.2898
      4.1441     207.6570      36.7937     238.8242     107.0899
      4.1542     212.8793      41.0497     249.5439     105.3257
      4.1642     220.2740      44.1077     262.1312     101.2679
      4.1742     229.7049      45.4632     276.0760      94.1931
      4.1842     240.9237      44.5608     290.5988      83.4577
      4.1942     253.5193      40.8167     304.6352      68.6152
      4.2042     266.8619      33.6749     316.8790      49.5696
      4.2142     280.0702      22.7039     325.9244      26.7184
      4.2242     292.0260       7.7297     330.5008       1.0212
      4.2342     301.4694     -11.0261     329.7463     -26.0765
      4.2442     307.1793     -32.8482     323.4212     -52.8665
      4.2543     308.2188     -56.5437     311.9637     -77.7055
      4.2643     304.1587     -80.6001     296.3615     -99.3087
      4.2743     295.1833    -103.4587     277.8961    -116.9216
      4.2843     282.0334    -123.7984     257.8792    -130.3215
      4.2943     265.8092    -140.7387     237.4493    -139.7099
      4.3043     247.7227    -153.8972     217.4751    -145.5540
      4.3143     228.8855    -163.3247     198.5391    -148.4402
      4.3243     210.1892    -169.3674     180.9813    -148.9654
      4.3343     192.2639    -172.5284     164.9546    -147.6759
      4.3443     175.5011    -173.3544     150.4841    -145.0375
      4.3544     160.0989    -172.3641     137.5121    -141.4288
      4.3644     146.1208    -170.0108     125.9376    -137.1483
      4.3744     133.5406    -166.6695     115.6382    -132.4249
      4.3844     122.2779    -162.6388     106.4842    -127.4305
      4.3944     112.2266    -158.1500      98.3510    -122.2926
      4.4044     103.2702    -153.3785      91.1218    -117.1037
      4.4144      95.2927    -148.4550      84.6907    -111.9299
      4.4244      88.1833    -143.4745      78.9625    -106.8169
      4.4344      81.8413    -138.5054      73.8543    -101.7959
      4.4444      76.1759    -133.5961      69.2928     -96.8869
      4.4545      71.1070    -128.7794      65.2147     -92.1021
      4.4645      66.5635    -124.0766      61.5644     -87.4469
      4.4745      62.4839    -119.5013      58.2945     -82.9233
      4.4845      58.8145    -115.0605      55.3635     -78.5298
      4.4945      55.5087    -110.7572      52.7357     -74.2629
      4.5045      52.5261    -106.5907      50.3803     -70.1171
      4.5145      49.8316    -102.5583      48.2706     -66.0866
     4.52452     47.39494    -98.65604     46.38359    -62.16431
     4.53453     45.18987    -94.87860     44.69967    -58.34326
     4.54454     43.19335    -91.21996     43.20168    -54.61556
     4.55455     41.38578    -87.67361     41.87516    -50.97382
     4.56456     39.74997    -84.23309     40.70767    -47.41039
     4.57457     38.27113    -80.89192     39.68886    -43.91785
     4.58458     36.93637    -77.64301     38.80989    -40.48845
     4.59459     35.73471    -74.47999     38.06363    -37.11487
     4.60460     34.65662    -71.39632     37.44438    -33.78992
     4.61461     33.69417    -68.38585     36.94779    -30.50648
     4.62462     32.84045    -65.44211     36.57070    -27.25729
     4.63463     32.08989    -62.55925     36.31126    -24.03548
     4.64464     31.43795    -59.73150     36.16885    -20.83435
     4.65465     30.88106    -56.95294     36.14393    -17.64684
     4.66466     30.41663    -54.21827     36.23834    -14.46639
     4.67467     30.04301    -51.52214     36.45508    -11.28638
     4.68468     29.75946    -48.85945     36.79856     -8.10039
     4.69469     29.56612    -46.22504     37.27467     -4.90178
     4.70470     29.46413    -43.61424     37.89083     -1.68439
     4.71471     29.45555    -41.02249     38.65626      1.55787
     4.72472     29.54350    -38.44564     39.58205      4.83063
     4.73473     29.73215    -35.87952     40.68169      8.13956
     4.74474     30.02685    -33.32074     41.97101     11.48933
     4.75475     30.43418    -30.76640     43.46874     14.88401
     4.76476     30.96199    -28.21435     45.19685     18.32630
     4.77477     31.61957    -25.66314     47.18127     21.81783
     4.78478     32.41750    -23.11271     49.45202     25.35765
     4.79479     33.36776    -20.56442     52.04411     28.94195
     4.80480     34.48342    -18.02145     54.99803     32.56272
     4.81481     35.77873    -15.48864     58.36089     36.20689
     4.82482     37.26850    -12.97322     62.18637     39.85351
     4.83483     38.96795    -10.48425     66.53579     43.47175
     4.84484     40.89262     -8.03234     71.47771     47.01720
     4.85485     43.05913     -5.62865     77.08873     50.42822
     4.86486     45.48610     -3.28506     83.45043     53.61936
     4.87487     48.19675     -1.01422     90.64697     56.47517
     4.88488     51.22206      1.16850     98.75970     58.84241
      4.8949      54.6025       3.2401     107.8559      60.5208
      4.9049      58.3890       5.1634     117.9735      61.2554
      4.9149      62.6392       6.8794     129.0973      60.7316
      4.9249      67.4124       8.3002     141.1284      58.5783
      4.9349      72.7583       9.3022     153.8428      54.3855
      4.9449      78.7047       9.7235     166.8516      47.7441
      4.9550      85.2398       9.3630     179.5701      38.3168
      4.9650      92.2929       7.9858     191.2239      25.9345
      4.9750      99.7087       5.3391     200.9035      10.7090
      4.9850     107.2251       1.1807     207.6964      -6.8855
      4.9950     114.4601      -4.6726     210.8672     -26.0026
      5.0050     120.9229     -12.2838     210.0375     -45.5281
      5.0150     126.0599     -21.5308     205.2874     -64.2708
      5.0250     129.3441     -32.0664     197.1338     -81.1889
      5.0350     130.3871     -43.3316     186.3944     -95.5580
      5.0450     129.0376     -54.6358     173.9976    -107.0348
      5.0551     125.4224     -65.2811     160.8173    -115.6149
      5.0651     119.9118     -74.6930     147.5668    -121.5371
      5.0751     113.0243     -82.5038     134.7612    -125.1735
      5.0851     105.3136     -88.5718     122.7273    -126.9404
      5.0951      97.2783     -92.9438     111.6413    -127.2379
      5.1051      89.3107     -95.7924     101.5692    -126.4193
      5.1151      81.6845     -97.3532      92.5044    -124.7793
      5.1251      74.5655     -97.8758      84.3950    -122.5535
      5.1351      68.0369     -97.5937      77.1672    -119.9260
      5.1451      62.1222     -96.7091      70.7375    -117.0369
      5.1552      56.8060     -95.3881      65.0206    -113.9911
      5.1652      52.0511     -93.7627      59.9356    -110.8658
      5.1752      47.8087     -91.9341      55.4081    -107.7175
      5.1852      44.0264     -89.9783      51.3708    -104.5863
      5.1952      40.6522     -87.9510      47.7637    -101.5000
     5.20520     37.63832    -85.89230     44.53450    -98.47778
     5.21522     34.94160    -83.83070     41.63732    -95.53220
     5.22522     32.52419    -81.78627     39.03232    -92.67091
     5.23523     30.35279    -79.77286     36.68463    -89.89763
     5.24524     28.39873    -77.80035     34.56428    -87.21403
     5.25526     26.63689    -75.87545     32.64520    -84.61966
     5.26526     25.04528    -74.00244     30.90476    -82.11294
     5.27527     23.60446    -72.18381     29.32318    -79.69114
     5.28528     22.29753    -70.42085     27.88339    -77.35126
     5.29530     21.10955    -68.71352     26.57049    -75.08974
     5.30531     20.02747    -67.06139     25.37146    -72.90300
     5.31531     19.03971    -65.46304     24.27484    -70.78702
     5.32533     18.13623    -63.91698     23.27070    -68.73809
     5.33534     17.30819    -62.42124     22.35029    -66.75241
     5.34535     16.54785    -60.97390     21.50596    -64.82638
     5.35536     15.84832    -59.57267     20.73083    -62.95622
     5.36537     15.20364    -58.21538     20.01901    -61.13853
     5.37538     14.60852    -56.89993     19.36520    -59.36998
     5.38539     14.05830    -55.62428     18.76480    -57.64743
     5.39540     13.54883    -54.38620     18.21364    -55.96767
     5.40541     13.07648    -53.18373     17.70811    -54.32779
     5.41541     12.63801    -52.01499     17.24504    -52.72512
     5.42543     12.23052    -50.87809     16.82155    -51.15671
     5.43544     11.85145    -49.77123     16.43516    -49.62010
     5.44545     11.49851    -48.69287     16.08370    -48.11277
     5.45545     11.16968    -47.64134     15.76527    -46.63241
     5.46547     10.86310    -46.61504     15.47816    -45.17656
     5.47548     10.57715    -45.61270     15.22095    -43.74304
     5.48549     10.31035    -44.63277     14.99243    -42.32968
     5.49549     10.06141    -43.67413     14.79156    -40.93447
     5.50551      9.82910    -42.73541     14.61749    -39.55521
     5.51552      9.61239    -41.81547     14.46955    -38.18993
     5.52553      9.41033    -40.91317     14.34724    -36.83667
     5.53553      9.22204    -40.02747     14.25023    -35.49350
     5.54555      9.04675    -39.15731     14.17831    -34.15844
     5.55556      8.88379    -38.30172     14.13147    -32.82956
     5.56557      8.73253    -37.45974     14.10985    -31.50499
     5.57558      8.59241    -36.63055     14.11376    -30.18284
     5.58559      8.46295    -35.81315     14.14365    -28.86109
     5.59560      8.34373    -35.00674     14.20020    -27.53783
     5.60561      8.23435    -34.21052     14.28421    -26.21110
     5.61562      8.13449    -33.42372     14.39673    -24.87894
     5.62563      8.04386    -32.64551     14.53902    -23.53920
     5.63564      7.96223    -31.87518     14.71256    -22.18986
     5.64565      7.88940    -31.11200     14.91910    -20.82880
     5.65566      7.82522    -30.35520     15.16067    -19.45374
     5.66567      7.76957    -29.60415     15.43965    -18.06245
     5.67568      7.72239    -28.85812     15.75872    -16.65261
     5.68569      7.68366    -28.11642     16.12100    -15.22190
     5.69570      7.65339    -27.37840     16.53010    -13.76770
     5.70571      7.63162    -26.64332     16.99010    -12.28758
     5.71572      7.61847    -25.91058     17.50568    -10.77895
     5.72573      7.61409    -25.17955     18.08222     -9.23925
     5.73574      7.61868    -24.44949     18.72588     -7.66573
     5.74575      7.63250    -23.71979     19.44374     -6.05583
     5.75576      7.65588    -22.98982     20.24388     -4.40700
     5.76577      7.68918    -22.25898     21.13557     -2.71692
     5.77578      7.73287    -21.52660     22.12961     -0.98326
     5.78579      7.78748    -20.79212     23.23830      0.79570
     5.79580      7.85362    -20.05502     24.47585      2.62121
     5.80581      7.93200    -19.31479     25.85862      4.49364
     5.81582      8.02341    -18.57100     27.40565      6.41243
     5.82583      8.12875    -17.82331     29.13876      8.37523
     5.83584      8.24897    -17.07155     31.08312     10.37751
     5.84585      8.38513    -16.31571     33.26764     12.41165
     5.85586      8.53829    -15.55600     35.72569     14.46614
     5.86587      8.70948    -14.79289     38.49502     16.52366
     5.87588      8.89957    -14.02723     41.61835     18.55939
     5.88589      9.10916    -13.26020     45.14301     20.53850
     5.89590      9.33834    -12.49324     49.12109     22.41314
     5.90591      9.58643    -11.72800     53.60699     24.11802
     5.91592      9.85172    -10.96606     58.65490     25.56580
     5.92593     10.13141    -10.20823     64.31432     26.64182
     5.93594     10.42157     -9.45417     70.62064     27.19819
     5.94595     10.71770     -8.70150     77.58321     27.04960
     5.95596     11.01565     -7.94535     85.16665     25.97250
     5.96597     11.31286     -7.17842     93.26899     23.71100
      5.9760      11.6095      -6.3918     101.6927      19.9955
      5.9860      11.9089      -5.5763     110.1222      14.5782
      5.9960      12.2175      -4.7238     118.1127       7.2890
      6.0060      12.5438      -3.8283     125.1109      -1.8961
      6.0160      12.8972      -2.8863     130.5145     -12.7871
      6.0260      13.2870      -1.8962     133.7774     -24.9487
      6.0360      13.7220      -0.8579     134.5321     -37.7299
      6.0460      14.2102       0.2281     132.6852     -50.3670
      6.0561      14.7590       1.3611     128.4430     -62.1229
      6.0661      15.3757       2.5404     122.2555     -72.4216
      6.0761      16.0680       3.7657     114.7049     -80.9224
      6.0861      16.8441       5.0370     106.3842     -87.5247
     6.09610     17.71309      6.35429     97.81023    -92.31671
     6.10611     18.68543      7.71772     89.37808    -95.50637
     6.11612     19.77314      9.12709     81.35576    -97.35543
     6.12613     20.99030     10.58182     73.90007    -98.13155
     6.13614     22.35308     12.08033     67.08489    -98.07952
     6.14615     23.88030     13.61971     60.92550    -97.40853
     6.15616     25.59368     15.19507     55.40084    -96.28924
     6.16617     27.51848     16.79904     50.46832    -94.85618
     6.17618     29.68345     18.42026     46.07610    -93.21301
     6.18619     32.12137     20.04236     42.16932    -91.43809
     6.19620     34.86942     21.64231     38.69380    -89.58945
     6.20621     37.96854     23.18783     35.59939    -87.70981
     6.21622     41.46316     24.63471     32.84023    -85.82993
     6.22623     45.39929     25.92308     30.37548    -83.97160
     6.23624     49.82248     26.97352     28.16880    -82.14986
     6.24625     54.77173     27.68190     26.18863    -80.37480
     6.25626     60.27229     27.91514     24.40733    -78.65294
     6.26627     66.32331     27.50800     22.80099    -76.98810
     6.27628     72.88252     26.26359     21.34862    -75.38200
     6.28629     79.84390     23.96089     20.03219    -73.83517
     6.29630     87.01617     20.37385     18.83602    -72.34708
     6.30631     94.10410     15.30599     17.74649    -70.91650
      6.3163     100.7063       8.6402      16.7516     -69.5417
      6.3263     106.3387       0.3998      15.8412     -68.2207
      6.3363     110.4972      -9.2022      15.0060     -66.9515
      6.3463     112.7514     -19.7470      14.2383     -65.7317
      6.3564     112.8461     -30.6530      13.5311     -64.5591
      6.3664     110.7675     -41.2705      12.8782     -63.4314
      6.3764     106.7478     -51.0049      12.2744     -62.3464
      6.3864     101.2037     -59.4171      11.7148     -61.3020
     6.39640     94.63539    -66.27287     11.19525    -60.29610
     6.40641     87.53284    -71.53075     10.71204    -59.32677
     6.41642     80.30851    -75.29532     10.26189    -58.39212
     6.42643     73.26829    -77.75781      9.84179    -57.49035
     6.43644     66.61404    -79.14297      9.44913    -56.61982
     6.44645     60.45950    -79.67367      9.08157    -55.77891
     6.45646     54.85316    -79.55000      8.73700    -54.96617
     6.46647     49.79859    -78.94099      8.41349    -54.18011
     6.47648     45.27259    -77.98326      8.10935    -53.41946
     6.48649     41.23666    -76.78396      7.82305    -52.68296
     6.49650     37.64552    -75.42525      7.55320    -51.96947
     6.50651     34.45196    -73.96866      7.29852    -51.27777
     6.51652     31.61079    -72.45979      7.05788    -50.60695
     6.52653     29.07991    -70.93158      6.83025    -49.95596
     6.53654     26.82145    -69.40748      6.61469    -49.32390
     6.54655     24.80165    -67.90369      6.41032    -48.70988
     6.55656     22.99124    -66.43134      6.21636    -48.11309
     6.56657     21.36470    -64.99783      6.03211    -47.53278
     6.57658     19.90001    -63.60782      5.85692    -46.96823
     6.58659     18.57790    -62.26401      5.69015    -46.41872
     6.59660     17.38181    -60.96775      5.53128    -45.88362
     6.60661     16.29722    -59.71943      5.37980    -45.36232
     6.61662     15.31155    -58.51868      5.23523    -44.85426
     6.62663     14.41367    -57.36459      5.09714    -44.35888
     6.63664     13.59395    -56.25579      4.96514    -43.87568
     6.64665     12.84395    -55.19080      4.83886    -43.40414
     6.65666     12.15625    -54.16801      4.71797    -42.94384
     6.66667     11.52431    -53.18547      4.60214    -42.49433
     6.67668     10.94242    -52.24147      4.49108    -42.05517
     6.68669     10.40556    -51.33414      4.38453    -41.62600
     6.69670      9.90925    -50.46167      4.28223    -41.20643
     6.70671      9.44959    -49.62234      4.18394    -40.79610
     6.71672      9.02308    -48.81447      4.08946    -40.39469
     6.72673      8.62667    -48.03648      3.99857    -40.00189
     6.73674      8.25758    -47.28674      3.91108    -39.61736
     6.74675      7.91338    -46.56386      3.82683    -39.24084
     6.75676      7.59187    -45.86642      3.74564    -38.87204
     6.76677      7.29113    -45.19318      3.66736    -38.51072
     6.77678      7.00938    -44.54283      3.59184    -38.15658
     6.78679      6.74505    -43.91423      3.51894    -37.80944
     6.79680      6.49673    -43.30630      3.44855    -37.46905
     6.80681      6.26314    -42.71801      3.38054    -37.13515
     6.81682      6.04314    -42.14841      3.31480    -36.80759
     6.82683      5.83567    -41.59657      3.25122    -36.48618
     6.83684      5.63978    -41.06157      3.18970    -36.17064
     6.84685      5.45463    -40.54271      3.13015    -35.86088
     6.85686      5.27941    -40.03915      3.07247    -35.55669
     6.86687      5.11344    -39.55022      3.01660    -35.25789
     6.87688      4.95606    -39.07526      2.96244    -34.96437
     6.88689      4.80666    -38.61359      2.90993    -34.67590
     6.89690      4.66471    -38.16465      2.85899    -34.39240
     6.90691      4.52972    -37.72789      2.80956    -34.11370
     6.91692      4.40120    -37.30271      2.76157    -33.83965
     6.92693      4.27877    -36.88869      2.71497    -33.57015
     6.93694      4.16201    -36.48532      2.66969    -33.30506
     6.94695      4.05058    -36.09213      2.62569    -33.04425
     6.95696      3.94416    -35.70876      2.58291    -32.78762
     6.96697      3.84242    -35.33476      2.54131    -32.53505
     6.97698      3.74510    -34.96978      2.50084    -32.28645
     6.98699      3.65194    -34.61348      2.46145    -32.04169
     6.99700      3.56267    -34.26545      2.42311    -31.80067
     7.00701      3.47711    -33.92545      2.38578    -31.56334
     7.01702      3.39502    -33.59313      2.34942    -31.32955
     7.02703      3.31621    -33.26816      2.31398    -31.09923
     7.03704      3.24052    -32.95039      2.27945    -30.87233
     7.04705      3.16775    -32.63943      2.24578    -30.64871
     7.05706      3.09778    -32.33514      2.21295    -30.42832
     7.06707      3.03043    -32.03719      2.18092    -30.21108
     7.07708      2.96558    -31.74540      2.14967    -29.99690
     7.08709      2.90311    -31.45959      2.11918    -29.78575
     7.09710      2.84289    -31.17953      2.08941    -29.57751
     7.10711      2.78480    -30.90496      2.06033    -29.37213
     7.11712      2.72875    -30.63578      2.03194    -29.16956
     7.12713      2.67463    -30.37177      2.00420    -28.96972
     7.13714      2.62236    -30.11279      1.97710    -28.77257
     7.14715      2.57184    -29.85866      1.95061    -28.57802
     7.15716      2.52299    -29.60922      1.92471    -28.38601
     7.16717      2.47574    -29.36436      1.89938    -28.19653
     7.17718      2.43001    -29.12387      1.87461    -28.00949
     7.18719      2.38574    -28.88766      1.85038    -27.82482
     7.19720      2.34286    -28.65563      1.82667    -27.64253
     7.20721      2.30130    -28.42760      1.80347    -27.46252
     7.21722      2.26102    -28.20347      1.78076    -27.28475
     7.22723      2.22196    -27.98316      1.75852    -27.10918
     7.23724      2.18406    -27.76649      1.73674    -26.93576
     7.24725      2.14727    -27.55342      1.71542    -26.76448
     7.25726      2.11156    -27.34381      1.69452    -26.59526
     7.26727      2.07687    -27.13758      1.67405    -26.42805
     7.27728      2.04317    -26.93465      1.65399    -26.26285
     7.28729      2.01042    -26.73491      1.63433    -26.09959
     7.29730      1.97857    -26.53827      1.61505    -25.93823
     7.30731      1.94760    -26.34466      1.59615    -25.77876
     7.31732      1.91746    -26.15399      1.57762    -25.62112
     7.32733      1.88813    -25.96620      1.55944    -25.46529
     7.33734      1.85958    -25.78122      1.54160    -25.31124
     7.34735      1.83178    -25.59893      1.52411    -25.15890
     7.35736      1.80469    -25.41932      1.50694    -25.00829
     7.36737      1.77830    -25.24229      1.49009    -24.85934
     7.37738      1.75258    -25.06778      1.47355    -24.71204
     7.38739      1.72750    -24.89575      1.45731    -24.56635
     7.39740      1.70304    -24.72610      1.44136    -24.42225
     7.40741      1.67918    -24.55881      1.42571    -24.27970
     7.41742      1.65590    -24.39381      1.41033    -24.13868
     7.42743      1.63317    -24.23103      1.39522    -23.99917
     7.43744      1.61099    -24.07046      1.38038    -23.86113
     7.44745      1.58933    -23.91201      1.36580    -23.72455
     7.45746      1.56817    -23.75564      1.35147    -23.58937
     7.46747      1.54750    -23.60132      1.33739    -23.45562
     7.47748      1.52730    -23.44900      1.32354    -23.32324
     7.48749      1.50756    -23.29861      1.30993    -23.19220
     7.49750      1.48825    -23.15013      1.29655    -23.06251
     7.50751      1.46938    -23.00351      1.28340    -22.93412
     7.51752      1.45091    -22.85872      1.27046    -22.80702
     7.52753      1.43285    -22.71573      1.25773    -22.68119
     7.53754      1.41518    -22.57446      1.24521    -22.55660
     7.54755      1.39788    -22.43493      1.23289    -22.43325
     7.55756      1.38095    -22.29704      1.22078    -22.31110
     7.56757      1.36437    -22.16081      1.20885    -22.19014
     7.57758      1.34814    -22.02620      1.19712    -22.07035
     7.58759      1.33224    -21.89314      1.18557    -21.95170
     7.59760      1.31666    -21.76163      1.17420    -21.83421
     7.60761      1.30139    -21.63165      1.16301    -21.71782
     7.61762      1.28643    -21.50314      1.15199    -21.60252
     7.62763      1.27177    -21.37607      1.14115    -21.48831
     7.63764      1.25740    -21.25045      1.13046    -21.37517
     7.64765      1.24330    -21.12621      1.11994    -21.26307
     7.65766      1.22948    -21.00336      1.10958    -21.15201
     7.66767      1.21592    -20.88183      1.09937    -21.04196
     7.67768      1.20262    -20.76164      1.08932    -20.93292
     7.68769      1.18957    -20.64275      1.07941    -20.82487
     7.69770      1.17676    -20.52511      1.06965    -20.71780
     7.70771      1.16419    -20.40874      1.06004    -20.61168
     7.71772      1.15185    -20.29359      1.05056    -20.50651
     7.72773      1.13974    -20.17963      1.04122    -20.40227
     7.73774      1.12784    -20.06687      1.03201    -20.29895
     7.74775      1.11616    -19.95527      1.02294    -20.19654
     7.75776      1.10469    -19.84479      1.01399    -20.09501
     7.76777      1.09342    -19.73546      1.00517    -19.99437
     7.77778      1.08234    -19.62720      0.99648    -19.89460
     7.78779      1.07146    -19.52006      0.98790    -19.79568
     7.79780      1.06077    -19.41396      0.97945    -19.69761
     7.80781      1.05026    -19.30891      0.97111    -19.60037
     7.81782      1.03993    -19.20490      0.96288    -19.50396
     7.82783      1.02977    -19.10188      0.95477    -19.40836
     7.83784      1.01978    -18.99986      0.94677    -19.31354
     7.84785      1.00996    -18.89882      0.93888    -19.21953
     7.85786      1.00030    -18.79874      0.93109    -19.12629
     7.86787      0.99080    -18.69962      0.92340    -19.03382
     7.87788      0.98146    -18.60142      0.91582    -18.94210
     7.88789      0.97227    -18.50413      0.90834    -18.85113
     7.89790      0.96322    -18.40775      0.90096    -18.76091
     7.90791      0.95432    -18.31226      0.89367    -18.67141
     7.91792      0.94556    -18.21764      0.88648    -18.58263
     7.92793      0.93694    -18.12388      0.87938    -18.49456
     7.93794      0.92845    -18.03096      0.87237    -18.40718
     7.94795      0.92010    -17.93888      0.86546    -18.32050
     7.95796      0.91187    -17.84762      0.85863    -18.23450
     7.96797      0.90377    -17.75717      0.85189    -18.14918
     7.97798      0.89580    -17.66751      0.84523    -18.06452
     7.98799      0.88794    -17.57865      0.83866    -17.98052
     7.99800      0.88020    -17.49054      0.83217    -17.89716
     8.00801      0.87258    -17.40319      0.82576    -17.81446
     8.01802      0.86508    -17.31661      0.81943    -17.73238
     8.02803      0.85768    -17.23075      0.81318    -17.65093
     8.03804      0.85040    -17.14562      0.80700    -17.57010
     8.04805      0.84322    -17.06120      0.80091    -17.48987
     8.05806      0.83614    -16.97749      0.79488    -17.41025
     8.06807      0.82917    -16.89449      0.78893    -17.33122
     8.07808      0.82230    -16.81217      0.78305    -17.25278
     8.08809      0.81552    -16.73052      0.77724    -17.17492
     8.09810      0.80885    -16.64955      0.77151    -17.09764
     8.10811      0.80226    -16.56923      0.76584    -17.02092
     8.11812      0.79577    -16.48955      0.76023    -16.94477
     8.12813      0.78937    -16.41051      0.75470    -16.86916
     8.13814      0.78306    -16.33210      0.74923    -16.79411
     8.14815      0.77684    -16.25433      0.74382    -16.71960
     8.15816      0.77071    -16.17716      0.73848    -16.64561
     8.16817      0.76465    -16.10059      0.73320    -16.57217
     8.17818      0.75869    -16.02462      0.72798    -16.49925
     8.18819      0.75280    -15.94924      0.72282    -16.42683
     8.19820      0.74699    -15.87444      0.71772    -16.35492
     8.20821      0.74126    -15.80022      0.71269    -16.28354
     8.21822      0.73561    -15.72655      0.70770    -16.21263
     8.22823      0.73003    -15.65344      0.70278    -16.14222
     8.23824      0.72453    -15.58090      0.69791    -16.07231
     8.24825      0.71910    -15.50888      0.69310    -16.00288
     8.25826      0.71375    -15.43740      0.68834    -15.93391
     8.26827      0.70846    -15.36645      0.68363    -15.86542
     8.27828      0.70324    -15.29603      0.67898    -15.79741
     8.28829      0.69809    -15.22613      0.67438    -15.72984
     8.29830      0.69301    -15.15672      0.66983    -15.66273
     8.30831      0.68799    -15.08782      0.66534    -15.59607
     8.31832      0.68304    -15.01941      0.66089    -15.52986
     8.32833      0.67815    -14.95150      0.65649    -15.46410
     8.33834      0.67333    -14.88407      0.65214    -15.39876
     8.34835      0.66857    -14.81711      0.64784    -15.33385
     8.35836      0.66386    -14.75062      0.64359    -15.26938
     8.36837      0.65922    -14.68460      0.63938    -15.20532
     8.37838      0.65464    -14.61905      0.63522    -15.14167
     8.38839      0.65011    -14.55393      0.63110    -15.07845
     8.39840      0.64565    -14.48927      0.62703    -15.01563
     8.40841      0.64123    -14.42505      0.62301    -14.95322
     8.41842      0.63688    -14.36126      0.61903    -14.89120
     8.42843      0.63258    -14.29791      0.61509    -14.82957
     8.43844      0.62833    -14.23499      0.61119    -14.76834
     8.44845      0.62413    -14.17247      0.60734    -14.70749
     8.45846      0.61999    -14.11038      0.60353    -14.64703
     8.46847      0.61590    -14.04869      0.59976    -14.58694
     8.47848      0.61186    -13.98742      0.59603    -14.52722
     8.48849      0.60787    -13.92653      0.59234    -14.46788
     8.49850      0.60393    -13.86605      0.58869    -14.40891
     8.50851      0.60004    -13.80595      0.58508    -14.35029
     8.51852      0.59620    -13.74623      0.58151    -14.29203
     8.52853      0.59240    -13.68690      0.57798    -14.23412
     8.53854      0.58865    -13.62795      0.57449    -14.17656
     8.54855      0.58495    -13.56937      0.57103    -14.11936
     8.55856      0.58129    -13.51115      0.56761    -14.06250
     8.56857      0.57768    -13.45329      0.56423    -14.00597
     8.57858      0.57412    -13.39580      0.56089    -13.94978
     8.58859      0.57060    -13.33865      0.55758    -13.89392
     8.59860      0.56712    -13.28185      0.55430    -13.83840
     8.60861      0.56368    -13.22540      0.55107    -13.78318
     8.61862      0.56029    -13.16928      0.54786    -13.72830
     8.62863      0.55694    -13.11351      0.54469    -13.67374
     8.63864      0.55363    -13.05807      0.54156    -13.61948
     8.64865      0.55037    -13.00295      0.53846    -13.56554
     8.65866      0.54714    -12.94815      0.53540    -13.51191
     8.66867      0.54396    -12.89368      0.53237    -13.45858
     8.67868      0.54081    -12.83952      0.52937    -13.40555
     8.68869      0.53771    -12.78567      0.52640    -13.35282
     8.69870      0.53464    -12.73213      0.52347    -13.30038
     8.70871      0.53162    -12.67889      0.52057    -13.24824
     8.71872      0.52863    -12.62597      0.51770    -13.19638
     8.72873      0.52568    -12.57332      0.51487    -13.14481
     8.73874      0.52277    -12.52097      0.51207    -13.09352
     8.74875      0.51990    -12.46892      0.50930    -13.04250
     8.75876      0.51706    -12.41714      0.50656    -12.99177
     8.76877      0.51427    -12.36564      0.50385    -12.94130
     8.77878      0.51151    -12.31443      0.50117    -12.89110
     8.78879      0.50878    -12.26349      0.49853    -12.84117
     8.79880      0.50610    -12.21282      0.49591    -12.79150
     8.80881      0.50345    -12.16241      0.49333    -12.74209
     8.81882      0.50084    -12.11227      0.49078    -12.69295
     8.82883      0.49826    -12.06239      0.48826    -12.64405
     8.83884      0.49572    -12.01276      0.48577    -12.59540
     8.84885      0.49321    -11.96338      0.48330    -12.54700
     8.85886      0.49075    -11.91425      0.48087    -12.49884
     8.86887      0.48831    -11.86537      0.47848    -12.45093
     8.87888      0.48592    -11.81673      0.47611    -12.40326
     8.88889      0.48355    -11.76833      0.47377    -12.35582
     8.89890      0.48123    -11.72016      0.47146    -12.30861
     8.90891      0.47894    -11.67223      0.46918    -12.26163
     8.91892      0.47668    -11.62452      0.46693    -12.21488
     8.92893      0.47447    -11.57703      0.46472    -12.16836
     8.93894      0.47228    -11.52976      0.46253    -12.12205
     8.94895      0.47014    -11.48272      0.46038    -12.07596
     8.95896      0.46802    -11.43589      0.45825    -12.03009
     8.96897      0.46595    -11.38925      0.45616    -11.98442
     8.97898      0.46391    -11.34284      0.45410    -11.93897
     8.98899      0.46191    -11.29663      0.45207    -11.89373
     8.99900      0.45994    -11.25061      0.45007    -11.84868
     9.00901      0.45801    -11.20479      0.44811    -11.80383
     9.01902      0.45612    -11.15916      0.44617    -11.75919
     9.02903      0.45426    -11.11372      0.44427    -11.71473
     9.03904      0.45244    -11.06847      0.44240    -11.67046
     9.04905      0.45066    -11.02339      0.44057    -11.62638
     9.05906      0.44892    -10.97850      0.43877    -11.58249
     9.06907      0.44722    -10.93378      0.43700    -11.53877
     9.07908      0.44555    -10.88923      0.43527    -11.49523
     9.08909      0.44393    -10.84485      0.43357    -11.45186
     9.09910      0.44234    -10.80062      0.43191    -11.40867
     9.10911      0.44080    -10.75655      0.43028    -11.36564
     9.11912      0.43929    -10.71264      0.42870    -11.32277
     9.12913      0.43783    -10.66889      0.42715    -11.28006
     9.13914      0.43641    -10.62527      0.42563    -11.23752
     9.14915      0.43504    -10.58180      0.42416    -11.19512
     9.15916      0.43370    -10.53847      0.42273    -11.15287
     9.16917      0.43242    -10.49528      0.42134    -11.11077
     9.17918      0.43118    -10.45221      0.41999    -11.06880
     9.18919      0.42998    -10.40927      0.41868    -11.02697
     9.19920      0.42883    -10.36645      0.41742    -10.98528
     9.20921      0.42774    -10.32375      0.41621    -10.94372
     9.21922      0.42669    -10.28115      0.41504    -10.90228
     9.22923      0.42569    -10.23866      0.41393    -10.86096
     9.23924      0.42475    -10.19628      0.41286    -10.81975
     9.24925      0.42386    -10.15399      0.41184    -10.77865
     9.25926      0.42303    -10.11181      0.41088    -10.73766
     9.26927      0.42225    -10.06969      0.40998    -10.69678
     9.27928      0.42153    -10.02767      0.40913    -10.65598
     9.28929      0.42088     -9.98572      0.40835    -10.61528
     9.29930      0.42029     -9.94384      0.40763    -10.57466
     9.30931      0.41976     -9.90202      0.40697    -10.53412
     9.31932      0.41930     -9.86026      0.40638    -10.49366
     9.32933      0.41891     -9.81854      0.40587    -10.45326
     9.33934      0.41860     -9.77688      0.40543    -10.41292
     9.34935      0.41836     -9.73526      0.40507    -10.37263
     9.35936      0.41820     -9.69366      0.40480    -10.33239
     9.36937      0.41812     -9.65210      0.40461    -10.29220
     9.37938      0.41813     -9.61054      0.40452    -10.25203
     9.38939      0.41823     -9.56899      0.40452    -10.21188
     9.39940      0.41842     -9.52744      0.40463    -10.17175
     9.40941      0.41871     -9.48589      0.40485    -10.13163
     9.41942      0.41911     -9.44432      0.40518    -10.09151
     9.42943      0.41961     -9.40272      0.40564    -10.05137
     9.43944      0.42023     -9.36109      0.40623    -10.01121
    9.449449     0.420964    -9.319415     0.406966    -9.971021
    9.459459     0.421826    -9.277676     0.407848    -9.930776
    9.469469     0.422822    -9.235877     0.408890    -9.890486
    9.479480     0.423958    -9.193986     0.410106    -9.850122
    9.489489     0.425244    -9.152014     0.411506    -9.809677
    9.499498     0.426687    -9.109939     0.413105    -9.769135
    9.509509     0.428297    -9.067740     0.414918    -9.728478
    9.519519     0.430086    -9.025417     0.416962    -9.687698
    9.529529     0.432063    -8.982944     0.419257    -9.646771
    9.539539     0.434242    -8.940314     0.421822    -9.605684
    9.549549     0.436635    -8.897506     0.424682    -9.564417
    9.559559     0.439259    -8.854494     0.427861    -9.522957
    9.569570     0.442128    -8.811274     0.431389    -9.481257
    9.579579     0.445260    -8.767816     0.435297    -9.439336
    9.589589     0.448675    -8.724104     0.439621    -9.397130
    9.599599     0.452393    -8.680119     0.444402    -9.354646
    9.609609     0.456439    -8.635833     0.449684    -9.311835
    9.619619     0.460839    -8.591221     0.455519    -9.268682
    9.629629     0.465620    -8.546268     0.461963    -9.225158
    9.639639     0.470813    -8.500935     0.469082    -9.181234
    9.649650     0.476455    -8.455194     0.476950    -9.136874
    9.659659     0.482583    -8.409024     0.485648    -9.092054
    9.669669     0.489241    -8.362380     0.495274    -9.046730
    9.679679     0.496476    -8.315239     0.505934    -9.000892
    9.689689     0.504342    -8.267566     0.517753    -8.954497
    9.699699     0.512901    -8.219305     0.530874    -8.907522
    9.709709     0.522218    -8.170435     0.545458    -8.859948
    9.719719     0.532369    -8.120914     0.561694    -8.811752
    9.729730     0.543441    -8.070683     0.579799    -8.762935
    9.739739     0.555528    -8.019719     0.600018    -8.713506
    9.749749     0.568739    -7.967960     0.622639    -8.663488
    9.759759     0.583200    -7.915373     0.647996    -8.612938
    9.769769     0.599048    -7.861906     0.676462    -8.561960
    9.779779     0.616444    -7.807513     0.708477    -8.510684
    9.789789     0.635566    -7.752175     0.744533    -8.459340
    9.799799     0.656621    -7.695838     0.785192    -8.408230
    9.809810     0.679845    -7.638483     0.831085    -8.357789
    9.819819     0.705499    -7.580100     0.882890    -8.308628
    9.829829     0.733887    -7.520703     0.941339    -8.261572
    9.839839     0.765352    -7.460310     1.007174    -8.217713
    9.849849     0.800270    -7.398992     1.081070    -8.178518
    9.859859     0.839079    -7.336848     1.163568    -8.145873
    9.869869     0.882249    -7.274037     1.254878    -8.122154
    9.879879     0.930317    -7.210775     1.354688    -8.110259
    9.889890     0.983878    -7.147358     1.461855    -8.113547
    9.899899     1.043583    -7.084189     1.574022    -8.135633
    9.909909     1.110166    -7.021817     1.687323    -8.179968
    9.919920     1.184438    -6.960948     1.796164    -8.249145
    9.929930     1.267247    -6.902579     1.893356    -8.343990
    9.939939     1.359468    -6.848041     1.970862    -8.462645
    9.949949     1.461853    -6.799108     2.021030    -8.599956
    9.959959     1.574911    -6.758046     2.038276    -8.747740
    9.969970     1.698667    -6.727643     2.020473    -8.895900
    9.979980     1.832352    -6.711129     1.969553    -9.034283
    9.989989     1.974167    -6.711927     1.890963    -9.154566
    10.00000      2.12103     -6.73327      1.79227     -9.25145
# 
# 12/16/2019 at 12:34 yambo_magnetic @ anomaly [start]
# 12/16/2019 at 12:34                          [end]
#
# .-Input file : yambo.in
# | optics                         # [R] Linear Response optical properties
# | bss                            # [R] BSE solver
# | bse                            # [R][BSE] Bethe Salpeter Equation.
# | em1s                           # [R][Xs] Statically Screened Interaction
# | BoseTemp= 0.000000     eV      # Bosonic Temperature
# | FFTGvecs=  363         RL      # [FFT] Plane-waves
# | BS_nCPU_LinAlg_INV= 1          # [PARALLEL] CPUs for Linear Algebra (if -1 it is automatically set)
# | BS_nCPU_LinAlg_DIAGO= 1        # [PARALLEL] CPUs for Linear Algebra (if -1 it is automatically set)
# | Chimod= "HARTREE"              # [X] IP/Hartree/ALDA/LRC/PF/BSfxc
# | BSEmod= "retarded"             # [BSE] resonant/retarded/coupling
# | BSKmod= "SEX"                  # [BSE] IP/Hartree/HF/ALDA/SEX/BSfxc
# | BSSmod= "d"                    # [BSS] (h)aydock/(d)iagonalization/(i)nversion/(t)ddft`
# | BSENGexx=  363         RL      # [BSK] Exchange components
# | BSENGBlk= 1            RL      # [BSK] Screened interaction block size [if -1 uses all the G-vectors of W(q,G,Gp)]
# | #WehCpl                        # [BSK] eh interaction included also in coupling
# | KfnQPdb= " E < 03_gw/ndb.QP"   # [EXTQP BSK BSS] Database
# | % BSEQptR
# |  1 | 1 |                       # [BSK] Transferred momenta range
# | %
# | % BSEBands
# |   1 |  7 |                     # [BSK] Bands range
# | %
# | % BEnRange
# |   0.00000 | 10.00000 | eV      # [BSS] Energy range
# | %
# | % BDmRange
# |   0.10000 |  0.10000 | eV      # [BSS] Damping range
# | %
# | BEnSteps= 1000                 # [BSS] Energy steps
# | % BLongDir
# | 0.1000E-4 | 0.000    | 0.000    |        # [BSS] [cc] Electric Field
# | %
# | % BndsRnXs
# |   1 |  7 |                     # [Xs] Polarization function bands
# | %
# | NGsBlkXs= 1            RL      # [Xs] Response block size
# | % DmRngeXs
# |   0.10000 |  0.10000 | eV      # [Xs] Damping range
# | %
# | % LongDrXs
# | 0.1000E-4 | 0.000    | 0.000    |        # [Xs] [cc] Electric Field
# | %
