#                                                           
# :::   :::   :::     ::::    ::::  :::::::::   ::::::::    
# :+:   :+: :+: :+:   +:+:+: :+:+:+ :+:    :+: :+:    :+:   
#  +:+ +:+ +:+   +:+  +:+ +:+:+ +:+ +:+    +:+ +:+    +:+   
#   +#++: +#++:++#++: +#+  +:+  +#+ +#++:++#+  +#+    +:+   
#    +#+  +#+     +#+ +#+       +#+ +#+    +#+ +#+    +#+   
#    #+#  #+#     #+# #+#       #+# #+#    #+# #+#    #+#   
#    ###  ###     ### ###       ### #########   ########    
#                                                           
#                                                           
#        Version 4.1.2 Revision 14038 Hash bd0d05e          
#                    MPI+OpenMP Build                       
#                http://www.yambo-code.org                  
#
# Absorption @ Q(1) [q->0 direction] :0.1000E-4  0.000     0.000   
#
#
# - Energies      are GoWo Plasmon Pole appox.
# - Wavefunctions are Teter 93(XC)
#
# - The Green`s function is Retarded -
# - Using the Length Gauge -
# - [r,Vnl] *is* included -
#
#   BSK|Identifier              :7454
#      |Dimension               :96
#      |Bands                   :1 - 7
#      |Exchange           [res]: yes
#      |Correlation        [res]: yes
#      |Kernel`s coupling       : no
#      |Exchange           [cpl]: no
#      |Correlation        [cpl]: no
#      |W interaction is bare   : no
#      |ALDA kernel in R-space  : no
#      |RL vectors    [exchange]:363
#      |RL vectors [correlation]:1
#      |E/h energy range    [ev]:-1.000000 - -1.000000
#      |Coupling range     [o/o]: 100.0000 -  100.0000
#    W |Interaction is diagonal : no
#      |Matrix size             :1
#      |Bands                   :1 - 7
#      |e/h energy range    [ev]:-1.000000 - -1.000000
#      |Poles              [o/o]: 100.0000
#      |RL vectors in the sum   :363
#      |[r,Vnl] included        : yes
#      |Field direction         :0.1000E-4  0.000000  0.000000
#      |Coulomb Cutoff          :none
#      |xc-Kernel               :none
#   RIM|RL components      [col]:0
#      |Random points      [col]:0
#
#  E/ev[1]    EPS-Im[2]  EPS-Re[3]  EPSo-Im[4] EPSo-Re[5]
#
   0.00000    0.00000   35.95469    0.00000   35.28047
 0.1001E-1  0.3671E-2   35.95     0.3405E-2   35.28   
 0.2002E-1  0.7341E-2   35.96     0.6811E-2   35.28   
 0.3003E-1  0.1101E-1   35.96     0.1022E-1   35.28   
 0.4004E-1  0.1468E-1   35.96     0.1362E-1   35.28   
 0.5005E-1  0.1836E-1   35.96     0.1703E-1   35.28   
 0.6006E-1  0.2203E-1   35.96     0.2044E-1   35.29   
 0.7007E-1  0.2571E-1   35.96     0.2385E-1   35.29   
 0.8008E-1  0.2939E-1   35.97     0.2726E-1   35.29   
 0.9009E-1  0.3306E-1   35.97     0.3067E-1   35.29   
 0.1001     0.3675E-1   35.97     0.3409E-1   35.30   
   0.11011    0.04043   35.97688    0.03751   35.30106
   0.12012    0.04412   35.98111    0.04093   35.30499
   0.13013    0.04781   35.98569    0.04435   35.30924
   0.14014    0.05150   35.99064    0.04777   35.31385
   0.15015    0.05520   35.99597    0.05120   35.31878
   0.16016    0.05890   36.00166    0.05463   35.32408
   0.17017    0.06260   36.00774    0.05807   35.32970
   0.18018    0.06631   36.01420    0.06151   35.33567
   0.19019    0.07002   36.02101    0.06495   35.34199
   0.20020    0.07374   36.02817    0.06839   35.34865
   0.21021    0.07746   36.03572    0.07184   35.35564
   0.22022    0.08119   36.04362    0.07530   35.36298
   0.23023    0.08492   36.05194    0.07876   35.37069
   0.24024    0.08866   36.06061    0.08222   35.37873
   0.25025    0.09240   36.06966    0.08569   35.38711
   0.26026    0.09615   36.07904    0.08917   35.39584
   0.27027    0.09991   36.08885    0.09265   35.40492
   0.28028    0.10368   36.09903    0.09614   35.41436
   0.29029    0.10745   36.10956    0.09963   35.42413
   0.30030    0.11123   36.12048    0.10313   35.43425
   0.31031    0.11501   36.13181    0.10664   35.44474
   0.32032    0.11880   36.14346    0.11015   35.45556
   0.33033    0.12261   36.15550    0.11367   35.46674
   0.34034    0.12642   36.16796    0.11720   35.47829
   0.35035    0.13023   36.18076    0.12073   35.49015
   0.36036    0.13406   36.19397    0.12428   35.50238
   0.37037    0.13790   36.20755    0.12783   35.51498
   0.38038    0.14174   36.22150    0.13139   35.52792
   0.39039    0.14560   36.23587    0.13495   35.54122
   0.40040    0.14947   36.25060    0.13853   35.55489
   0.41041    0.15334   36.26569    0.14211   35.56891
   0.42042    0.15723   36.28121    0.14571   35.58328
   0.43043    0.16112   36.29710    0.14931   35.59801
   0.44044    0.16503   36.31343    0.15293   35.61310
   0.45045    0.16895   36.33009    0.15655   35.62855
   0.46046    0.17288   36.34716    0.16018   35.64439
   0.47047    0.17683   36.36463    0.16383   35.66056
   0.48048    0.18078   36.38249    0.16748   35.67710
   0.49049    0.18475   36.40073    0.17115   35.69401
   0.50050    0.18873   36.41936    0.17482   35.71129
   0.51051    0.19272   36.43842    0.17851   35.72894
   0.52052    0.19673   36.45787    0.18221   35.74696
   0.53053    0.20075   36.47772    0.18592   35.76534
   0.54054    0.20479   36.49796    0.18965   35.78409
   0.55055    0.20884   36.51862    0.19338   35.80323
   0.56056    0.21290   36.53966    0.19713   35.82274
   0.57057    0.21698   36.56115    0.20090   35.84260
   0.58058    0.22107   36.58301    0.20467   35.86285
   0.59059    0.22518   36.60529    0.20846   35.88349
   0.60060    0.22931   36.62798    0.21227   35.90449
   0.61061    0.23345   36.65109    0.21608   35.92589
   0.62062    0.23761   36.67463    0.21992   35.94767
   0.63063    0.24179   36.69855    0.22376   35.96982
   0.64064    0.24598   36.72291    0.22762   35.99237
   0.65065    0.25019   36.74770    0.23150   36.01529
   0.66066    0.25442   36.77288    0.23540   36.03861
   0.67067    0.25867   36.79848    0.23930   36.06231
   0.68068    0.26293   36.82453    0.24323   36.08641
   0.69069    0.26722   36.85102    0.24717   36.11090
   0.70070    0.27152   36.87793    0.25113   36.13578
   0.71071    0.27584   36.90524    0.25510   36.16105
   0.72072    0.28019   36.93300    0.25910   36.18673
   0.73073    0.28455   36.96122    0.26311   36.21280
   0.74074    0.28893   36.98982    0.26714   36.23930
   0.75075    0.29334   37.01888    0.27118   36.26617
   0.76076    0.29777   37.04842    0.27525   36.29345
   0.77077    0.30222   37.07835    0.27934   36.32115
   0.78078    0.30669   37.10877    0.28344   36.34925
   0.79079    0.31118   37.13961    0.28757   36.37775
   0.80080    0.31570   37.17091    0.29171   36.40669
   0.81081    0.32024   37.20266    0.29587   36.43602
   0.82082    0.32481   37.23486    0.30006   36.46578
   0.83083    0.32940   37.26753    0.30427   36.49596
   0.84084    0.33401   37.30064    0.30850   36.52657
   0.85085    0.33865   37.33423    0.31275   36.55758
   0.86086    0.34331   37.36827    0.31702   36.58903
   0.87087    0.34801   37.40278    0.32131   36.62089
   0.88088    0.35272   37.43777    0.32563   36.65319
   0.89089    0.35747   37.47322    0.32997   36.68593
   0.90090    0.36224   37.50915    0.33434   36.71909
   0.91091    0.36704   37.54556    0.33873   36.75269
   0.92092    0.37187   37.58244    0.34314   36.78676
   0.93093    0.37672   37.61980    0.34758   36.82123
   0.94094    0.38161   37.65767    0.35204   36.85616
   0.95095    0.38653   37.69602    0.35653   36.89155
   0.96096    0.39147   37.73486    0.36105   36.92736
   0.97097    0.39645   37.77419    0.36559   36.96365
   0.98098    0.40146   37.81403    0.37016   37.00039
   0.99099    0.40650   37.85435    0.37476   37.03758
   1.00100    0.41157   37.89519    0.37938   37.07523
   1.01101    0.41667   37.93652    0.38403   37.11335
   1.02102    0.42181   37.97838    0.38872   37.15191
   1.03103    0.42698   38.02072    0.39343   37.19096
   1.04104    0.43219   38.06362    0.39817   37.23048
   1.05105    0.43743   38.10704    0.40294   37.27048
   1.06106    0.44270   38.15098    0.40774   37.31095
   1.07107    0.44801   38.19544    0.41257   37.35192
   1.08108    0.45336   38.24043    0.41743   37.39334
   1.09109    0.45875   38.28595    0.42233   37.43527
   1.10110    0.46417   38.33204    0.42726   37.47768
   1.11111    0.46963   38.37861    0.43222   37.52059
   1.12112    0.47513   38.42580    0.43721   37.56399
   1.13113    0.48067   38.47350    0.44224   37.60788
   1.14114    0.48625   38.52175    0.44730   37.65229
   1.15115    0.49188   38.57056    0.45240   37.69721
   1.16116    0.49754   38.61995    0.45754   37.74263
   1.17117    0.50324   38.66989    0.46271   37.78857
   1.18118    0.50899   38.72042    0.46791   37.83500
   1.19119    0.51478   38.77150    0.47316   37.88199
   1.20120    0.52062   38.82317    0.47844   37.92949
   1.21121    0.52650   38.87543    0.48376   37.97752
   1.22122    0.53242   38.92828    0.48912   38.02608
   1.23123    0.53839   38.98174    0.49452   38.07518
   1.24124    0.54441   39.03576    0.49996   38.12481
   1.25125    0.55048   39.09037    0.50544   38.17501
   1.26126    0.55660   39.14566    0.51096   38.22573
   1.27127    0.56276   39.20150    0.51653   38.27700
   1.28128    0.56897   39.25797    0.52213   38.32885
   1.29129    0.57524   39.31509    0.52778   38.38126
   1.30130    0.58156   39.37279    0.53348   38.43422
   1.31131    0.58793   39.43116    0.53922   38.48777
   1.32132    0.59435   39.49016    0.54500   38.54187
   1.33133    0.60082   39.54978    0.55083   38.59657
   1.34134    0.60736   39.61005    0.55671   38.65185
   1.35135    0.61394   39.67100    0.56264   38.70770
   1.36136    0.62059   39.73258    0.56861   38.76415
   1.37137    0.62729   39.79487    0.57464   38.82121
   1.38138    0.63405   39.85778    0.58071   38.87885
   1.39139    0.64087   39.92142    0.58683   38.93712
   1.40140    0.64775   39.98568    0.59301   38.99600
   1.41141    0.65469   40.05066    0.59924   39.05550
   1.42142    0.66170   40.11636    0.60552   39.11563
   1.43143    0.66876   40.18270    0.61185   39.17638
   1.44144    0.67590   40.24977    0.61824   39.23775
   1.45145    0.68309   40.31760    0.62469   39.29978
   1.46146    0.69036   40.38612    0.63119   39.36245
   1.47147    0.69769   40.45536    0.63775   39.42575
   1.48148    0.70509   40.52534    0.64437   39.48973
   1.49149    0.71256   40.59605    0.65104   39.55436
   1.50150    0.72010   40.66754    0.65778   39.61966
   1.51151    0.72771   40.73975    0.66458   39.68565
   1.52152    0.73540   40.81273    0.67144   39.75231
   1.53153    0.74316   40.88649    0.67836   39.81966
   1.54154    0.75100   40.96101    0.68535   39.88770
   1.55155    0.75891   41.03631    0.69240   39.95642
   1.56156    0.76690   41.11240    0.69952   40.02587
   1.57157    0.77498   41.18931    0.70671   40.09601
   1.58158    0.78313   41.26701    0.71396   40.16689
   1.59159    0.79136   41.34557    0.72128   40.23849
   1.60160    0.79968   41.42490    0.72868   40.31083
   1.61161    0.80808   41.50509    0.73614   40.38389
   1.62162    0.81657   41.58611    0.74368   40.45772
   1.63163    0.82515   41.66798    0.75129   40.53230
   1.64164    0.83382   41.75069    0.75898   40.60762
   1.65165    0.84257   41.83427    0.76674   40.68374
   1.66166    0.85142   41.91876    0.77458   40.76061
   1.67167    0.86037   42.00414    0.78250   40.83827
   1.68168    0.86940   42.09040    0.79051   40.91674
   1.69169    0.87854   42.17755    0.79859   40.99601
   1.70170    0.88778   42.26561    0.80675   41.07607
   1.71171    0.89711   42.35461    0.81500   41.15696
   1.72172    0.90655   42.44454    0.82334   41.23867
   1.73173    0.91609   42.53541    0.83176   41.32121
   1.74174    0.92574   42.62724    0.84027   41.40459
   1.75175    0.93549   42.72001    0.84887   41.48885
   1.76176    0.94536   42.81381    0.85756   41.57393
   1.77177    0.95534   42.90856    0.86635   41.65990
   1.78178    0.96542   43.00429    0.87523   41.74674
   1.79179    0.97563   43.10106    0.88420   41.83450
   1.80180    0.98595   43.19883    0.89328   41.92311
   1.81181    0.99639   43.29768    0.90245   42.01263
   1.82182    1.00696   43.39752    0.91173   42.10311
   1.83183    1.01765   43.49844    0.92110   42.19451
   1.84184    1.02846   43.60040    0.93059   42.28682
   1.85185    1.03940   43.70346    0.94018   42.38009
   1.86186    1.05047   43.80762    0.94988   42.47432
   1.87187    1.06168   43.91289    0.95969   42.56952
   1.88188    1.07302   44.01930    0.96961   42.66569
   1.89189    1.08450   44.12680    0.97964   42.76287
   1.90190    1.09612   44.23547    0.98979   42.86104
   1.91191    1.10788   44.34528    1.00007   42.96025
   1.92192    1.11979   44.45627    1.01046   43.06047
   1.93193    1.13185   44.56849    1.02097   43.16173
   1.94194    1.14406   44.68188    1.03161   43.26403
   1.95195    1.15642   44.79653    1.04238   43.36740
   1.96196    1.16894   44.91236    1.05327   43.47186
   1.97197    1.18162   45.02946    1.06430   43.57740
   1.98198    1.19447   45.14781    1.07546   43.68404
   1.99199    1.20747   45.26751    1.08676   43.79179
   2.00200    1.22065   45.38844    1.09820   43.90070
   2.01201    1.23400   45.51070    1.10978   44.01073
   2.02202    1.24753   45.63433    1.12151   44.12189
   2.03203    1.26124   45.75927    1.13338   44.23426
   2.04204    1.27513   45.88559    1.14540   44.34782
   2.05205    1.28920   46.01332    1.15757   44.46255
   2.06206    1.30347   46.14246    1.16990   44.57853
   2.07207    1.31793   46.27299    1.18239   44.69571
   2.08208    1.33259   46.40498    1.19504   44.81416
   2.09209    1.34744   46.53844    1.20786   44.93388
   2.10210    1.36251   46.67335    1.22084   45.05485
   2.11211    1.37778   46.80981    1.23400   45.17716
   2.12212    1.39327   46.94778    1.24732   45.30076
   2.13213    1.40898   47.08730    1.26083   45.42568
   2.14214    1.42491   47.22836    1.27452   45.55198
   2.15215    1.44107   47.37106    1.28839   45.67960
   2.16216    1.45746   47.51534    1.30245   45.80864
   2.17217    1.47408   47.66124    1.31671   45.93909
   2.18218    1.49095   47.80883    1.33116   46.07095
   2.19219    1.50807   47.95808    1.34581   46.20425
   2.20220    1.52544   48.10909    1.36066   46.33902
   2.21221    1.54306   48.26178    1.37572   46.47527
   2.22222    1.56095   48.41625    1.39100   46.61303
   2.23223    1.57911   48.57248    1.40649   46.75232
   2.24224    1.59754   48.73055    1.42221   46.89313
   2.25225    1.61625   48.89043    1.43814   47.03553
   2.26226    1.63525   49.05222    1.45431   47.17950
   2.27227    1.65454   49.21587    1.47072   47.32512
   2.28228    1.67413   49.38145    1.48737   47.47235
   2.29229    1.69403   49.54901    1.50426   47.62126
   2.30230    1.71424   49.71853    1.52140   47.77186
   2.31231    1.73476   49.89007    1.53880   47.92415
   2.32232    1.75562   50.06367    1.55645   48.07817
   2.33233    1.77681   50.23935    1.57438   48.23397
   2.34234    1.79834   50.41709    1.59258   48.39155
   2.35235    1.82022   50.59701    1.61106   48.55095
   2.36236    1.84246   50.77913    1.62982   48.71217
   2.37237    1.86506   50.96345    1.64887   48.87531
   2.38238    1.88804   51.15000    1.66822   49.04032
   2.39239    1.91140   51.33888    1.68788   49.20724
   2.40240    1.93516   51.53009    1.70785   49.37616
   2.41241    1.95931   51.72364    1.72813   49.54704
   2.42242    1.98388   51.91961    1.74874   49.71996
   2.43243    2.00886   52.11802    1.76969   49.89493
   2.44244    2.03428   52.31892    1.79097   50.07198
   2.45245    2.06014   52.52233    1.81260   50.25116
   2.46246    2.08645   52.72834    1.83459   50.43249
   2.47247    2.11322   52.93695    1.85695   50.61601
   2.48248    2.14047   53.14824    1.87967   50.80177
   2.49249    2.16821   53.36224    1.90278   50.98979
   2.50250    2.19644   53.57899    1.92628   51.18009
   2.51251    2.22519   53.79857    1.95018   51.37276
   2.52252    2.25446   54.02096    1.97449   51.56781
   2.53253    2.28426   54.24632    1.99922   51.76524
   2.54254    2.31462   54.47461    2.02438   51.96517
   2.55255    2.34554   54.70592    2.04999   52.16761
   2.56256    2.37705   54.94033    2.07604   52.37256
   2.57257    2.40915   55.17784    2.10256   52.58014
   2.58258    2.44186   55.41855    2.12955   52.79033
   2.59259    2.47519   55.66251    2.15703   53.00322
   2.60260    2.50917   55.90981    2.18500   53.21885
   2.61261    2.54382   56.16046    2.21349   53.43726
   2.62262    2.57914   56.41455    2.24251   53.65850
   2.63263    2.61516   56.67215    2.27206   53.88260
   2.64264    2.65190   56.93332    2.30216   54.10966
   2.65265    2.68937   57.19815    2.33284   54.33974
   2.66266    2.72760   57.46667    2.36409   54.57284
   2.67267    2.76661   57.73903    2.39594   54.80906
   2.68268    2.80642   58.01523    2.42840   55.04842
   2.69269    2.84706   58.29540    2.46150   55.29102
   2.70270    2.88854   58.57956    2.49524   55.53689
   2.71271    2.93089   58.86784    2.52965   55.78612
   2.72272    2.97414   59.16035    2.56473   56.03878
   2.73273    3.01832   59.45709    2.60052   56.29489
   2.74274    3.06345   59.75822    2.63704   56.55459
   2.75275    3.10955   60.06384    2.67429   56.81788
   2.76276    3.15666   60.37408    2.71231   57.08488
   2.77277    3.20482   60.68886    2.75111   57.35564
   2.78278    3.25404   61.00850    2.79072   57.63026
   2.79279    3.30437   61.33299    2.83116   57.90883
   2.80280    3.35584   61.66244    2.87246   58.19138
   2.81281    3.40848   61.99697    2.91464   58.47799
   2.82282    3.46233   62.33670    2.95772   58.76881
   2.83283    3.51743   62.68180    3.00174   59.06391
   2.84284    3.57382   63.03228    3.04672   59.36333
   2.85285    3.63154   63.38836    3.09269   59.66723
   2.86286    3.69064   63.75009    3.13968   59.97568
   2.87287    3.75115   64.11769    3.18773   60.28876
   2.88288    3.81313   64.49126    3.23686   60.60658
   2.89289    3.87663   64.87098    3.28712   60.92929
   2.90290    3.94170   65.25687    3.33853   61.25695
   2.91291    4.00839   65.64924    3.39113   61.58968
   2.92292    4.07675   66.04814    3.44496   61.92762
   2.93293    4.14685   66.45381    3.50007   62.27087
   2.94294    4.21874   66.86637    3.55649   62.61954
   2.95295    4.29250   67.28598    3.61427   62.97380
   2.96296    4.36818   67.71278    3.67345   63.33375
   2.97297    4.44585   68.14709    3.73408   63.69954
   2.98298    4.52559   68.58901    3.79621   64.07129
   2.99299    4.60748   69.03873    3.85989   64.44914
   3.00300    4.69159   69.49650    3.92517   64.83327
   3.01301    4.77800   69.96253    3.99212   65.22383
   3.02302    4.86680   70.43698    4.06078   65.62096
   3.03303    4.95809   70.92020    4.13123   66.02489
   3.04304    5.05197   71.41230    4.20352   66.43569
   3.05305    5.14852   71.91359    4.27772   66.85362
   3.06306    5.24785   72.42434    4.35391   67.27879
   3.07307    5.35009   72.94471    4.43215   67.71146
   3.08308    5.45534   73.47514    4.51252   68.15180
   3.09309    5.56372   74.01582    4.59511   68.60001
   3.10310    5.67537   74.56705    4.68000   69.05630
   3.11311    5.79042   75.12915    4.76727   69.52094
   3.12312    5.90902   75.70245    4.85702   69.99408
   3.13313    6.03131   76.28725    4.94936   70.47599
   3.14314    6.15745   76.88400    5.04437   70.96694
   3.15315    6.28761   77.49291    5.14217   71.46714
   3.16316    6.42197   78.11448    5.24288   71.97688
   3.17317    6.56071   78.74902    5.34660   72.49642
   3.18318    6.70403   79.39708    5.45348   73.02608
   3.19319    6.85214   80.05891    5.56364   73.56612
   3.20320    7.00526   80.73504    5.67722   74.11691
   3.21321    7.16362   81.42595    5.79436   74.67869
   3.22322    7.32748   82.13212    5.91524   75.25183
   3.23323    7.49708   82.85404    6.03999   75.83670
   3.24324    7.67272   83.59225    6.16882   76.43365
   3.25325    7.85468   84.34728    6.30188   77.04305
   3.26326    8.04329   85.11980    6.43939   77.66533
   3.27327    8.23886   85.91035    6.58154   78.30083
   3.28328    8.44178   86.71947    6.72856   78.95009
   3.29329    8.65240   87.54807    6.88067   79.61346
   3.30330    8.87114   88.39665    7.03812   80.29151
   3.31331    9.09841   89.26598    7.20117   80.98463
   3.32332    9.33470   90.15688    7.37010   81.69340
   3.33333    9.58049   91.07019    7.54519   82.41833
   3.34334    9.83630   92.00668    7.72677   83.15997
   3.35335   10.10270   92.96729    7.91517   83.91900
   3.36336   10.38029   93.95288    8.11075   84.69592
   3.37337   10.66973   94.96457    8.31387   85.49143
   3.38338   10.97171   96.00327    8.52495   86.30624
   3.39339   11.28698   97.07020    8.74443   87.14108
   3.40340   11.61635   98.16644    8.97276   87.99663
   3.41341   11.96067   99.29314    9.21043   88.87366
    3.4234    12.3209   100.4517     9.4580    89.7731
    3.4334    12.6981   101.6436     9.7160    90.6958
    3.4434    13.0932   102.8700     9.9851    91.6426
    3.4535    13.5076   104.1325    10.2659    92.6146
    3.4635    13.9425   105.4328    10.5592    93.6127
    3.4735    14.3992   106.7724    10.8657    94.6380
    3.4835    14.8794   108.1534    11.1862    95.6916
    3.4935    15.3846   109.5775    11.5216    96.7748
    3.5035    15.9167   111.0467    11.8729    97.8888
    3.5135    16.4777   112.5632    12.2412    99.0350
    3.5235    17.0696   114.1293    12.6275   100.2147
    3.5335    17.6949   115.7472    13.0332   101.4293
    3.5435    18.3561   117.4198    13.4595   102.6807
    3.5536    19.0562   119.1495    13.9079   103.9704
    3.5636    19.7981   120.9394    14.3801   105.3001
    3.5736    20.5855   122.7922    14.8777   106.6718
    3.5836    21.4220   124.7116    15.4028   108.0874
    3.5936    22.3121   126.7008    15.9573   109.5490
    3.6036    23.2602   128.7633    16.5435   111.0588
    3.6136    24.2717   130.9032    17.1641   112.6194
    3.6236    25.3525   133.1247    17.8218   114.2332
    3.6336    26.5088   135.4318    18.5197   115.9027
    3.6436    27.7481   137.8291    19.2611   117.6308
    3.6537    29.0785   140.3217    20.0500   119.4206
    3.6637    30.5090   142.9143    20.8904   121.2752
    3.6737    32.0501   145.6124    21.7872   123.1979
    3.6837    33.7132   148.4212    22.7453   125.1922
    3.6937    35.5116   151.3465    23.7709   127.2620
    3.7037    37.4602   154.3941    24.8704   129.4111
    3.7137    39.5759   157.5695    26.0511   131.6434
    3.7237    41.8779   160.8783    27.3212   133.9633
    3.7337    44.3885   164.3261    28.6903   136.3752
    3.7437    47.1327   167.9176    30.1689   138.8834
    3.7538    50.1393   171.6570    31.7689   141.4925
    3.7638    53.4414   175.5467    33.5039   144.2070
    3.7738    57.0773   179.5880    35.3895   147.0311
    3.7838    61.0905   183.7789    37.4434   149.9689
    3.7938    65.5311   188.1139    39.6857   153.0238
    3.8038    70.4566   192.5820    42.1395   156.1981
    3.8138    75.9331   197.1658    44.8315   159.4936
    3.8238    82.0354   201.8372    47.7919   162.9095
    3.8338    88.8479   206.5556    51.0554   166.4426
    3.8438    96.4648   211.2620    54.6613   170.0863
    3.8539   104.9898   215.8751    58.6551   173.8290
    3.8639   114.5327   220.2824    63.0875   177.6520
    3.8739   125.2047   224.3325    68.0153   181.5276
    3.8839   137.1120   227.8257    73.5014   185.4167
    3.8939   150.3388   230.5040    79.6134   189.2633
    3.9039   164.9288   232.0423    86.4216   192.9917
    3.9139   180.8542   232.0474    93.9942   196.5006
    3.9239   197.9802   230.0658   102.3928   199.6581
    3.9339   216.0188   225.6114   111.6598   202.2966
    3.9439   234.4924   218.2175   121.8053   204.2112
    3.9540   252.7124   207.5178   132.7878   205.1626
    3.9640   269.8007   193.3444   144.4947   204.8882
    3.9740   284.7555   175.8293   156.7184   203.1251
    3.9840   296.5801   155.4704   169.1447   199.6461
    3.9940   304.4412   133.1349   181.3519   194.3087
    4.0040   307.8264   109.9809   192.8385   187.1068
    4.0140   306.6544    87.3127   203.0721   178.2187
    4.0240   301.3062    66.3863   211.5728   168.0277
    4.0340   292.5593    48.2260   218.0054   157.1032
    4.0440   281.4442    33.4943   222.2611   146.1308
    4.0541   269.0702    22.4574   224.4976   135.8091
    4.0641   256.4703    15.0260   225.1232   126.7338
    4.0741   244.5020    10.8535   224.7297   119.3080
    4.0841   233.8080     9.4435   223.9973   113.6962
    4.0941   224.8309    10.2412   223.6015   109.8283
    4.1041   217.8474    12.6928   224.1420   107.4318
    4.1141   213.0114    16.2767   226.0980   106.0789
    4.1241   210.3934    20.5106   229.8065   105.2326
    4.1341   210.0069    24.9459   235.4525   104.2829
    4.1441   211.8239    29.1540   243.0603   102.5757
    4.1542   215.7794    32.7116   252.4823    99.4400
    4.1642   221.7642    35.1850   263.3804    94.2240
    4.1742   229.6072    36.1205   275.2141    86.3477
    4.1842   239.0474    35.0437   287.2425    75.3726
    4.1942   249.6980    31.4736   298.5617    61.0793
    4.2042   261.0051    24.9644   308.1737    43.5409
    4.2142   272.2259    15.1767   315.0975    23.1628
    4.2242   282.4402     1.9774   318.4946     0.6774
    4.2342   290.6248   -14.4607   317.7927   -22.9226
    4.2442   295.7869   -33.5896   312.7738   -46.4926
    4.2543   297.1369   -54.4999   303.6097   -68.8859
    4.2643   294.2472   -76.0261   290.8271   -89.1001
    4.2743   287.1328   -96.9298   275.2144  -106.3956
    4.2843   276.2345  -116.0892   257.6954  -120.3516
    4.2943   262.3104  -132.6546   239.1958  -130.8687
    4.3043   246.2847  -146.1226   220.5366  -138.1142
    4.3143   229.0934  -156.3343   202.3658  -142.4409
    4.3243   211.5719  -163.4126   185.1416  -144.2973
    4.3343   194.3848  -167.6754   169.1432  -144.1553
    4.3443   178.0060  -169.5444   154.5054  -142.4592
    4.3544   162.7288  -169.4707   141.2549  -139.5976
    4.3644   148.7032  -167.8824   129.3497  -135.8933
    4.3744   135.9717  -165.1571   118.7062  -131.6050
    4.3844   124.5034  -161.6093   109.2180  -126.9331
    4.3944   114.2254  -157.4918   100.7733  -122.0297
    4.4044   105.0418  -153.0018    93.2615  -117.0081
    4.4144    96.8487  -148.2890    86.5784  -111.9508
    4.4244    89.5413  -143.4648    80.6283  -106.9163
    4.4344    83.0213  -138.6107    75.3261  -101.9457
    4.4444    77.1983  -133.7852    70.5963   -97.0663
    4.4545    71.9910  -129.0294    66.3727   -92.2959
    4.4645    67.3268  -124.3705    62.5972   -87.6442
    4.4745    63.1424  -119.8263    59.2197   -83.1161
    4.4845    59.3823  -115.4076    56.1968   -78.7125
    4.4945    55.9982  -111.1199    53.4909   -74.4316
    4.5045    52.9480  -106.9643    51.0693   -70.2691
    4.5145    50.1954  -102.9397    48.9040   -66.2199
   4.52452   47.70878  -99.04299   46.97107  -62.27772
   4.53453   45.46094  -95.26976   45.24966  -58.43600
   4.54454   43.42802  -91.61438   43.72194  -54.68710
   4.55455   41.58966  -88.07103   42.37282  -51.02385
   4.56456   39.92812  -84.63350   41.18944  -47.43871
   4.57457   38.42819  -81.29543   40.16108  -43.92434
   4.58458   37.07657  -78.05003   39.27873  -40.47301
   4.59459   35.86209  -74.89107   38.53519  -37.07741
   4.60460   34.77510  -71.81215   37.92482  -33.73030
   4.61461   33.80755  -68.80727   37.44342  -30.42461
   4.62462   32.95265  -65.87010   37.08820  -27.15305
   4.63463   32.20493  -62.99494   36.85769  -23.90881
   4.64464   31.56011  -60.17629   36.75189  -20.68521
   4.65465   31.01497  -57.40860   36.77203  -17.47536
   4.66466   30.56736  -54.68676   36.92087  -14.27285
   4.67467   30.21625  -52.00603   37.20258  -11.07138
   4.68468   29.96159  -49.36205   37.62297   -7.86499
   4.69469   29.80440  -46.75052   38.18959   -4.64765
   4.70470   29.74679  -44.16798   38.91189   -1.41410
   4.71471   29.79197  -41.61156   39.80139    1.84047
   4.72472   29.94427  -39.07910   40.87205    5.12006
   4.73473   30.20917  -36.56941   42.14056    8.42798
   4.74474   30.59322  -34.08286   43.62657   11.76577
   4.75475   31.10395  -31.62130   45.35316   15.13323
   4.76476   31.74952  -29.18892   47.34721   18.52737
   4.77477   32.53851  -26.79218   49.64014   21.94213
   4.78478   33.47889  -24.44070   52.26782   25.36627
   4.79479   34.57710  -22.14743   55.27118   28.78228
   4.80480   35.83653  -19.92819   58.69609   32.16402
   4.81481   37.25602  -17.80087   62.59363   35.47449
   4.82482   38.82786  -15.78357   67.01804   38.66161
   4.83483   40.53739  -13.89085   72.02528   41.65465
   4.84484   42.36389  -12.12975   77.66840   44.35928
   4.85485   44.28495  -10.49479   83.99191   46.65329
   4.86486   46.28312   -8.96644   91.02037   48.38203
   4.87487   48.35502   -7.51276   98.74438   49.35792
    4.8849    50.5192    -6.0966   107.1032    49.3652
    4.8949    52.8188    -4.6872   115.9616    48.1741
    4.9049    55.3193    -3.2720   125.0933    45.5694
    4.9149    58.0998    -1.8659   134.1738    41.3939
    4.9249    61.2436    -0.5155   142.7996    35.5997
    4.9349    64.8270     0.6990   150.5371    28.2961
    4.9449    68.9111     1.6660   157.0054    19.7655
    4.9550    73.5333     2.2437   161.9648    10.4285
    4.9650    78.6989     2.2621   165.3799     0.7543
    4.9750    84.3679     1.5256   167.4160    -8.8516
    4.9850    90.4395    -0.1788   168.3728   -18.1452
    4.9950    96.7342    -3.0646   168.5731   -27.0824
    5.0050   102.9791    -7.3165   168.2523   -35.7923
    5.0150   108.8048   -13.0454   167.4825   -44.4926
    5.0250   113.7674   -20.2360   166.1540   -53.3840
    5.0350   117.4026   -28.7016   164.0160   -62.5485
    5.0450   119.3082   -38.0702   160.7664   -71.8874
    5.0551   119.2344   -47.8147   156.1645   -81.1151
    5.0651   117.1487   -57.3375   150.1260   -89.8231
    5.0751   113.2471   -66.0789   142.7657   -97.5823
    5.0851   107.9042   -73.6156   134.3709  -104.0487
    5.0951   101.5857   -79.7098   125.3314  -109.0266
    5.1051    94.7571   -84.3096   116.0519  -112.4823
    5.1151    87.8172   -87.5078   106.8863  -114.5144
    5.1251    81.0646   -89.4874    98.1010  -115.3046
    5.1351    74.6960   -90.4698    89.8709  -115.0702
    5.1451    68.8182   -90.6783    82.2903  -114.0292
    5.1552    63.4680   -90.3144    75.3912  -112.3788
    5.1652    58.6341   -89.5463    69.1644  -110.2867
    5.1752    54.2744   -88.5044    63.5746  -107.8885
    5.1852    50.3318   -87.2820    58.5729  -105.2904
    5.1952    46.7462   -85.9395    54.1040  -102.5735
   5.20520   43.46495  -84.51169   50.11280  -99.79826
   5.21522   40.44682  -83.01639   46.54645  -97.00916
   5.22522   37.66360  -81.46308   43.35633  -94.23813
   5.23523   35.09704  -79.85927   40.49813  -91.50717
   5.24524   32.73546  -78.21434   37.93285  -88.83158
   5.25526   30.56950  -76.53998   35.62599  -86.22107
   5.26526   28.58976  -74.84946   33.54734  -83.68168
   5.27527   26.78535  -73.15604   31.67037  -81.21619
   5.28528   25.14425  -71.47187   29.97218  -78.82571
   5.29530   23.65347  -69.80741   28.43274  -76.50971
   5.30531   22.29976  -68.17066   27.03473  -74.26670
   5.31531   21.07000  -66.56753   25.76286  -72.09429
   5.32533   19.95191  -65.00226   24.60400  -69.98980
   5.33534   18.93406  -63.47729   23.54662  -67.95022
   5.34535   18.00605  -61.99409   22.58071  -65.97250
   5.35536   17.15842  -60.55288   21.69737  -64.05312
   5.36537   16.38287  -59.15344   20.88893  -62.18896
   5.37538   15.67198  -57.79489   20.14863  -60.37673
   5.38539   15.01919  -56.47622   19.47054  -58.61335
   5.39540   14.41866  -55.19591   18.84940  -56.89561
   5.40541   13.86532  -53.95249   18.28062  -55.22048
   5.41541   13.35467  -52.74433   17.76018  -53.58525
   5.42543   12.88270  -51.56973   17.28449  -51.98695
   5.43544   12.44588  -50.42704   16.85043  -50.42294
   5.44545   12.04113  -49.31469   16.45526  -48.89066
   5.45545   11.66570  -48.23110   16.09659  -47.38768
   5.46547   11.31710  -47.17460   15.77228  -45.91141
   5.47548   10.99318  -46.14384   15.48054  -44.45965
   5.48549   10.69199  -45.13731   15.21978  -43.03015
   5.49549   10.41183  -44.15370   14.98870  -41.62074
   5.50551   10.15114  -43.19157   14.78613  -40.22919
   5.51552    9.90855  -42.24977   14.61117  -38.85348
   5.52553    9.68283  -41.32705   14.46307  -37.49157
   5.53553    9.47289  -40.42232   14.34131  -36.14153
   5.54555    9.27774  -39.53439   14.24547  -34.80126
   5.55556    9.09650  -38.66226   14.17535  -33.46886
   5.56557    8.92840  -37.80492   14.13092  -32.14241
   5.57558    8.77275  -36.96140   14.11229  -30.82000
   5.58559    8.62891  -36.13073   14.11978  -29.49959
   5.59560    8.49635  -35.31203   14.15385  -28.17929
   5.60561    8.37457  -34.50444   14.21517  -26.85711
   5.61562    8.26317  -33.70714   14.30460  -25.53112
   5.62563    8.16176  -32.91929   14.42321  -24.19916
   5.63564    8.07006  -32.14009   14.57229  -22.85926
   5.64565    7.98779  -31.36881   14.75339  -21.50930
   5.65566    7.91475  -30.60461   14.96833  -20.14704
   5.66567    7.85076  -29.84683   15.21921  -18.77030
   5.67568    7.79572  -29.09475   15.50849  -17.37678
   5.68569    7.74956  -28.34765   15.83899  -15.96420
   5.69570    7.71225  -27.60478   16.21396  -14.53001
   5.70571    7.68383  -26.86552   16.63714  -13.07181
   5.71572    7.66436  -26.12916   17.11280  -11.58703
   5.72573    7.65397  -25.39508   17.64580  -10.07316
   5.73574    7.65285  -24.66256   18.24182   -8.52748
   5.74575    7.66124  -23.93097   18.90726   -6.94742
   5.75576    7.67945  -23.19970   19.64953   -5.33041
   5.76577    7.70784  -22.46814   20.47707   -3.67403
   5.77578    7.74687  -21.73570   21.39971   -1.97585
   5.78579    7.79705  -21.00181   22.42865   -0.23394
   5.79580    7.85899  -20.26604   23.57684    1.55329
   5.80581    7.93337  -19.52798   24.85913    3.38668
   5.81582    8.02096  -18.78724   26.29288    5.26635
   5.82583    8.12258  -18.04369   27.89789    7.19092
   5.83584    8.23912  -17.29727   29.69706    9.15720
   5.84585    8.37144  -16.54821   31.71671   11.15945
   5.85586    8.52037  -15.79689   33.98725   13.18868
   5.86587    8.68655  -15.04403   36.54320   15.23101
   5.87588    8.87032  -14.29054   39.42373   17.26634
   5.88589    9.07155  -13.53760   42.67262   19.26607
   5.89590    9.28950  -12.78627   46.33842   21.19069
   5.90591    9.52266  -12.03748   50.47277   22.98590
   5.91592    9.76873  -11.29146   55.12859   24.57861
   5.92593   10.02492  -10.54733   60.35696   25.87231
   5.93594   10.28825   -9.80291   66.19965   26.74145
   5.94595   10.55618   -9.05445   72.68009   27.02705
   5.95596   10.82722   -8.29688   79.78869   26.53407
   5.96597   11.10145   -7.52403   87.46478   25.03348
   5.97598   11.38077   -6.72954   95.57170   22.27317
    5.9860    11.6689    -5.9072   103.8740    18.0019
    5.9960    11.9711    -5.0518   112.0194    12.0105
    6.0060    12.2939    -4.1590   119.5419     4.1878
    6.0160    12.6441    -3.2259   125.8921    -5.4139
    6.0260    13.0292    -2.2508   130.5113   -16.5293
    6.0360    13.4560    -1.2329   132.9340   -28.6708
    6.0460    13.9317    -0.1716   132.8941   -41.1808
    6.0561    14.4630     0.9329   130.3911   -53.3356
    6.0661    15.0567     2.0808   125.6911   -64.4769
    6.0761    15.7197     3.2723   119.2587   -74.1173
    6.0861    16.4597     4.5080   111.6511   -81.9922
    6.0961    17.2850     5.7884   103.4163   -88.0484
   6.10611   18.20567    7.11455   95.02049  -92.39533
   6.11612   19.23289    8.48685   86.81551  -95.24120
   6.12613   20.38017    9.90559   79.03658  -96.83634
   6.13614   21.66299   11.36998   71.82110  -97.43192
   6.14615   23.09933   12.87795   65.23109  -97.25652
   6.15616   24.70978   14.42564   59.27685  -96.50531
   6.16617   26.51823   16.00689   53.93507  -95.33743
   6.17618   28.55179   17.61219   49.16444  -93.87881
   6.18619   30.84127   19.22755   44.91464  -92.22662
   6.19620   33.42179   20.83332   41.13229  -90.45415
   6.20621   36.33228   22.40177   37.76580  -88.61616
   6.21622   39.61539   23.89473   34.76675  -86.75267
   6.22623   43.31630   25.26033   32.09120  -84.89268
   6.23624   47.48103   26.42927   29.69960  -83.05645
   6.24625   52.15184   27.30995   27.55728  -81.25809
   6.25626   57.36123   27.78418   25.63378  -79.50710
   6.26627   63.12191   27.70305   23.90259  -77.80946
   6.27628   69.41351   26.88553   22.34044  -76.16843
   6.28629   76.16262   25.12237   20.92731  -74.58575
   6.29630   83.22179   22.18896   19.64580  -73.06167
   6.30631   90.34828   17.87232   18.48079  -71.59559
   6.31632   97.19386   12.01289   17.41903  -70.18615
    6.3263   103.3132     4.5614    16.4491   -68.8317
    6.3363   108.2084    -4.3652    15.5610   -67.5302
    6.3463   111.4074   -14.4492    14.7460   -66.2795
    6.3564   112.5639   -25.1864    13.9965   -65.0775
    6.3664   111.5431   -35.9538    13.3057   -63.9218
    6.3764   108.4584   -46.1237    12.6678   -62.8102
    6.3864   103.6410   -55.1766    12.0775   -61.7407
   6.39640   97.55593  -62.77808   11.53021  -60.71094
   6.40641   90.70288  -68.79450   11.02193  -59.71905
   6.41642   83.53419  -73.26295   10.54904  -58.76311
   6.42643   76.40726  -76.33632   10.10830  -57.84118
   6.43644   69.57364  -78.22508    9.69685  -56.95163
   6.44645   63.18796  -79.15440    9.31216  -56.09272
   6.45646   57.32886  -79.33578    8.95194  -55.26297
   6.46647   52.02010  -78.95312    8.61412  -54.46084
   6.47648   47.25097  -78.15807    8.29686  -53.68501
   6.48649   42.98978  -77.07136    7.99852  -52.93412
   6.49650   39.19448  -75.78679    7.71759  -52.20701
   6.50651   35.81866  -74.37527    7.45272  -51.50244
   6.51652   32.81658  -72.88991    7.20267  -50.81940
   6.52653   30.14475  -71.36959    6.96636  -50.15683
   6.53654   27.76358  -69.84234    6.74276  -49.51383
   6.54655   25.63726  -68.32794    6.53095  -48.88942
   6.55656   23.73450  -66.84020    6.33011  -48.28276
   6.56657   22.02787  -65.38834    6.13945  -47.69309
   6.57658   20.49356  -63.97844    5.95830  -47.11963
   6.58659   19.11075  -62.61403    5.78600  -46.56166
   6.59660   17.86155  -61.29709    5.62196  -46.01851
   6.60661   16.73034  -60.02843    5.46566  -45.48959
   6.61662   15.70359  -58.80797    5.31659  -44.97424
   6.62663   14.76939  -57.63481    5.17430  -44.47193
   6.63664   13.91749  -56.50777    5.03837  -43.98210
   6.64665   13.13884  -55.42545    4.90840  -43.50426
   6.65666   12.42561  -54.38612    4.78405  -43.03797
   6.66667   11.77084  -53.38792    4.66498  -42.58268
   6.67668   11.16848  -52.42909    4.55087  -42.13806
   6.68669   10.61325  -51.50777    4.44146  -41.70368
   6.69670   10.10039  -50.62211    4.33646  -41.27911
   6.70671    9.62579  -49.77031    4.23563  -40.86401
   6.71672    9.18578  -48.95066    4.13875  -40.45804
   6.72673    8.77714  -48.16159    4.04561  -40.06088
   6.73674    8.39694  -47.40142    3.95599  -39.67218
   6.74675    8.04263  -46.66867    3.86973  -39.29164
   6.75676    7.71193  -45.96199    3.78663  -38.91901
   6.76677    7.40279  -45.27999    3.70655  -38.55402
   6.77678    7.11335  -44.62140    3.62933  -38.19640
   6.78679    6.84199  -43.98505    3.55482  -37.84587
   6.79680    6.58722  -43.36978    3.48290  -37.50222
   6.80681    6.34771  -42.77456    3.41343  -37.16525
   6.81682    6.12225  -42.19842    3.34631  -36.83473
   6.82683    5.90976  -41.64038    3.28142  -36.51044
   6.83684    5.70923  -41.09955    3.21866  -36.19215
   6.84685    5.51980  -40.57518    3.15792  -35.87975
   6.85686    5.34063  -40.06638    3.09912  -35.57301
   6.86687    5.17099  -39.57254    3.04218  -35.27180
   6.87688    5.01021  -39.09291    2.98701  -34.97594
   6.88689    4.85765  -38.62681    2.93352  -34.68521
   6.89690    4.71277  -38.17368    2.88165  -34.39955
   6.90691    4.57504  -37.73293    2.83134  -34.11877
   6.91692    4.44398  -37.30399    2.78251  -33.84272
   6.92693    4.31917  -36.88639    2.73510  -33.57129
   6.93694    4.20020  -36.47961    2.68905  -33.30436
   6.94695    4.08670  -36.08321    2.64431  -33.04174
   6.95696    3.97834  -35.69677    2.60084  -32.78340
   6.96697    3.87479  -35.31986    2.55856  -32.52916
   6.97698    3.77577  -34.95212    2.51745  -32.27896
   6.98699    3.68101  -34.59317    2.47745  -32.03267
   6.99700    3.59026  -34.24265    2.43851  -31.79017
   7.00701    3.50328  -33.90023    2.40062  -31.55140
   7.01702    3.41987  -33.56565    2.36371  -31.31623
   7.02703    3.33982  -33.23854    2.32776  -31.08459
   7.03704    3.26296  -32.91870    2.29273  -30.85639
   7.04705    3.18909  -32.60576    2.25858  -30.63153
   7.05706    3.11807  -32.29961    2.22529  -30.40995
   7.06707    3.04975  -31.99987    2.19283  -30.19156
   7.07708    2.98397  -31.70639    2.16115  -29.97628
   7.08709    2.92062  -31.41895    2.13025  -29.76404
   7.09710    2.85957  -31.13733    2.10009  -29.55478
   7.10711    2.80070  -30.86127    2.07064  -29.34839
   7.11712    2.74391  -30.59069    2.04189  -29.14486
   7.12713    2.68909  -30.32531    2.01380  -28.94408
   7.13714    2.63615  -30.06505    1.98636  -28.74603
   7.14715    2.58500  -29.80968    1.95955  -28.55061
   7.15716    2.53555  -29.55904    1.93334  -28.35775
   7.16717    2.48773  -29.31305    1.90772  -28.16747
   7.17718    2.44146  -29.07152    1.88266  -27.97964
   7.18719    2.39668  -28.83428    1.85815  -27.79422
   7.19720    2.35331  -28.60124    1.83418  -27.61120
   7.20721    2.31129  -28.37229    1.81072  -27.43048
   7.21722    2.27057  -28.14724    1.78776  -27.25202
   7.22723    2.23108  -27.92607    1.76528  -27.07581
   7.23724    2.19278  -27.70857    1.74327  -26.90174
   7.24725    2.15562  -27.49473    1.72173  -26.72985
   7.25726    2.11954  -27.28436    1.70062  -26.56003
   7.26727    2.08451  -27.07741    1.67994  -26.39224
   7.27728    2.05047  -26.87379    1.65968  -26.22648
   7.28729    2.01740  -26.67338    1.63982  -26.06269
   7.29730    1.98525  -26.47610    1.62036  -25.90081
   7.30731    1.95399  -26.28188    1.60128  -25.74084
   7.31732    1.92358  -26.09062    1.58257  -25.58272
   7.32733    1.89399  -25.90228    1.56422  -25.42642
   7.33734    1.86519  -25.71675    1.54623  -25.27192
   7.34735    1.83714  -25.53394    1.52857  -25.11914
   7.35736    1.80983  -25.35384    1.51125  -24.96811
   7.36737    1.78322  -25.17636    1.49425  -24.81876
   7.37738    1.75728  -25.00139    1.47757  -24.67105
   7.38739    1.73200  -24.82892    1.46119  -24.52499
   7.39740    1.70735  -24.65887    1.44511  -24.38051
   7.40741    1.68331  -24.49117    1.42933  -24.23761
   7.41742    1.65985  -24.32579    1.41382  -24.09626
   7.42743    1.63696  -24.16265    1.39860  -23.95641
   7.43744    1.61461  -24.00173    1.38364  -23.81806
   7.44745    1.59280  -23.84296    1.36894  -23.68117
   7.45746    1.57149  -23.68628    1.35450  -23.54569
   7.46747    1.55068  -23.53165    1.34031  -23.41165
   7.47748    1.53034  -23.37902    1.32637  -23.27899
   7.48749    1.51047  -23.22835    1.31266  -23.14769
   7.49750    1.49104  -23.07961    1.29918  -23.01774
   7.50751    1.47204  -22.93275    1.28593  -22.88910
   7.51752    1.45346  -22.78772    1.27290  -22.76176
   7.52753    1.43529  -22.64447    1.26009  -22.63571
   7.53754    1.41751  -22.50298    1.24748  -22.51089
   7.54755    1.40011  -22.36324    1.23508  -22.38733
   7.55756    1.38309  -22.22516    1.22288  -22.26498
   7.56757    1.36641  -22.08873    1.21088  -22.14380
   7.57758    1.35009  -21.95391    1.19907  -22.02383
   7.58759    1.33410  -21.82069    1.18745  -21.90499
   7.59760    1.31844  -21.68901    1.17601  -21.78731
   7.60761    1.30310  -21.55887    1.16475  -21.67076
   7.61762    1.28806  -21.43019    1.15367  -21.55530
   7.62763    1.27333  -21.30299    1.14275  -21.44094
   7.63764    1.25888  -21.17722    1.13201  -21.32764
   7.64765    1.24472  -21.05285    1.12143  -21.21539
   7.65766    1.23083  -20.92986    1.11101  -21.10419
   7.66767    1.21721  -20.80822    1.10074  -20.99401
   7.67768    1.20385  -20.68790    1.09063  -20.88485
   7.68769    1.19075  -20.56890    1.08067  -20.77667
   7.69770    1.17788  -20.45115    1.07086  -20.66947
   7.70771    1.16526  -20.33468    1.06119  -20.56325
   7.71772    1.15288  -20.21943    1.05167  -20.45798
   7.72773    1.14071  -20.10538    1.04228  -20.35363
   7.73774    1.12877  -19.99254    1.03302  -20.25021
   7.74775    1.11705  -19.88084    1.02390  -20.14771
   7.75776    1.10553  -19.77028    1.01491  -20.04609
   7.76777    1.09422  -19.66088    1.00605  -19.94537
   7.77778    1.08311  -19.55256    0.99731  -19.84550
   7.78779    1.07219  -19.44533    0.98870  -19.74652
   7.79780    1.06147  -19.33917    0.98021  -19.64838
   7.80781    1.05092  -19.23406    0.97183  -19.55106
   7.81782    1.04056  -19.12998    0.96357  -19.45457
   7.82783    1.03037  -19.02692    0.95542  -19.35891
   7.83784    1.02036  -18.92484    0.94738  -19.26405
   7.84785    1.01051  -18.82376    0.93946  -19.16997
   7.85786    1.00083  -18.72363    0.93164  -19.07668
   7.86787    0.99131  -18.62445    0.92392  -18.98415
   7.87788    0.98194  -18.52621    0.91631  -18.89239
   7.88789    0.97272  -18.42888    0.90880  -18.80138
   7.89790    0.96366  -18.33247    0.90139  -18.71110
   7.90791    0.95474  -18.23694    0.89407  -18.62156
   7.91792    0.94596  -18.14227    0.88685  -18.53275
   7.92793    0.93732  -18.04848    0.87973  -18.44464
   7.93794    0.92882  -17.95552    0.87270  -18.35723
   7.94795    0.92045  -17.86342    0.86576  -18.27053
   7.95796    0.91221  -17.77212    0.85891  -18.18451
   7.96797    0.90410  -17.68163    0.85214  -18.09915
   7.97798    0.89611  -17.59195    0.84546  -18.01449
   7.98799    0.88825  -17.50305    0.83887  -17.93046
   7.99800    0.88050  -17.41491    0.83236  -17.84709
   8.00801    0.87288  -17.32755    0.82593  -17.76436
   8.01802    0.86536  -17.24092    0.81958  -17.68227
   8.02803    0.85796  -17.15504    0.81331  -17.60081
   8.03804    0.85067  -17.06990    0.80712  -17.51996
   8.04805    0.84349  -16.98546    0.80100  -17.43973
   8.05806    0.83641  -16.90172    0.79496  -17.36010
   8.06807    0.82943  -16.81870    0.78899  -17.28107
   8.07808    0.82256  -16.73634    0.78310  -17.20262
   8.08809    0.81578  -16.65469    0.77728  -17.12477
   8.09810    0.80910  -16.57368    0.77153  -17.04748
   8.10811    0.80252  -16.49333    0.76584  -16.97076
   8.11812    0.79603  -16.41363    0.76023  -16.89461
   8.12813    0.78964  -16.33457    0.75468  -16.81902
   8.13814    0.78333  -16.25615    0.74920  -16.74396
   8.14815    0.77711  -16.17834    0.74378  -16.66946
   8.15816    0.77098  -16.10114    0.73842  -16.59548
   8.16817    0.76493  -16.02455    0.73313  -16.52204
   8.17818    0.75897  -15.94856    0.72790  -16.44912
   8.18819    0.75309  -15.87315    0.72274  -16.37672
   8.19820    0.74729  -15.79833    0.71763  -16.30483
   8.20821    0.74157  -15.72408    0.71258  -16.23345
   8.21822    0.73593  -15.65038    0.70759  -16.16256
   8.22823    0.73036  -15.57724    0.70266  -16.09217
   8.23824    0.72487  -15.50466    0.69778  -16.02226
   8.24825    0.71945  -15.43263    0.69296  -15.95284
   8.25826    0.71410  -15.36111    0.68820  -15.88390
   8.26827    0.70883  -15.29013    0.68349  -15.81542
   8.27828    0.70362  -15.21968    0.67883  -15.74742
   8.28829    0.69849  -15.14972    0.67422  -15.67988
   8.29830    0.69342  -15.08028    0.66967  -15.61279
   8.30831    0.68842  -15.01135    0.66517  -15.54615
   8.31832    0.68348  -14.94289    0.66072  -15.47995
   8.32833    0.67861  -14.87494    0.65632  -15.41420
   8.33834    0.67381  -14.80747    0.65196  -15.34888
   8.34835    0.66906  -14.74045    0.64766  -15.28400
   8.35836    0.66438  -14.67393    0.64340  -15.21954
   8.36837    0.65976  -14.60785    0.63920  -15.15550
   8.37838    0.65519  -14.54224    0.63503  -15.09188
   8.38839    0.65069  -14.47708    0.63092  -15.02868
   8.39840    0.64624  -14.41235    0.62685  -14.96587
   8.40841    0.64185  -14.34807    0.62282  -14.90348
   8.41842    0.63752  -14.28424    0.61884  -14.84148
   8.42843    0.63324  -14.22081    0.61490  -14.77987
   8.43844    0.62902  -14.15781    0.61101  -14.71866
   8.44845    0.62485  -14.09525    0.60716  -14.65783
   8.45846    0.62074  -14.03307    0.60335  -14.59739
   8.46847    0.61667  -13.97131    0.59958  -14.53732
   8.47848    0.61266  -13.90996    0.59585  -14.47763
   8.48849    0.60870  -13.84901    0.59217  -14.41830
   8.49850    0.60479  -13.78844    0.58852  -14.35934
   8.50851    0.60093  -13.72826    0.58492  -14.30074
   8.51852    0.59712  -13.66846    0.58135  -14.24250
   8.52853    0.59336  -13.60905    0.57782  -14.18462
   8.53854    0.58965  -13.54998    0.57434  -14.12708
   8.54855    0.58598  -13.49130    0.57089  -14.06989
   8.55856    0.58236  -13.43299    0.56747  -14.01304
   8.56857    0.57879  -13.37502    0.56410  -13.95653
   8.57858    0.57526  -13.31742    0.56076  -13.90035
   8.58859    0.57178  -13.26014    0.55746  -13.84450
   8.59860    0.56834  -13.20323    0.55419  -13.78899
   8.60861    0.56495  -13.14667    0.55096  -13.73380
   8.61862    0.56160  -13.09043    0.54777  -13.67893
   8.62863    0.55829  -13.03453    0.54461  -13.62437
   8.63864    0.55503  -12.97895    0.54149  -13.57013
   8.64865    0.55181  -12.92369    0.53840  -13.51619
   8.65866    0.54863  -12.86876    0.53535  -13.46257
   8.66867    0.54550  -12.81413    0.53233  -13.40924
   8.67868    0.54241  -12.75982    0.52934  -13.35622
   8.68869    0.53935  -12.70582    0.52639  -13.30349
   8.69870    0.53634  -12.65211    0.52347  -13.25106
   8.70871    0.53337  -12.59872    0.52059  -13.19892
   8.71872    0.53044  -12.54561    0.51774  -13.14706
   8.72873    0.52755  -12.49279    0.51492  -13.09548
   8.73874    0.52470  -12.44026    0.51213  -13.04419
   8.74875    0.52189  -12.38801    0.50938  -12.99317
   8.75876    0.51912  -12.33604    0.50666  -12.94243
   8.76877    0.51639  -12.28434    0.50397  -12.89195
   8.77878    0.51370  -12.23291    0.50131  -12.84175
   8.78879    0.51105  -12.18175    0.49869  -12.79180
   8.79880    0.50843  -12.13086    0.49609  -12.74212
   8.80881    0.50586  -12.08022    0.49353  -12.69270
   8.81882    0.50332  -12.02984    0.49100  -12.64352
   8.82883    0.50082  -11.97972    0.48851  -12.59461
   8.83884    0.49837  -11.92984    0.48604  -12.54593
   8.84885    0.49595  -11.88020    0.48360  -12.49751
   8.85886    0.49356  -11.83080    0.48120  -12.44932
   8.86887    0.49122  -11.78164    0.47883  -12.40138
   8.87888    0.48891  -11.73272    0.47649  -12.35368
   8.88889    0.48665  -11.68402    0.47418  -12.30620
   8.89890    0.48442  -11.63555    0.47191  -12.25895
   8.90891    0.48223  -11.58730    0.46966  -12.21194
   8.91892    0.48008  -11.53926    0.46745  -12.16514
   8.92893    0.47797  -11.49144    0.46527  -12.11857
   8.93894    0.47590  -11.44383    0.46312  -12.07221
   8.94895    0.47387  -11.39643    0.46101  -12.02606
   8.95896    0.47187  -11.34923    0.45892  -11.98013
   8.96897    0.46992  -11.30223    0.45687  -11.93441
   8.97898    0.46801  -11.25542    0.45486  -11.88889
   8.98899    0.46614  -11.20881    0.45287  -11.84357
   8.99900    0.46431  -11.16237    0.45092  -11.79845
   9.00901    0.46252  -11.11612    0.44901  -11.75352
   9.01902    0.46077  -11.07006    0.44713  -11.70879
   9.02903    0.45907  -11.02417    0.44528  -11.66424
   9.03904    0.45741  -10.97844    0.44347  -11.61988
   9.04905    0.45579  -10.93288    0.44170  -11.57570
   9.05906    0.45422  -10.88748    0.43996  -11.53169
   9.06907    0.45269  -10.84224    0.43826  -11.48787
   9.07908    0.45120  -10.79716    0.43659  -11.44421
   9.08909    0.44977  -10.75223    0.43497  -11.40072
   9.09910    0.44838  -10.70743    0.43338  -11.35739
   9.10911    0.44704  -10.66278    0.43183  -11.31422
   9.11912    0.44574  -10.61827    0.43033  -11.27121
   9.12913    0.44450  -10.57388    0.42886  -11.22835
   9.13914    0.44331  -10.52962    0.42744  -11.18563
   9.14915    0.44217  -10.48548    0.42607  -11.14307
   9.15916    0.44109  -10.44146    0.42473  -11.10064
   9.16917    0.44006  -10.39754    0.42345  -11.05835
   9.17918    0.43908  -10.35374    0.42221  -11.01619
   9.18919    0.43817  -10.31003    0.42102  -10.97416
   9.19920    0.43732  -10.26642    0.41988  -10.93224
   9.20921    0.43652  -10.22290    0.41880  -10.89045
   9.21922    0.43579  -10.17946    0.41777  -10.84877
   9.22923    0.43513  -10.13610    0.41679  -10.80720
   9.23924    0.43453  -10.09280    0.41588  -10.76572
   9.24925    0.43401  -10.04957    0.41502  -10.72435
   9.25926    0.43356  -10.00641    0.41423  -10.68307
   9.26927    0.43318   -9.96328    0.41350  -10.64186
   9.27928    0.43288   -9.92021    0.41284  -10.60075
   9.28929    0.43266   -9.87718    0.41226  -10.55970
   9.29930    0.43253   -9.83416    0.41175  -10.51872
   9.30931    0.43249   -9.79118    0.41132  -10.47781
   9.31932    0.43254   -9.74821    0.41097  -10.43695
   9.32933    0.43268   -9.70524    0.41071  -10.39613
   9.33934    0.43293   -9.66227    0.41054  -10.35535
   9.34935    0.43328   -9.61928    0.41047  -10.31460
   9.35936    0.43374   -9.57628    0.41050  -10.27388
   9.36937    0.43432   -9.53324    0.41064  -10.23317
   9.37938    0.43502   -9.49016    0.41089  -10.19246
   9.38939    0.43585   -9.44703    0.41127  -10.15175
   9.39940    0.43681   -9.40383    0.41178  -10.11102
   9.40941    0.43792   -9.36055    0.41242  -10.07027
   9.41942    0.43918   -9.31719    0.41321  -10.02948
  9.429429   0.440598  -9.273724   0.414164  -9.988645
  9.439439   0.442185  -9.230137   0.415283  -9.947745
  9.449449   0.443952  -9.186436   0.416583  -9.906771
  9.459459   0.445910  -9.142577   0.418077  -9.865706
  9.469469   0.448070  -9.098563   0.419782  -9.824544
  9.479480   0.450446  -9.054364   0.421712  -9.783256
  9.489489   0.453053  -9.009972   0.423885  -9.741837
  9.499498   0.455906  -8.965376   0.426323  -9.700263
  9.509509   0.459022  -8.920536   0.429047  -9.658523
  9.519519   0.462421  -8.875438   0.432082  -9.616590
  9.529529   0.466122  -8.830074   0.435455  -9.574447
  9.539539   0.470149  -8.784404   0.439198  -9.532067
  9.549549   0.474527  -8.738404   0.443344  -9.489433
  9.559559   0.479282  -8.692066   0.447932  -9.446523
  9.569570   0.484447  -8.645337   0.453005  -9.403302
  9.579579   0.490052  -8.598207   0.458612  -9.359749
  9.589589   0.496137  -8.550629   0.464808  -9.315832
  9.599599   0.502742  -8.502582   0.471653  -9.271527
  9.609609   0.509913  -8.454030   0.479219  -9.226805
  9.619619   0.517702  -8.404935   0.487585  -9.181628
  9.629629   0.526163  -8.355248   0.496841  -9.135970
  9.639639   0.535362  -8.304948   0.507089  -9.089797
  9.649650   0.545371  -8.253962   0.518449  -9.043075
  9.659659   0.556268  -8.202272   0.531054  -8.995788
  9.669669   0.568144  -8.149818   0.545060  -8.947901
  9.679679   0.581100  -8.096550   0.560642  -8.899401
  9.689689   0.595252  -8.042421   0.578005  -8.850273
  9.699699   0.610730  -7.987375   0.597385  -8.800519
  9.709709   0.627681  -7.931366   0.619052  -8.750156
  9.719719   0.646273  -7.874336   0.643318  -8.699233
  9.729730   0.666700  -7.816223   0.670544  -8.647818
  9.739739   0.689177  -7.757001   0.701139  -8.596032
  9.749749   0.713957  -7.696610   0.735577  -8.544067
  9.759759   0.741328  -7.635023   0.774396  -8.492174
  9.769769   0.771616  -7.572234   0.818191  -8.440738
  9.779779   0.805202  -7.508236   0.867636  -8.390279
  9.789789   0.842513  -7.443068   0.923440  -8.341532
  9.799799   0.884047  -7.376801   0.986355  -8.295446
  9.809810   0.930372  -7.309566   1.057111  -8.253334
  9.819819   0.982121  -7.241576   1.136322  -8.216884
  9.829829   1.040018  -7.173134   1.224388  -8.188254
  9.839839   1.104871  -7.104687   1.321285  -8.170126
  9.849849   1.177544  -7.036868   1.426275  -8.165680
  9.859859   1.258983  -6.970515   1.537625  -8.178486
  9.869869   1.350130  -6.906764   1.652178  -8.212170
  9.879879   1.451918  -6.847076   1.765122  -8.269867
  9.889890   1.565168  -6.793312   1.869930  -8.353382
  9.899899   1.690450  -6.747789   1.958754  -8.462224
  9.909909   1.827994  -6.713249   2.023497  -8.592813
  9.919920   1.977502  -6.692891   2.057320  -8.738279
  9.929930   2.137923  -6.690281   2.056264  -8.889110
  9.939939   2.307319  -6.709258   2.020317  -9.034863
  9.949949   2.482539  -6.753731   1.953421  -9.166012
  9.959959   2.659056  -6.827389   1.862406  -9.275665
  9.969970   2.830703  -6.933208   1.755366  -9.360240
  9.979980   2.989585  -7.072667   1.640159  -9.419219
  9.989989   3.126446  -7.244859   1.523324  -9.454405
  10.00000    3.23154   -7.44549    1.40968   -9.46893
# 
# 05/23/2017 at 21:58 YAMBO_MAGNETIC @ narro [start]
# 05/23/2017 at 21:58                        [end]
#  
# Timing   [Min/Max/Average]: 01s/01s/01s
#
# .-Input file : ../INPUTS/04_bse_magnetic
# | optics                       # [R OPT] Optics
# | bse                          # [R BSE] Bethe Salpeter Equation.
# | bsk                          # [R BSK] Bethe Salpeter Equation kernel
# | bss                          # [R BSS] Bethe Salpeter Equation solver
# | em1s                         # [R Xs] Static Inverse Dielectric Matrix
# | FFTGvecs=  363         RL    # [FFT] Plane-waves
# | X_Threads=  4                # [OPENMP/X] Number of threads for response functions
# | DIP_Threads=  4              # [OPENMP/X] Number of threads for dipoles
# | Chimod= "hartree"            # [X] IP/Hartree/ALDA/LRC/BSfxc
# | BSEmod= "retarded"           # [BSE] resonant/retarded/coupling
# | BSKmod= "SEX"                # [BSE] IP/Hartree/HF/ALDA/SEX/BSfxc
# | BSSmod= "d"                  # [BSS] (h)aydock/(d)iagonalization/(i)nversion/(t)ddft`
# | BSENGexx=  363         RL    # [BSK] Exchange components
# | BSENGBlk= 1            RL    # [BSK] Screened interaction block size
# | #WehCpl                      # [BSK] eh interaction included also in coupling
# | KfnQPdb= " E < 03_gw_magnetic/ndb.QP" # [EXTQP BSK BSS] Database
# | % BEnRange
# |   0.00000 | 10.00000 | eV    # [BSS] Energy range
# | %
# | % BDmRange
# |   0.10000 |  0.10000 | eV    # [BSS] Damping range
# | %
# | BEnSteps= 1000               # [BSS] Energy steps
# | % BLongDir
# | 0.1000E-4 | 0.000    | 0.000    |        # [BSS] [cc] Electric Field
# | %
# | % BSEBands
# |   1 |  7 |                   # [BSK] Bands range
# | %
# | % BndsRnXs
# |   1 |  7 |                   # [Xs] Polarization function bands
# | %
# | NGsBlkXs= 1            RL    # [Xs] Response block size
# | % DmRngeXs
# |   0.10000 |  0.10000 | eV    # [Xs] Damping range
# | %
# | % LongDrXs
# | 0.1000E-4 | 0.000    | 0.000    |        # [Xs] [cc] Electric Field
# | %
