#                                                           
# ooooo   oooo ..     ooo        ooo ooooooooo.    .oooo.   
#  `88.   .8" .88.    `88.       .88 `88"   `Y8b  dP"  `Yb  
#   `88. .8" .8"88.    888b     d"88  88     888 88      88 
#    `88.8" .8" `88.   8 Y88. .P  88  88oooo888" 88      88 
#     `88" .88ooo888.  8  `888"   88  88    `88b 88      88 
#      88 .8"     `88. 8    Y     88  88    .88P `8b    d8" 
#     o88o88o      888o8          88 o88bood8P"   `Ybod8P"  
#                                                           
#                                                           
#         Version 4.2.0 Revision 14319 Hash 8432f48         
#                   MPI+SLK+OpenMP Build                    
#                 http://www.yambo-code.org                 
#
# Polarizability ( -<<X>> ) [area @ Q(1) [q->0 direction]0.1000E-4  0.000     0.000   
#
#
# - Energies      are Slater exchange(X)+Perdew & Zunger(C)
# - Wavefunctions are Slater exchange(X)+Perdew & Zunger(C)
#
# - The Green`s function is Retarded -
# - Using the Length Gauge -
# - [r,Vnl] *is* included -
#
#   BSK|Identifier              :9149
#      |Dimension               :1656
#      |Bands                   :20 - 60
#      |Exchange           [res]: yes
#      |Correlation        [res]: no
#      |Kernel`s coupling       : no
#      |Exchange           [cpl]: no
#      |Correlation        [cpl]: no
#      |W interaction is bare   : no
#      |ALDA kernel in R-space  : yes
#      |RL vectors    [exchange]:107
#      |E/h energy range    [ev]:-1.000000 - -1.000000
#      |Coupling range     [o/o]: 100.0000 -  100.0000
#  
#   Haydock|Accuracy (requested) [o/o]:   0.0050
#          |Accuracy (reached)   [o/o]:   0.0049
#          |Iteration                 :74
#
#  E/ev[1]    ALPHA-Im[2]ALPHA-Re[3]ALPHAo-Im[4ALPHAo-Re[5ALPHA`-Im[6ALPHA`-Re[7]
#
   0.00000    0.00000   25.13114    0.00000   25.36478    0.00000   25.13114
 0.5025E-1  0.4406E-2   25.13     0.4433E-2   25.37     0.4406E-2   25.13   
 0.1005     0.8816E-2   25.14     0.8870E-2   25.37     0.8816E-2   25.14   
 0.1508     0.1323E-1   25.14     0.1331E-1   25.37     0.1323E-1   25.14   
 0.2010     0.1766E-1   25.15     0.1776E-1   25.38     0.1766E-1   25.15   
 0.2513     0.2209E-1   25.16     0.2223E-1   25.39     0.2209E-1   25.16   
   0.30151    0.02654   25.17104    0.02670   25.40491    0.02654   25.17104
   0.35176    0.03101   25.18549    0.03120   25.41945    0.03101   25.18549
   0.40201    0.03550   25.20218    0.03571   25.43625    0.03550   25.20218
   0.45226    0.04002   25.22114    0.04025   25.45531    0.04002   25.22114
   0.50251    0.04456   25.24237    0.04482   25.47667    0.04456   25.24237
   0.55276    0.04914   25.26590    0.04941   25.50032    0.04914   25.26590
   0.60302    0.05375   25.29172    0.05404   25.52629    0.05375   25.29172
   0.65327    0.05839   25.31987    0.05870   25.55460    0.05839   25.31987
   0.70352    0.06308   25.35036    0.06341   25.58525    0.06308   25.35036
   0.75377    0.06782   25.38321    0.06816   25.61827    0.06782   25.38321
   0.80402    0.07260   25.41846    0.07295   25.65370    0.07260   25.41846
   0.85427    0.07743   25.45612    0.07780   25.69153    0.07743   25.45612
   0.90452    0.08233   25.49621    0.08270   25.73182    0.08233   25.49621
   0.95477    0.08728   25.53879    0.08766   25.77459    0.08728   25.53879
   1.00503    0.09230   25.58386    0.09269   25.81985    0.09230   25.58386
   1.05528    0.09739   25.63147    0.09778   25.86766    0.09739   25.63147
   1.10553    0.10255   25.68165    0.10294   25.91803    0.10255   25.68165
   1.15578    0.10780   25.73444    0.10818   25.97102    0.10780   25.73444
   1.20603    0.11313   25.78989    0.11350   26.02665    0.11313   25.78989
   1.25628    0.11855   25.84804    0.11891   26.08500    0.11855   25.84804
   1.30653    0.12407   25.90893    0.12441   26.14606    0.12407   25.90893
   1.35678    0.12969   25.97261    0.13001   26.20992    0.12969   25.97261
   1.40704    0.13542   26.03913    0.13572   26.27659    0.13542   26.03913
   1.45729    0.14126   26.10857    0.14153   26.34619    0.14126   26.10857
   1.50754    0.14723   26.18097    0.14747   26.41872    0.14723   26.18097
   1.55779    0.15334   26.25639    0.15353   26.49425    0.15334   26.25639
   1.60804    0.15958   26.33491    0.15972   26.57286    0.15958   26.33491
   1.65829    0.16597   26.41660    0.16606   26.65460    0.16597   26.41660
   1.70854    0.17252   26.50153    0.17255   26.73958    0.17252   26.50153
   1.75879    0.17923   26.58978    0.17920   26.82784    0.17923   26.58978
   1.80905    0.18613   26.68145    0.18602   26.91947    0.18613   26.68145
   1.85930    0.19322   26.77662    0.19303   27.01457    0.19322   26.77662
   1.90955    0.20052   26.87540    0.20024   27.11324    0.20052   26.87540
   1.95980    0.20803   26.97789    0.20765   27.21557    0.20803   26.97789
   2.01005    0.21578   27.08421    0.21529   27.32168    0.21578   27.08421
   2.06030    0.22378   27.19447    0.22318   27.43166    0.22378   27.19447
   2.11055    0.23206   27.30880    0.23132   27.54567    0.23206   27.30880
   2.16080    0.24063   27.42735    0.23975   27.66382    0.24063   27.42735
   2.21106    0.24951   27.55027    0.24848   27.78626    0.24951   27.55027
   2.26131    0.25873   27.67772    0.25754   27.91315    0.25873   27.67772
   2.31156    0.26832   27.80987    0.26696   28.04468    0.26832   27.80987
   2.36181    0.27832   27.94692    0.27677   28.18099    0.27832   27.94692
   2.41206    0.28875   28.08908    0.28701   28.32233    0.28875   28.08908
   2.46231    0.29967   28.23656    0.29773   28.46891    0.29967   28.23656
   2.51256    0.31112   28.38963    0.30896   28.62096    0.31112   28.38963
   2.56281    0.32315   28.54856    0.32078   28.77874    0.32315   28.54856
   2.61307    0.33583   28.71364    0.33324   28.94258    0.33583   28.71364
   2.66332    0.34924   28.88523    0.34644   29.11280    0.34924   28.88523
   2.71357    0.36347   29.06369    0.36046   29.28978    0.36347   29.06369
   2.76382    0.37862   29.24944    0.37544   29.47396    0.37862   29.24944
   2.81407    0.39484   29.44297    0.39151   29.66581    0.39484   29.44297
   2.86432    0.41228   29.64482    0.40887   29.86591    0.41228   29.64482
   2.91457    0.43115   29.85563    0.42776   30.07493    0.43115   29.85563
   2.96482    0.45171   30.07614    0.44849   30.29364    0.45171   30.07614
   3.01508    0.47431   30.30721    0.47148   30.52298    0.47431   30.30721
   3.06533    0.49939   30.54987    0.49730   30.76410    0.49939   30.54987
   3.11558    0.52757   30.80538    0.52674   31.01838    0.52757   30.80538
   3.16583    0.55973   31.07529    0.56099   31.28762    0.55973   31.07529
   3.21608    0.59712   31.36153    0.60178   31.57407    0.59712   31.36153
   3.26633    0.64164   31.66656    0.65188   31.88066    0.64164   31.66656
   3.31658    0.69629   31.99355    0.71582   32.21123    0.69629   31.99355
   3.36683    0.76604   32.34662    0.80152   32.57062    0.76604   32.34662
   3.41709    0.85964   32.73089    0.92359   32.96434    0.85964   32.73089
   3.46734    0.99336   33.15175    1.11054   33.39514    0.99336   33.15175
   3.51759    1.19918   33.61016    1.41852   33.84710    1.19918   33.61016
   3.56784    1.53865   34.08095    1.93631   34.22149    1.53865   34.08095
   3.61809    2.09143   34.43247    2.61825   34.20467    2.09143   34.43247
   3.66834    2.70291   34.33945    2.82472   33.69690    2.70291   34.33945
   3.71859    2.71851   33.96498    2.39215   33.57800    2.71851   33.96498
   3.76884    2.34556   34.11066    2.08055   33.99681    2.34556   34.11066
   3.81910    2.22122   34.64256    2.10462   34.53117    2.22122   34.64256
   3.86935    2.41107   35.14886    2.31308   34.86759    2.41107   35.14886
   3.91960    2.61222   35.40195    2.30011   35.04207    2.61222   35.40195
   3.96985    2.55365   35.70774    2.11334   35.48530    2.55365   35.70774
   4.02010    2.48482   36.27236    2.06873   36.17542    2.48482   36.27236
   4.07035    2.55714   37.05042    2.24341   36.98201    2.55714   37.05042
   4.12060    2.92419   37.96182    2.70341   37.81348    2.92419   37.96182
   4.17085    3.70443   38.78676    3.52991   38.44847    3.70443   38.78676
   4.22111    4.78372   39.10712    4.43783   38.44455    4.78372   39.10712
   4.27136    5.40450   38.82512    4.55077   38.14634    5.40450   38.82512
   4.32161    5.39697   39.00483    4.32413   38.61848    5.39697   39.00483
   4.37186    5.91834   39.68831    4.69868   39.49565    5.91834   39.68831
   4.42211    6.96881   39.65799    5.61907   39.88896    6.96883   39.65797
   4.47236    6.98164   38.94950    5.97772   39.62041    6.98166   38.94957
   4.52261    6.18969   39.36083    5.64060   40.03080    6.18952   39.36077
   4.57286    6.03174   40.74474    5.74499   41.22412    6.03216   40.74454
   4.62312    6.82286   42.31640    6.66685   42.61419    6.82247   42.31744
   4.67337    8.47307   43.44564    8.45829   43.56960    8.47205   43.44331
   4.72362   10.33045   43.68645   10.50656   43.51129   10.33527   43.68805
   4.77387   11.88743   43.64537   12.05541   42.85402   11.87993   43.64878
   4.82412   14.01915   43.47137   13.58931   42.11263   14.02591   43.46019
   4.87437   16.34543   41.64010   14.92663   40.48907   16.34772   41.66068
   4.92462   17.14747   38.55196   15.65391   38.45428   17.12763   38.53354
   4.97487   15.53871   35.52823   14.96492   35.48843   15.56583   35.53176
   5.02513   12.47811   34.81857   12.03589   34.21854   12.45571   34.82373
   5.07538   10.31904   36.26441    9.82604   35.35760   10.33813   36.25896
   5.12563    9.82166   38.20894    9.34030   36.95592    9.80141   38.21268
   5.17588   10.27053   39.72833    9.68800   37.78668   10.29409   39.72514
   5.22613   11.50574   40.79604   10.14595   38.15229   11.47891   40.79893
   5.27638   13.22850   40.30913   10.66671   37.59125   13.25846   40.30642
   5.32663   13.00846   38.44625    9.72275   36.58606   12.97757   38.44822
   5.37688   11.14639   38.29497    7.96866   36.84055   11.17694   38.29633
   5.42714    9.96793   39.45583    6.65618   38.13773    9.93902   39.45038
   5.47739    9.43981   40.83560    6.08154   39.78952    9.46447   40.84589
   5.52764    9.03096   42.23737    6.08977   41.32516    9.01381   42.22210
   5.57789    8.80772   44.27023    6.31537   42.61049    8.81433   44.29056
   5.62814    9.48093   46.63531    6.62356   43.80765    9.48641   46.61161
   5.67839   10.94655   48.83700    7.12490   44.98589   10.92819   48.85959
   5.72864   13.36350   50.59285    7.79880   45.83593   13.39612   50.57652
   5.77889   16.10620   51.08332    8.25326   46.62270   16.06063   51.09051
   5.82915   18.57498   50.93499    8.99587   47.33610   18.62839   50.93969
   5.87940   20.63774   49.81758    9.36588   47.48129   20.58410   49.80074
   5.92965   21.82495   48.51733    9.13702   48.08882   21.86937   48.54580
   5.97990   21.83557   46.99807    9.09496   49.08423   21.80810   46.96204
   6.03015   21.09487   47.35196    9.07139   50.38355   21.10017   47.38990
   6.08040   21.88758   48.36523    9.72973   52.07959   21.90317   48.33377
   6.13065   23.46575   48.92306   11.16248   52.88804   23.43411   48.93786
   6.18090   25.62775   48.33364   11.44581   52.72035   25.66772   48.34144
   6.23116   27.24688   46.65797   10.79580   53.82544   27.21015   46.62759
   6.28141   27.39588   43.67162   11.10377   55.84803   27.41750   43.71809
   6.33166   25.19124   42.32273   12.36839   57.40752   25.19534   42.27147
   6.38191   23.84046   42.24553   13.49982   58.16341   23.80825   42.28933
   6.43216   21.58988   42.38809   14.33119   58.88944   21.64256   42.36695
   6.48241   19.73502   44.79902   15.01430   59.13255   19.67332   44.78424
   6.53266   19.76669   47.70007   14.47992   59.43508   19.82285   47.75397
   6.58291   21.27227   50.27588   13.55705   61.06939   21.24018   50.18836
   6.63317   23.86574   51.03444   13.26836   63.46812   23.86181   51.14676
   6.68342   25.34185   50.43340   13.43459   66.05276   25.38254   50.31413
   6.73367   26.00653   49.04073   13.76138   68.90051   25.93629   49.14920
   6.78392   24.02219   47.77388   14.44539   72.35318   24.10198   47.69521
   6.83417   20.89952   49.19746   16.09034   76.26633   20.82691   49.23071
   6.88442   18.80925   53.21021   18.98418   79.89710   18.86192   53.22200
   6.93467   19.28051   58.30283   22.57972   82.38814   19.26022   58.26071
   6.98492   21.94876   62.18521   25.75338   83.58483   21.92757   62.23759
   7.03518   24.19240   64.45975   27.36843   84.51498   24.25471   64.41810
   7.08543   26.04300   67.64306   27.78178   86.70084   25.94712   67.65338
   7.13568   29.16194   71.37988   27.93023   91.43761   29.27832   71.41328
   7.18593   34.60244   74.71607   30.67393   98.69700   34.48289   74.63000
    7.2362    41.3201    74.3047    36.9180   105.7361    41.4378    74.4415
    7.2864    45.0118    70.8260    45.4166   111.4804    44.9047    70.6665
    7.3367    43.3973    67.9348    56.4033   115.8547    43.4662    68.0899
    7.3869    39.9368    71.5456    70.6769   115.9029    39.9279    71.3998
    7.4372    40.5409    79.3231    80.7832   108.5590    40.4915    79.4564
    7.4874    46.0066    88.7326    83.6861   106.1239    46.1101    88.6266
    7.5377    58.5716    96.6334    94.9083   109.7223    58.4024    96.7021
    7.5879    75.9624    96.8432   115.6395   100.8824    76.2171    96.7910
    7.6382    91.4845    86.8903   124.5448    74.8183    91.1553    86.9798
    7.6884    95.2204    72.0838   110.8936    52.5963    95.5640    71.9218
   7.73869   92.11757   65.57026   89.88108   49.40306   91.80892   65.78961
   7.78894   93.09467   65.09888   77.24081   59.68201   93.34554   64.82966
   7.83920   98.36063   60.71233   74.61727   71.51440   98.21086   61.01997
   7.88945   98.84039   52.01757   76.20335   81.09289   98.85771   51.73912
   7.93970   90.44022   47.43790   78.24526   88.75611   90.49786   47.61831
    7.9899    82.6997    55.8811    78.0315   100.2429    82.6388    55.7782
    8.0402    86.0655    71.1441    83.5266   119.5831    86.1195    71.2110
    8.0905   100.8990    83.1000   100.4098   139.5230   100.8402    83.0626
    8.1407   119.1090    90.8408   122.2138   154.3797   119.1579    90.8424
    8.1910   149.4942   101.3438   147.3588   175.7768   149.4692   101.3568
    8.2412   207.9961    91.8179   198.3766   204.7668   208.0064    91.8052
    8.2915   258.6456    20.2795   294.6968   209.3832   258.6438    20.2898
    8.3417   234.7146   -62.6714   403.9163   130.5449   234.7112   -62.6770
    8.3920   189.7574  -100.1532   434.5272    -3.6167   189.7610  -100.1526
    8.4422   145.1005  -122.4685   400.9250  -124.9594   145.0995  -122.4671
    8.4925    98.3353  -122.2828   307.2537  -208.8788    98.3349  -122.2833
    8.5427    66.2524  -106.8162   206.1444  -217.2261    66.2526  -106.8162
    8.5930    47.3797   -89.3898   143.1294  -188.2624    47.3796   -89.3898
    8.6432    36.0016   -73.9973   110.2401  -154.4071    36.0016   -73.9973
    8.6935    28.7105   -60.7658    95.8999  -121.9896    28.7105   -60.7658
   8.74372   23.93190  -49.25028   98.54525  -92.50182   23.93190  -49.25028
    8.7940    20.7776   -39.0620   121.3006   -73.0145    20.7776   -39.0620
    8.8442    18.7231   -29.8371   160.0775   -85.6922    18.7231   -29.8371
    8.8945    17.4679   -21.2614   167.8050  -142.1059    17.4679   -21.2614
    8.9447    16.8468   -13.0661   122.9450  -178.1795    16.8468   -13.0661
    8.9950    16.7832    -5.0110    79.6276  -175.2601    16.7832    -5.0110
    9.0452    17.2678     3.1340    53.4310  -160.2694    17.2678     3.1340
    9.0955    18.3545    11.6077    38.2316  -144.9650    18.3545    11.6077
    9.1457    20.1721    20.6788    28.9206  -131.7575    20.1721    20.6788
    9.1960    22.9556    30.6708    22.8330  -120.6924    22.9556    30.6708
    9.2462    27.1117    41.9934    18.6207  -111.3995    27.1117    41.9934
    9.2965    33.3482    55.1783    15.5670  -103.5070    33.3482    55.1783
   9.34673   42.94053   70.90218   13.26885  -96.72054   42.94053   70.90218
   9.39699   58.29819   89.90889   11.48618  -90.81703   58.29819   89.90889
    9.4472    84.1944   112.4432    10.0687   -85.6273    84.1944   112.4432
    9.4975   130.1635   135.5490     8.9185   -81.0234   130.1635   135.5490
    9.5477   211.7068   142.1325     7.9691   -76.9066   211.7068   142.1325
    9.5980   323.0975    76.6614     7.1741   -73.1996   323.0975    76.6614
    9.6482   351.5509   -87.7445     6.5001   -69.8411   351.5509   -87.7445
    9.6985   251.1099  -195.5571     5.9227   -66.7816   251.1099  -195.5571
    9.7487   154.0694  -206.5572     5.4233   -63.9812   154.0694  -206.5572
    9.7990    96.8286  -186.5177     4.9880   -61.4069    96.8286  -186.5177
    9.8492    64.8073  -163.8106     4.6057   -59.0308    64.8073  -163.8106
    9.8995    45.9581  -144.4722     4.2678   -56.8303    45.9581  -144.4722
    9.9497    34.1186  -128.7705     3.9674   -54.7857    34.1186  -128.7705
   10.0000    26.3021  -116.0424     3.6990   -52.8805    26.3021  -116.0424
# 
# 03/01/2017 at 15:54 YAMBO @ anomaly [start]
# 03/01/2017 at 15:55                 [end]
#  
# Timing   [Min/Max/Average]: 43s/43s/43s
#
# .-Input file : yambo.in
# | optics                       # [R OPT] Optics
# | bse                          # [R BSE] Bethe Salpeter Equation.
# | bsk                          # [R BSK] Bethe Salpeter Equation kernel
# | bss                          # [R BSS] Bethe Salpeter Equation solver
# | tddft                        # [R   K] Use TDDFT kernel
# | FFTGvecs=  989         RL    # [FFT] Plane-waves
# | X_Threads= 1                 # [OPENMP/X] Number of threads for response functions
# | DIP_Threads= 1               # [OPENMP/X] Number of threads for dipoles
# | NonPDirs= "YZ"               # [X/BSS] Non periodic chartesian directions (X,Y,Z,XY...)
# | BSEmod= "retarded"           # [BSE] resonant/retarded/coupling
# | BSKmod= "ALDA"               # [BSE] IP/Hartree/HF/ALDA/SEX/BSfxc
# | BSSmod= "h"                  # [BSS] (h)aydock/(d)iagonalization/(i)nversion/(t)ddft`
# | BSENGexx= 107          RL    # [BSK] Exchange components
# | % BEnRange
# |   0.00000 | 10.00000 | eV    # [BSS] Energy range
# | %
# | % BDmRange
# |   0.10000 |  0.10000 | eV    # [BSS] Damping range
# | %
# | BEnSteps= 200                # [BSS] Energy steps
# | % BLongDir
# | 0.1000E-4 | 0.000    | 0.000    |        # [BSS] [cc] Electric Field
# | %
# | % BSEBands
# |   20 |  60 |                 # [BSK] Bands range
# | %
# | BSHayTrs=   0.0050           # [BSS] Relative [o/o] Haydock treshold. Strict(>0)/Average(<0)
