#                                                           
#                                                           
# Y88b    /   e           e    e      888~~\    ,88~-_      
#  Y88b  /   d8b         d8b  d8b     888   |  d888   \     
#   Y88b/   /Y88b       d888bdY88b    888 _/  88888    |    
#    Y8Y   /  Y88b     / Y88Y Y888b   888  \  88888    |    
#     Y   /____Y88b   /   YY   Y888b  888   |  Y888   /     
#    /   /      Y88b /          Y888b 888__/    `88_-~      
#                                                           
#                                                           
#       Version 4.2.0 Revision 14428 Hash 698a636           
#                  MPI+SLK+OpenMP Build                     
#               http://www.yambo-code.org                   
#
# Absorption @ Q(1) [q->0 direction] :0.1000E-4  0.000     0.000   
#
#
#
# - The Green`s function is Retarded -
# - Using the Length Gauge -
# - [r,Vnl] *is* included -
#
#
#    E/ev[1]      EPS-Im[2]    EPS-Re[3]
#
     0.00000      0.00000     35.66803
   0.1001E-1    0.8060E-2     35.67   
   0.2002E-1    0.1612E-1     35.67   
   0.3003E-1    0.2418E-1     35.67   
   0.4004E-1    0.3225E-1     35.67   
     0.05005      0.04032     35.67806
     0.06006      0.04840     35.68245
     0.07007      0.05649     35.68769
     0.08008      0.06458     35.69371
     0.09009      0.07269     35.70055
     0.10010      0.08081     35.70821
     0.11011      0.08893     35.71665
     0.12012      0.09708     35.72591
     0.13013      0.10523     35.73597
     0.14014      0.11341     35.74688
     0.15015      0.12160     35.75858
     0.16016      0.12981     35.77110
     0.17017      0.13804     35.78443
     0.18018      0.14630     35.79860
     0.19019      0.15457     35.81357
     0.20020      0.16287     35.82936
     0.21021      0.17120     35.84599
     0.22022      0.17955     35.86345
     0.23023      0.18793     35.88174
     0.24024      0.19634     35.90087
     0.25025      0.20478     35.92086
     0.26026      0.21326     35.94165
     0.27027      0.22177     35.96331
     0.28028      0.23031     35.98582
     0.29029      0.23889     36.00919
     0.30030      0.24751     36.03339
     0.31031      0.25617     36.05847
     0.32032      0.26487     36.08441
     0.33033      0.27361     36.11122
     0.34034      0.28240     36.13889
     0.35035      0.29123     36.16745
     0.36036      0.30011     36.19688
     0.37037      0.30904     36.22721
     0.38038      0.31802     36.25841
     0.39039      0.32706     36.29053
     0.40040      0.33615     36.32354
     0.41041      0.34529     36.35745
     0.42042      0.35449     36.39227
     0.43043      0.36375     36.42802
     0.44044      0.37307     36.46470
     0.45045      0.38245     36.50230
     0.46046      0.39190     36.54083
     0.47047      0.40142     36.58031
     0.48048      0.41100     36.62074
     0.49049      0.42065     36.66211
     0.50050      0.43038     36.70448
     0.51051      0.44018     36.74781
     0.52052      0.45005     36.79209
     0.53053      0.46001     36.83738
     0.54054      0.47004     36.88365
     0.55055      0.48016     36.93093
     0.56056      0.49036     36.97922
     0.57057      0.50065     37.02852
     0.58058      0.51103     37.07885
     0.59059      0.52150     37.13021
     0.60060      0.53207     37.18264
     0.61061      0.54273     37.23610
     0.62062      0.55349     37.29063
     0.63063      0.56435     37.34623
     0.64064      0.57532     37.40292
     0.65065      0.58639     37.46071
     0.66066      0.59757     37.51958
     0.67067      0.60886     37.57959
     0.68068      0.62027     37.64072
     0.69069      0.63180     37.70298
     0.70070      0.64344     37.76640
     0.71071      0.65521     37.83097
     0.72072      0.66711     37.89672
     0.73073      0.67914     37.96368
     0.74074      0.69130     38.03181
     0.75075      0.70359     38.10117
     0.76076      0.71603     38.17175
     0.77077      0.72861     38.24356
     0.78078      0.74133     38.31664
     0.79079      0.75421     38.39098
     0.80080      0.76724     38.46659
     0.81081      0.78043     38.54351
     0.82082      0.79378     38.62177
     0.83083      0.80730     38.70134
     0.84084      0.82098     38.78225
     0.85085      0.83484     38.86454
     0.86086      0.84888     38.94820
     0.87087      0.86310     39.03326
     0.88088      0.87751     39.11974
     0.89089      0.89212     39.20766
     0.90090      0.90691     39.29701
     0.91091      0.92192     39.38788
     0.92092      0.93712     39.48021
     0.93093      0.95255     39.57408
     0.94094      0.96818     39.66946
     0.95095      0.98405     39.76641
     0.96096      1.00014     39.86496
     0.97097      1.01646     39.96510
     0.98098      1.03303     40.06682
     0.99099      1.04985     40.17026
     1.00100      1.06691     40.27534
     1.01101      1.08424     40.38211
     1.02102      1.10184     40.49060
     1.03103      1.11971     40.60088
     1.04104      1.13786     40.71291
     1.05105      1.15630     40.82674
     1.06106      1.17504     40.94241
     1.07107      1.19409     41.05996
     1.08108      1.21344     41.17940
     1.09109      1.23312     41.30075
     1.10110      1.25313     41.42408
     1.11111      1.27347     41.54936
     1.12112      1.29417     41.67668
     1.13113      1.31522     41.80607
     1.14114      1.33664     41.93754
     1.15115      1.35844     42.07114
     1.16116      1.38063     42.20690
     1.17117      1.40322     42.34486
     1.18118      1.42622     42.48508
     1.19119      1.44964     42.62757
     1.20120      1.47350     42.77238
     1.21121      1.49781     42.91961
     1.22122      1.52258     43.06914
     1.23123      1.54783     43.22122
     1.24124      1.57356     43.37577
     1.25125      1.59980     43.53290
     1.26126      1.62656     43.69261
     1.27127      1.65385     43.85495
     1.28128      1.68169     44.02001
     1.29129      1.71011     44.18782
     1.30130      1.73910     44.35846
     1.31131      1.76871     44.53199
     1.32132      1.79893     44.70839
     1.33133      1.82980     44.88782
     1.34134      1.86134     45.07029
     1.35135      1.89355     45.25586
     1.36136      1.92648     45.44465
     1.37137      1.96014     45.63666
     1.38138      1.99455     45.83201
     1.39139      2.02974     46.03075
     1.40140      2.06574     46.23298
     1.41141      2.10258     46.43873
     1.42142      2.14027     46.64811
     1.43143      2.17886     46.86125
     1.44144      2.21838     47.07815
     1.45145      2.25885     47.29895
     1.46146      2.30030     47.52374
     1.47147      2.34280     47.75257
     1.48148      2.38635     47.98563
     1.49149      2.43100     48.22293
     1.50150      2.47680     48.46464
     1.51151      2.52378     48.71082
     1.52152      2.57200     48.96164
     1.53153      2.62150     49.21715
     1.54154      2.67232     49.47751
     1.55155      2.72452     49.74290
     1.56156      2.77816     50.01336
     1.57157      2.83329     50.28903
     1.58158      2.88998     50.57013
     1.59159      2.94827     50.85678
     1.60160      3.00826     51.14909
     1.61161      3.06999     51.44721
     1.62162      3.13355     51.75141
     1.63163      3.19901     52.06171
     1.64164      3.26647     52.37844
     1.65165      3.33600     52.70168
     1.66166      3.40769     53.03169
     1.67167      3.48165     53.36867
     1.68168      3.55797     53.71273
     1.69169      3.63678     54.06423
     1.70170      3.71817     54.42332
     1.71171      3.80229     54.79022
     1.72172      3.88924     55.16529
     1.73173      3.97918     55.54868
     1.74174      4.07226     55.94068
     1.75175      4.16862     56.34167
     1.76176      4.26843     56.75185
     1.77177      4.37188     57.17157
     1.78178      4.47916     57.60111
     1.79179      4.59046     58.04092
     1.80180      4.70599     58.49129
     1.81181      4.82601     58.95258
     1.82182      4.95075     59.42525
     1.83183      5.08049     59.90972
     1.84184      5.21549     60.40632
     1.85185      5.35609     60.91562
     1.86186      5.50260     61.43813
     1.87187      5.65538     61.97432
     1.88188      5.81483     62.52466
     1.89189      5.98134     63.08983
     1.90190      6.15538     63.67038
     1.91191      6.33744     64.26697
     1.92192      6.52803     64.88025
     1.93193      6.72773     65.51091
     1.94194      6.93718     66.15973
     1.95195      7.15703     66.82747
     1.96196      7.38804     67.51505
     1.97197      7.63103     68.22325
     1.98198      7.88686     68.95303
     1.99199      8.15652     69.70547
     2.00200      8.44105     70.48155
     2.01201      8.74167     71.28239
     2.02202      9.05963     72.10916
     2.03203      9.39639     72.96313
     2.04204      9.75350     73.84566
     2.05205     10.13273     74.75809
     2.06206     10.53603     75.70198
     2.07207     10.96555     76.67879
     2.08208     11.42373     77.69032
     2.09209     11.91326     78.73823
     2.10210     12.43718     79.82436
     2.11211     12.99888     80.95058
     2.12212     13.60222     82.11893
     2.13213     14.25152     83.33151
     2.14214     14.95167     84.59032
     2.15215     15.70821     85.89767
     2.16216     16.52750     87.25549
     2.17217     17.41668     88.66605
     2.18218     18.38400     90.13128
     2.19219     19.43886     91.65287
     2.20220     20.59202     93.23241
     2.21221     21.85580     94.87048
     2.22222     23.24449     96.56754
     2.23223     24.77430     98.32249
      2.2422      26.4641     100.1331
      2.2523      28.3352     101.9947
      2.2623      30.4124     103.9000
      2.2723      32.7234     105.8379
      2.2823      35.2999     107.7919
      2.2923      38.1768     109.7385
      2.3023      41.3924     111.6452
      2.3123      44.9868     113.4672
      2.3223      49.0009     115.1442
      2.3323      53.4715     116.5967
      2.3423      58.4265     117.7217
      2.3524      63.8755     118.3900
      2.3624      69.7975     118.4446
      2.3724      76.1240     117.7060
      2.3824      82.7200     115.9840
      2.3924      89.3674     113.1030
      2.4024      95.7559     108.9411
      2.4124     101.4973     103.4796
      2.4224     106.1671      96.8506
      2.4324     109.3786      89.3606
      2.4424     110.8697      81.4719
      2.4525     110.5728      73.7313
      2.4625     108.6356      66.6697
      2.4725     105.3821      60.7056
      2.4825     101.2350      56.0916
     2.49249     96.62891     52.90841
     2.50250     91.94736     51.10036
     2.51251     87.48922     50.52421
     2.52252     83.46474     50.99702
     2.53253     80.00704     52.33000
     2.54254     77.19189     54.34929
     2.55255     75.05599     56.90521
     2.56256     73.61338     59.87375
     2.57257     72.86715     63.15446
     2.58258     72.81797     66.66593
     2.59259     73.47004     70.34018
     2.60260     74.83455     74.11797
     2.61261     76.93194     77.94265
     2.62262     79.79331     81.75533
     2.63263     83.46008     85.48862
     2.64264     87.98395     89.06031
     2.65265     93.42356     92.36638
     2.66266     99.84067     95.27295
      2.6727     107.2918      97.6069
      2.6827     115.8163      99.1477
      2.6927     125.4163      99.6200
      2.7027     136.0310      98.6920
      2.7127     147.5005      95.9839
      2.7227     159.5269      91.0948
      2.7327     171.6367      83.6547
      2.7427     183.1662      73.4067
      2.7528     193.2861      60.3109
      2.7628     201.0950      44.6424
      2.7728     205.7692      27.0436
      2.7828     206.7487       8.4788
      2.7928     203.8791      -9.9106
      2.8028     197.4548     -27.0214
      2.8128     188.1378     -41.9846
      2.8228     176.7902     -54.2816
      2.8328     164.2979     -63.7515
      2.8428     151.4335     -70.5188
      2.8529     138.7898     -74.8893
      2.8629     126.7702     -77.2508
      2.8729     115.6116     -78.0013
      2.8829     105.4262     -77.5061
     2.89289     96.23770    -76.07718
     2.90290     88.01540    -73.96916
     2.91291     80.69620    -71.38280
     2.92292     74.20295    -68.47238
     2.93293     68.45336    -65.35426
     2.94294     63.36723    -62.11465
     2.95295     58.86953    -58.81622
     2.96296     54.89203    -55.50395
     2.97297     51.37403    -52.20923
     2.98298     48.26210    -48.95333
     2.99299     45.50954    -45.75018
     3.00300     43.07610    -42.60785
     3.01301     40.92682    -39.53063
     3.02302     39.03187    -36.51986
     3.03303     37.36556    -33.57428
     3.04304     35.90621    -30.69172
     3.05305     34.63525    -27.86844
     3.06306     33.53719    -25.10023
     3.07307     32.59896    -22.38193
     3.08308     31.81000    -19.70844
     3.09309     31.16162    -17.07434
     3.10310     30.64713    -14.47381
     3.11311     30.26161    -11.90140
     3.12312     30.00176     -9.35128
     3.13313     29.86586     -6.81794
     3.14314     29.85380     -4.29566
     3.15315     29.96705     -1.77904
     3.16316     30.20865      0.73724
     3.17317     30.58338      3.25817
     3.18318     31.09786      5.78864
     3.19319     31.76062      8.33286
     3.20320     32.58248     10.89465
     3.21321     33.57656     13.47698
     3.22322     34.75883     16.08178
     3.23323     36.14822     18.70936
     3.24324     37.76727     21.35823
     3.25325     39.64227     24.02406
     3.26326     41.80405     26.69889
     3.27327     44.28812     29.36973
     3.28328     47.13530     32.01704
     3.29329     50.39156     34.61229
     3.30330     54.10830     37.11523
     3.31331     58.34079     39.47004
     3.32332     63.14690     41.60096
     3.33333     68.58257     43.40665
     3.34334     74.69596     44.75449
     3.35335     81.51702     45.47470
     3.36336     89.04153     45.35659
     3.37337     97.21108     44.14960
      3.3834     105.8851      41.5736
      3.3934     114.8138      37.3438
      3.4034     123.6142      31.2162
      3.4134     131.7685      23.0529
      3.4234     138.6590      12.8973
      3.4334     143.6481       1.0380
      3.4434     146.2017     -11.9765
      3.4535     146.0153     -25.3956
      3.4635     143.0959     -38.3962
      3.4735     137.7600     -50.2343
      3.4835     130.5486     -60.3728
      3.4935     122.1002     -68.5348
      3.5035     113.0286     -74.6871
      3.5135     103.8454     -78.9742
     3.52352     94.92632    -81.64344
     3.53353     86.51571    -82.98052
     3.54354     78.74799    -83.26522
     3.55355     71.67847    -82.74680
     3.56356     65.30823    -81.63459
     3.57357     59.60575    -80.09731
     3.58358     54.52098    -78.26657
     3.59359     49.99680    -76.24319
     3.60360     45.97464    -74.10288
     3.61361     42.39768    -71.90127
     3.62362     39.21381    -69.67913
     3.63363     36.37582    -67.46550
     3.64364     33.84177    -65.28083
     3.65365     31.57451    -63.13889
     3.66366     29.54182    -61.04885
     3.67367     27.71553    -59.01629
     3.68368     26.07129    -57.04430
     3.69369     24.58773    -55.13387
     3.70370     23.24656    -53.28489
     3.71371     22.03178    -51.49625
     3.72372     20.92962    -49.76625
     3.73373     19.92789    -48.09254
     3.74374     19.01617    -46.47274
     3.75375     18.18530    -44.90422
     3.76376     17.42733    -43.38431
     3.77377     16.73518    -41.91016
     3.78378     16.10279    -40.47913
     3.79379     15.52475    -39.08857
     3.80380     14.99639    -37.73592
     3.81381     14.51352    -36.41859
     3.82382     14.07250    -35.13417
     3.83383     13.67013    -33.88036
     3.84384     13.30361    -32.65495
     3.85385     12.97044    -31.45567
     3.86386     12.66847    -30.28049
     3.87387     12.39581    -29.12744
     3.88388     12.15079    -27.99451
     3.89389     11.93200    -26.87986
     3.90390     11.73823    -25.78167
     3.91391     11.56846    -24.69823
     3.92392     11.42182    -23.62774
     3.93393     11.29762    -22.56854
     3.94394     11.19533    -21.51900
     3.95395     11.11457    -20.47755
     3.96396     11.05510    -19.44247
     3.97397     11.01681    -18.41224
     3.98398     10.99976    -17.38526
     3.99399     11.00414    -16.35999
     4.00400     11.03029    -15.33474
     4.01401     11.07871    -14.30796
     4.02402     11.15004    -13.27802
     4.03403     11.24512    -12.24332
     4.04404     11.36497    -11.20209
     4.05405     11.51079    -10.15265
     4.06406     11.68403     -9.09328
     4.07407     11.88637     -8.02217
     4.08408     12.11977     -6.93743
     4.09409     12.38648     -5.83717
     4.10410     12.68909     -4.71951
     4.11411     13.03063     -3.58235
     4.12412     13.41450     -2.42369
     4.13413     13.84464     -1.24143
     4.14414     14.32555     -0.03355
     4.15415     14.86246      1.20218
     4.16416     15.46129      2.46777
     4.17417     16.12889      3.76522
     4.18418     16.87307      5.09632
     4.19419     17.70296      6.46280
     4.20420     18.62895      7.86585
     4.21421     19.66312      9.30622
     4.22422     20.81926     10.78384
     4.23423     22.11355     12.29774
     4.24424     23.56443     13.84531
     4.25425     25.19324     15.42196
     4.26426     27.02436     17.02030
     4.27427     29.08598     18.62930
     4.28428     31.40977     20.23269
     4.29429     34.03139     21.80747
     4.30430     36.99006     23.32148
     4.31431     40.32835     24.73097
     4.32432     44.08969     25.97658
     4.33433     48.31599     26.97957
     4.34434     53.04214     27.63738
     4.35435     58.28860     27.81937
     4.36436     64.04850     27.36443
     4.37437     70.27175     26.08228
     4.38438     76.84558     23.76226
     4.39439     83.57211     20.19402
     4.40440     90.15388     15.20265
     4.41441     96.19434      8.69965
      4.4244     101.2285       0.7380
      4.4344     104.7871      -8.4425
      4.4444     106.4900     -18.4118
      4.4545     106.1390     -28.5985
      4.4645     103.7703     -38.3925
     4.47447     99.64573    -47.25636
     4.48448     94.18256    -54.81501
     4.49449     87.85796    -60.88780
     4.50450     81.12113    -65.47054
     4.51451     74.34022    -68.68382
     4.52452     67.78161    -70.71793
     4.53453     61.61538    -71.78653
     4.54454     55.93277    -72.09556
     4.55455     50.76887    -71.82706
     4.56456     46.12059    -71.13297
     4.57457     41.96239    -70.13498
     4.58458     38.25603    -68.92818
     4.59459     34.95880    -67.58498
     4.60460     32.02720    -66.15971
     4.61461     29.41977    -64.69250
     4.62462     27.09797    -63.21241
     4.63463     25.02741    -61.74036
     4.64464     23.17750    -60.29105
     4.65465     21.52116    -58.87439
     4.66466     20.03496    -57.49697
     4.67467     18.69846    -56.16295
     4.68468     17.49399    -54.87459
     4.69469     16.40611    -53.63275
     4.70470     15.42158    -52.43748
     4.71471     14.52892    -51.28823
     4.72472     13.71825    -50.18394
     4.73473     12.98088    -49.12328
     4.74474     12.30942    -48.10493
     4.75475     11.69741    -47.12738
     4.76476     11.13927    -46.18941
     4.77477     10.63001    -45.28968
     4.78478     10.16534    -44.42722
     4.79479      9.74129    -43.60128
     4.80480      9.35421    -42.81138
     4.81481      9.00044    -42.05717
     4.82482      8.67627    -41.33866
     4.83483      8.37765    -40.65575
     4.84484      8.10011    -40.00817
     4.85485      7.83877    -39.39484
     4.86486      7.58863    -38.81390
     4.87487      7.34504    -38.26205
     4.88488      7.10430    -37.73498
     4.89489      6.86426    -37.22755
     4.90490      6.62454    -36.73474
     4.91491      6.38628    -36.25232
     4.92492      6.15154    -35.77729
     4.93493      5.92271    -35.30803
     4.94494      5.70192    -34.84406
     4.95495      5.49074    -34.38573
     4.96496      5.29008    -33.93369
     4.97497      5.10034    -33.48880
     4.98498      4.92144    -33.05181
     4.99499      4.75304    -32.62334
     5.00500      4.59458    -32.20383
     5.01501      4.44544    -31.79354
     5.02502      4.30497    -31.39261
     5.03503      4.17250    -31.00105
     5.04504      4.04741    -30.61872
     5.05505      3.92913    -30.24554
     5.06506      3.81712    -29.88126
     5.07507      3.71090    -29.52568
     5.08508      3.61002    -29.17854
     5.09509      3.51408    -28.83959
     5.10510      3.42272    -28.50855
     5.11511      3.33563    -28.18518
     5.12512      3.25249    -27.86917
     5.13514      3.17305    -27.56029
     5.14514      3.09706    -27.25832
     5.15515      3.02431    -26.96298
     5.16516      2.95458    -26.67402
     5.17518      2.88769    -26.39126
     5.18518      2.82349    -26.11448
     5.19519      2.76180    -25.84343
     5.20520      2.70249    -25.57796
     5.21522      2.64544    -25.31786
     5.22522      2.59051    -25.06295
     5.23523      2.53760    -24.81304
     5.24524      2.48660    -24.56799
     5.25526      2.43741    -24.32761
     5.26526      2.38995    -24.09178
     5.27527      2.34414    -23.86035
     5.28528      2.29989    -23.63313
     5.29530      2.25714    -23.41005
     5.30531      2.21582    -23.19094
     5.31531      2.17586    -22.97570
     5.32533      2.13720    -22.76418
     5.33534      2.09980    -22.55629
     5.34535      2.06360    -22.35191
     5.35536      2.02855    -22.15095
     5.36537      1.99461    -21.95328
     5.37538      1.96174    -21.75883
     5.38539      1.92989    -21.56749
     5.39540      1.89904    -21.37915
     5.40541      1.86914    -21.19375
     5.41541      1.84017    -21.01120
     5.42543      1.81209    -20.83140
     5.43544      1.78488    -20.65428
     5.44545      1.75852    -20.47976
     5.45545      1.73298    -20.30778
     5.46547      1.70825    -20.13824
     5.47548      1.68429    -19.97106
     5.48549      1.66110    -19.80622
     5.49549      1.63867    -19.64362
     5.50551      1.61698    -19.48317
     5.51552      1.59601    -19.32486
     5.52553      1.57577    -19.16856
     5.53553      1.55624    -19.01426
     5.54555      1.53743    -18.86187
     5.55556      1.51932    -18.71135
     5.56557      1.50194    -18.56262
     5.57558      1.48527    -18.41563
     5.58559      1.46934    -18.27032
     5.59560      1.45415    -18.12666
     5.60561      1.43972    -17.98453
     5.61562      1.42607    -17.84392
     5.62563      1.41323    -17.70477
     5.63564      1.40123    -17.56702
     5.64565      1.39011    -17.43062
     5.65566      1.37992    -17.29551
     5.66567      1.37071    -17.16164
     5.67568      1.36256    -17.02897
     5.68569      1.35553    -16.89746
     5.69570      1.34973    -16.76704
     5.70571      1.34526    -16.63770
     5.71572      1.34224    -16.50941
     5.72573      1.34082    -16.38216
     5.73574      1.34118    -16.25593
     5.74575      1.34351    -16.13076
     5.75576      1.34804    -16.00668
     5.76577      1.35503    -15.88380
     5.77578      1.36479    -15.76224
     5.78579      1.37764    -15.64219
     5.79580      1.39396    -15.52397
     5.80581      1.41414    -15.40798
     5.81582      1.43860    -15.29478
     5.82583      1.46772    -15.18511
     5.83584      1.50183    -15.07994
     5.84585      1.54107    -14.98056
     5.85586      1.58536    -14.88846
     5.86587      1.63415    -14.80549
     5.87588      1.68630    -14.73362
     5.88589      1.73983    -14.67482
     5.89590      1.79181    -14.63068
     5.90591      1.83839    -14.60189
     5.91592      1.87510    -14.58778
     5.92593      1.89754    -14.58584
     5.93594      1.90224    -14.59182
     5.94595      1.88752    -14.60018
     5.95596      1.85398    -14.60514
     5.96597      1.80428    -14.60172
     5.97598      1.74249    -14.58652
     5.98599      1.67313    -14.55801
     5.99600      1.60041    -14.51629
     6.00601      1.52771    -14.46259
     6.01602      1.45747    -14.39872
     6.02603      1.39120    -14.32674
     6.03604      1.32970    -14.24854
     6.04605      1.27326    -14.16581
     6.05606      1.22182    -14.07993
     6.06607      1.17511    -13.99207
     6.07608      1.13277    -13.90306
     6.08609      1.09437    -13.81356
     6.09610      1.05951    -13.72406
     6.10611      1.02779    -13.63492
     6.11612      0.99886    -13.54640
     6.12613      0.97237    -13.45866
     6.13614      0.94804    -13.37184
     6.14615      0.92563    -13.28603
     6.15616      0.90489    -13.20127
     6.16617      0.88565    -13.11758
     6.17618      0.86773    -13.03498
     6.18619      0.85098    -12.95347
     6.19620      0.83528    -12.87302
     6.20621      0.82052    -12.79365
     6.21622      0.80659    -12.71530
     6.22623      0.79342    -12.63798
     6.23624      0.78093    -12.56164
     6.24625      0.76905    -12.48627
     6.25626      0.75774    -12.41184
     6.26627      0.74693    -12.33834
     6.27628      0.73659    -12.26572
     6.28629      0.72667    -12.19397
     6.29630      0.71714    -12.12307
     6.30631      0.70797    -12.05299
     6.31632      0.69914    -11.98371
     6.32633      0.69061    -11.91520
     6.33634      0.68237    -11.84747
     6.34635      0.67439    -11.78047
     6.35636      0.66666    -11.71419
     6.36637      0.65916    -11.64862
     6.37638      0.65188    -11.58374
     6.38639      0.64480    -11.51953
     6.39640      0.63791    -11.45597
     6.40641      0.63120    -11.39307
     6.41642      0.62466    -11.33079
     6.42643      0.61829    -11.26911
     6.43644      0.61206    -11.20805
     6.44645      0.60598    -11.14758
     6.45646      0.60004    -11.08768
     6.46647      0.59423    -11.02834
     6.47648      0.58855    -10.96956
     6.48649      0.58298    -10.91133
     6.49650      0.57753    -10.85362
     6.50651      0.57219    -10.79645
     6.51652      0.56695    -10.73979
     6.52653      0.56181    -10.68362
     6.53654      0.55678    -10.62797
     6.54655      0.55183    -10.57279
     6.55656      0.54697    -10.51809
     6.56657      0.54220    -10.46386
     6.57658      0.53752    -10.41010
     6.58659      0.53291    -10.35680
     6.59660      0.52838    -10.30394
     6.60661      0.52393    -10.25152
     6.61662      0.51955    -10.19954
     6.62663      0.51525    -10.14799
     6.63664      0.51101    -10.09685
     6.64665      0.50683    -10.04613
    6.656656     0.502728    -9.995818
    6.666667     0.498684    -9.945909
    6.676676     0.494702    -9.896390
    6.686686     0.490779    -9.847265
    6.696696     0.486915    -9.798526
    6.706707     0.483107    -9.750168
    6.716716     0.479354    -9.702184
    6.726726     0.475656    -9.654567
    6.736736     0.472010    -9.607307
    6.746747     0.468415    -9.560408
    6.756756     0.464871    -9.513865
    6.766766     0.461376    -9.467670
    6.776776     0.457929    -9.421816
    6.786787     0.454530    -9.376302
    6.796797     0.451176    -9.331122
    6.806807     0.447867    -9.286278
    6.816816     0.444602    -9.241762
    6.826826     0.441381    -9.197559
    6.836837     0.438202    -9.153675
    6.846847     0.435065    -9.110106
    6.856857     0.431968    -9.066846
    6.866867     0.428912    -9.023892
    6.876876     0.425895    -8.981239
    6.886887     0.422916    -8.938881
    6.896896     0.419976    -8.896825
    6.906906     0.417073    -8.855055
    6.916917     0.414206    -8.813573
    6.926927     0.411376    -8.772370
    6.936936     0.408581    -8.731451
    6.946947     0.405821    -8.690802
    6.956956     0.403096    -8.650432
    6.966967     0.400404    -8.610331
    6.976976     0.397746    -8.570495
    6.986986     0.395121    -8.530925
    6.996997     0.392528    -8.491606
    7.007007     0.389967    -8.452550
    7.017016     0.387437    -8.413747
    7.027027     0.384939    -8.375190
    7.037036     0.382471    -8.336884
    7.047047     0.380034    -8.298821
    7.057057     0.377626    -8.260999
    7.067067     0.375249    -8.223418
    7.077077     0.372900    -8.186071
    7.087087     0.370580    -8.148951
    7.097096     0.368289    -8.112074
    7.107107     0.366027    -8.075415
    7.117116     0.363792    -8.038981
    7.127127     0.361585    -8.002764
    7.137137     0.359405    -7.966775
    7.147147     0.357254    -7.930995
    7.157157     0.355128    -7.895429
    7.167167     0.353030    -7.860074
    7.177176     0.350958    -7.824928
    7.187187     0.348912    -7.789989
    7.197196     0.346893    -7.755248
    7.207206     0.344899    -7.720716
    7.217217     0.342932    -7.686377
    7.227227     0.340990    -7.652229
    7.237237     0.339074    -7.618275
    7.247247     0.337183    -7.584517
    7.257257     0.335318    -7.550943
    7.267267     0.333478    -7.517555
    7.277277     0.331663    -7.484347
    7.287287     0.329874    -7.451322
    7.297297     0.328109    -7.418476
    7.307307     0.326370    -7.385802
    7.317317     0.324656    -7.353301
    7.327327     0.322967    -7.320972
    7.337337     0.321303    -7.288814
    7.347347     0.319664    -7.256813
    7.357357     0.318051    -7.224987
    7.367367     0.316463    -7.193311
    7.377377     0.314900    -7.161801
    7.387387     0.313363    -7.130442
    7.397398     0.311851    -7.099233
    7.407407     0.310366    -7.068177
    7.417417     0.308907    -7.037274
    7.427427     0.307474    -7.006511
    7.437437     0.306067    -6.975893
    7.447447     0.304688    -6.945419
    7.457457     0.303336    -6.915078
    7.467467     0.302011    -6.884875
    7.477477     0.300714    -6.854801
    7.487487     0.299446    -6.824860
    7.497497     0.298206    -6.795044
    7.507507     0.296996    -6.765357
    7.517517     0.295815    -6.735784
    7.527527     0.294665    -6.706336
    7.537538     0.293546    -6.677001
    7.547547     0.292458    -6.647779
    7.557557     0.291403    -6.618671
    7.567567     0.290382    -6.589665
    7.577577     0.289394    -6.560766
    7.587587     0.288441    -6.531967
    7.597597     0.287525    -6.503262
    7.607607     0.286646    -6.474655
    7.617618     0.285805    -6.446136
    7.627627     0.285004    -6.417698
    7.637637     0.284244    -6.389356
    7.647647     0.283526    -6.361084
    7.657657     0.282852    -6.332889
    7.667668     0.282225    -6.304766
    7.677677     0.281644    -6.276710
    7.687687     0.281114    -6.248719
    7.697698     0.280636    -6.220787
    7.707707     0.280211    -6.192904
    7.717717     0.279844    -6.165074
    7.727727     0.279536    -6.137292
    7.737737     0.279291    -6.109537
    7.747747     0.279112    -6.081829
    7.757758     0.279002    -6.054135
    7.767767     0.278966    -6.026473
    7.777778     0.279007    -5.998824
    7.787787     0.279130    -5.971178
    7.797797     0.279341    -5.943540
    7.807807     0.279644    -5.915895
    7.817817     0.280045    -5.888236
    7.827827     0.280552    -5.860560
    7.837838     0.281170    -5.832848
    7.847847     0.281909    -5.805107
    7.857858     0.282776    -5.777308
    7.867867     0.283782    -5.749459
    7.877877     0.284936    -5.721542
    7.887888     0.286251    -5.693545
    7.897897     0.287738    -5.665456
    7.907907     0.289412    -5.637266
    7.917918     0.291290    -5.608961
    7.927927     0.293387    -5.580520
    7.937938     0.295725    -5.551940
    7.947948     0.298323    -5.523198
    7.957957     0.301207    -5.494281
    7.967968     0.304404    -5.465166
    7.977978     0.307945    -5.435841
    7.987987     0.311862    -5.406292
    7.997998     0.316197    -5.376483
    8.008007     0.320990    -5.346406
    8.018017     0.326294    -5.316036
    8.028028     0.332163    -5.285351
    8.038037     0.338661    -5.254330
    8.048048     0.345861    -5.222946
    8.058058     0.353846    -5.191186
    8.068068     0.362711    -5.159025
    8.078078     0.372567    -5.126442
    8.088088     0.383536    -5.093431
    8.098097     0.395764    -5.059982
    8.108108     0.409418    -5.026092
    8.118117     0.424687    -4.991780
    8.128128     0.441793    -4.957068
    8.138138     0.460990    -4.922018
    8.148148     0.482567    -4.886709
    8.158158     0.506862    -4.851270
    8.168168     0.534248    -4.815891
    8.178178     0.565154    -4.780836
    8.188188     0.600051    -4.746472
    8.198197     0.639444    -4.713311
    8.208207     0.683862    -4.682046
    8.218218     0.733825    -4.653577
    8.228228     0.789767    -4.629114
    8.238238     0.851978    -4.610173
    8.248248     0.920429    -4.598654
    8.258258     0.994617    -4.596809
    8.268268     1.073314    -4.607163
    8.278277     1.154289    -4.632292
    8.288287     1.234140    -4.674409
    8.298298     1.308247    -4.734795
    8.308308     1.371053    -4.813115
    8.318318     1.416827    -4.906841
    8.328328     1.440720    -5.011087
    8.338338     1.439934    -5.119148
    8.348349     1.414457    -5.223619
    8.358357     1.367080    -5.317760
    8.368367     1.302637    -5.396692
    8.378378     1.226857    -5.457882
    8.388388     1.145304    -5.500962
    8.398398     1.062594    -5.527214
    8.408408     0.982158    -5.538851
    8.418418     0.906214    -5.538451
    8.428429     0.835996    -5.528529
    8.438438     0.772027    -5.511347
    8.448447     0.714320    -5.488801
    8.458458     0.662595    -5.462422
    8.468468     0.616414    -5.433403
    8.478477     0.575262    -5.402668
    8.488488     0.538606    -5.370893
    8.498498     0.505943    -5.338601
    8.508509     0.476798    -5.306150
    8.518518     0.450750    -5.273816
    8.528528     0.427417    -5.241786
    8.538538     0.406463    -5.210184
    8.548548     0.387601    -5.179101
    8.558558     0.370575    -5.148588
    8.568568     0.355162    -5.118671
    8.578578     0.341174    -5.089366
    8.588589     0.328442    -5.060682
    8.598598     0.316824    -5.032599
    8.608608     0.306193    -5.005113
    8.618618     0.296438    -4.978200
    8.628628     0.287467    -4.951848
    8.638638     0.279196    -4.926030
    8.648648     0.271550    -4.900725
    8.658658     0.264467    -4.875916
    8.668669     0.257890    -4.851574
    8.678679     0.251770    -4.827683
    8.688688     0.246062    -4.804221
    8.698699     0.240728    -4.781168
    8.708708     0.235734    -4.758508
    8.718718     0.231048    -4.736219
    8.728728     0.226644    -4.714289
    8.738738     0.222497    -4.692698
    8.748748     0.218586    -4.671435
    8.758759     0.214890    -4.650482
    8.768768     0.211392    -4.629827
    8.778779     0.208077    -4.609455
    8.788789     0.204930    -4.589359
    8.798798     0.201938    -4.569522
    8.808808     0.199090    -4.549938
    8.818818     0.196374    -4.530598
    8.828828     0.193782    -4.511486
    8.838839     0.191305    -4.492602
    8.848848     0.188934    -4.473930
    8.858859     0.186662    -4.455469
    8.868869     0.184483    -4.437204
    8.878879     0.182391    -4.419137
    8.888888     0.180379    -4.401251
    8.898898     0.178443    -4.383547
    8.908908     0.176579    -4.366020
    8.918919     0.174781    -4.348656
    8.928928     0.173047    -4.331458
    8.938939     0.171371    -4.314419
    8.948949     0.169751    -4.297533
    8.958959     0.168184    -4.280795
    8.968968     0.166666    -4.264199
    8.978978     0.165196    -4.247750
    8.988988     0.163770    -4.231436
    8.998999     0.162387    -4.215251
    9.009008     0.161043    -4.199196
    9.019018     0.159738    -4.183270
    9.029029     0.158469    -4.167463
    9.039039     0.157234    -4.151781
    9.049048     0.156033    -4.136210
    9.059058     0.154863    -4.120756
    9.069068     0.153723    -4.105410
    9.079079     0.152612    -4.090175
    9.089088     0.151528    -4.075045
    9.099098     0.150471    -4.060019
    9.109109     0.149440    -4.045094
    9.119119     0.148433    -4.030264
    9.129129     0.147449    -4.015535
    9.139139     0.146488    -4.000902
    9.149148     0.145550    -3.986358
    9.159159     0.144633    -3.971904
    9.169168     0.143736    -3.957542
    9.179178     0.142860    -3.943265
    9.189189     0.142003    -3.929074
    9.199199     0.141165    -3.914968
    9.209209     0.140346    -3.900939
    9.219219     0.139545    -3.886992
    9.229229     0.138762    -3.873123
    9.239239     0.137997    -3.859333
    9.249249     0.137249    -3.845616
    9.259258     0.136519    -3.831972
    9.269269     0.135806    -3.818400
    9.279279     0.135110    -3.804900
    9.289289     0.134431    -3.791471
    9.299299     0.133769    -3.778104
    9.309309     0.133125    -3.764806
    9.319319     0.132499    -3.751573
    9.329329     0.131890    -3.738405
    9.339338     0.131300    -3.725297
    9.349349     0.130728    -3.712250
    9.359359     0.130176    -3.699261
    9.369369     0.129644    -3.686330
    9.379379     0.129133    -3.673456
    9.389389     0.128643    -3.660633
    9.399399     0.128177    -3.647867
    9.409409     0.127736    -3.635149
    9.419418     0.127321    -3.622485
    9.429429     0.126934    -3.609869
    9.439439     0.126577    -3.597300
    9.449449     0.126253    -3.584777
    9.459459     0.125965    -3.572298
    9.469469     0.125716    -3.559866
    9.479480     0.125511    -3.547472
    9.489489     0.125353    -3.535123
    9.499498     0.125249    -3.522812
    9.509509     0.125203    -3.510546
    9.519519     0.125225    -3.498320
    9.529529     0.125321    -3.486141
    9.539539     0.125502    -3.474004
    9.549549     0.125778    -3.461918
    9.559559     0.126161    -3.449891
    9.569570     0.126666    -3.437928
    9.579579     0.127307    -3.426044
    9.589589     0.128101    -3.414255
    9.599599     0.129064    -3.402589
    9.609609     0.130210    -3.391073
    9.619619     0.131554    -3.379749
    9.629629     0.133098    -3.368669
    9.639639     0.134837    -3.357899
    9.649650     0.136747    -3.347510
    9.659659     0.138776    -3.337586
    9.669669     0.140839    -3.328200
    9.679679     0.142814    -3.319413
    9.689689     0.144541    -3.311246
    9.699699     0.145841    -3.303659
    9.709709     0.146543    -3.296538
    9.719719     0.146518    -3.289708
    9.729730     0.145715    -3.282938
    9.739739     0.144173    -3.276007
    9.749749     0.142010    -3.268723
    9.759759     0.139394    -3.260963
    9.769769     0.136505    -3.252678
    9.779779     0.133505    -3.243882
    9.789789     0.130524    -3.234632
    9.799799     0.127651    -3.225000
    9.809810     0.124942    -3.215068
    9.819819     0.122424    -3.204913
    9.829829     0.120106    -3.194599
    9.839839     0.117983    -3.184178
    9.849849     0.116046    -3.173696
    9.859859     0.114277    -3.163183
    9.869869     0.112662    -3.152669
    9.879879     0.111183    -3.142165
    9.889890     0.109825    -3.131692
    9.899899     0.108573    -3.121254
    9.909909     0.107416    -3.110862
    9.919920     0.106342    -3.100520
    9.929930     0.105341    -3.090230
    9.939939     0.104405    -3.079995
    9.949949     0.103525    -3.069814
    9.959959     0.102695    -3.059689
    9.969970     0.101911    -3.049620
    9.979980     0.101166    -3.039607
    9.989989     0.100457    -3.029648
    10.00000      0.09978     -3.01974
# 
# 04/10/2017 at 17:09 YAMBO_RT @ anomaly [start]
# 04/10/2017 at 17:09                    [end]
#
# .-Input file : yambo.in
# | optics                       # [R OPT] Optics
# | bse                          # [R BSE] Bethe Salpeter Equation.
# | BoseTemp= 0.000000     eV    # Bosonic Temperature
# | FFTGvecs=  387         RL    # [FFT] Plane-waves
# | X_Threads= 1                 # [OPENMP/X] Number of threads for response functions
# | DIP_Threads= 1               # [OPENMP/X] Number of threads for dipoles
# | K_Threads= 1                 # [OPENMP/BSK] Number of threads for response functions
# | BSEmod= "retarded"           # [BSE] resonant/retarded/coupling
# | BSKmod= "IP"                 # [BSE] IP/Hartree/HF/ALDA/SEX/BSfxc
# | RfnRTdb= "f @ 0.1 ps < 04_elel+elph_0K/ndb.RT_carriers" # [EXTRT R] Database
# | % BEnRange
# |   0.00000 | 10.00000 | eV    # [BSS] Energy range
# | %
# | % BDmRange
# |   0.10000 |  0.10000 | eV    # [BSS] Damping range
# | %
# | BEnSteps= 1000               # [BSS] Energy steps
# | % BLongDir
# | 0.1000E-4 | 0.000    | 0.000    |        # [BSS] [cc] Electric Field
# | %
# | % BSEBands
# |   2 |  7 |                   # [BSK] Bands range
# | %
