#                                                           
#  /$$     /$$ /$$$$$$  /$$      /$$ /$$$$$$$   /$$$$$$     
# |  $$   /$$//$$__  $$| $$$    /$$$| $$__  $$ /$$__  $$    
#  \  $$ /$$/| $$  \ $$| $$$$  /$$$$| $$  \ $$| $$  \ $$    
#   \  $$$$/ | $$$$$$$$| $$ $$/$$ $$| $$$$$$$ | $$  | $$    
#    \  $$/  | $$__  $$| $$  $$$| $$| $$__  $$| $$  | $$    
#     | $$   | $$  | $$| $$\  $ | $$| $$  \ $$| $$  | $$    
#     | $$   | $$  | $$| $$ \/  | $$| $$$$$$$/|  $$$$$$/    
#     |__/   |__/  |__/|__/     |__/|_______/  \______/     
#                                                           
#       Version 4.2.0 Revision 14600 Hash 48c5260           
#                  MPI+SLK+OpenMP Build                     
#               http://www.yambo-code.org                   
#
# Absorption @ Q(1) [q->0 direction] :0.1000E-4  0.000     0.000   
#
#
# - Energies      are  E < 08_cohsex_eq/ndb.QP + E Fit
# - Wavefunctions are Slater exchange(X)+Perdew & Zunger(C)
#
# - The Green`s function is Retarded -
# - Using the Length Gauge -
# - [r,Vnl] *is* included -
#
#   BSK|Identifier              :7783
#      |Dimension               :100
#      |Bands                   :2 - 7
#      |Exchange           [res]: yes
#      |Correlation        [res]: yes
#      |Kernel`s coupling       : no
#      |Exchange           [cpl]: no
#      |Correlation        [cpl]: no
#      |W interaction is bare   : no
#      |ALDA kernel in R-space  : no
#      |RL vectors    [exchange]:531
#      |RL vectors [correlation]:59
#      |E/h energy range    [ev]:-1.000000 - -1.000000
#      |Coupling range     [o/o]: 100.0000 -  100.0000
#    W |Interaction is diagonal : no
#      |Matrix size             :59
#      |Bands                   :1 - 8
#      |e/h energy range    [ev]:-1.000000 - -1.000000
#      |Poles              [o/o]: 100.0000
#      |RL vectors in the sum   :387
#      |[r,Vnl] included        : yes
#      |Field direction         :0.1000E-4  0.000000  0.000000
#      |Coulomb Cutoff          :none
#      |xc-Kernel               :none
#   RIM|RL components      [col]:0
#      |Random points      [col]:0
#  
#   Haydock|Accuracy (requested) [o/o]:  0.02000
#          |Accuracy (reached)   [o/o]:  0.01030
#          |Iteration                 :28
#
#    E/ev[1]      EPS-Im[2]    EPS-Re[3]    EPSo-Im[4]   EPSo-Re[5]   EPS`-Im[6]   EPS`-Re[7]
#
     0.00000      0.00000     27.44223      0.00000     23.43287      0.00000     27.44223
   0.2004E-1    0.6775E-2     27.44       0.4144E-2     23.43       0.6775E-2     27.44   
   0.4008E-1    0.1355E-1     27.44       0.8290E-2     23.43       0.1355E-1     27.44   
   0.6012E-1    0.2033E-1     27.45       0.1244E-1     23.44       0.2033E-1     27.45   
   0.8016E-1    0.2712E-1     27.45       0.1659E-1     23.44       0.2712E-1     27.45   
   0.1002       0.3392E-1     27.46       0.2074E-1     23.44       0.3392E-1     27.46   
   0.1202       0.4073E-1     27.47       0.2490E-1     23.45       0.4073E-1     27.47   
     0.14028      0.04755     27.47544      0.02907     23.45320      0.04755     27.47544
     0.16032      0.05438     27.48563      0.03324     23.45943      0.05438     27.48563
     0.18036      0.06124     27.49718      0.03742     23.46650      0.06124     27.49718
     0.20040      0.06811     27.51011      0.04161     23.47440      0.06811     27.51011
     0.22044      0.07501     27.52441      0.04580     23.48314      0.07501     27.52441
     0.24048      0.08192     27.54009      0.05001     23.49272      0.08192     27.54009
     0.26052      0.08887     27.55716      0.05423     23.50315      0.08887     27.55716
     0.28056      0.09584     27.57562      0.05847     23.51442      0.09584     27.57562
     0.30060      0.10285     27.59548      0.06271     23.52653      0.10285     27.59548
     0.32064      0.10989     27.61673      0.06698     23.53951      0.10989     27.61673
     0.34068      0.11696     27.63940      0.07126     23.55334      0.11696     27.63940
     0.36072      0.12408     27.66349      0.07555     23.56801      0.12408     27.66349
     0.38076      0.13123     27.68900      0.07986     23.58355      0.13123     27.68900
     0.40080      0.13843     27.71594      0.08420     23.59995      0.13843     27.71594
     0.42084      0.14567     27.74433      0.08855     23.61723      0.14567     27.74433
     0.44088      0.15296     27.77417      0.09292     23.63540      0.15296     27.77417
     0.46092      0.16030     27.80547      0.09732     23.65441      0.16030     27.80547
     0.48096      0.16770     27.83825      0.10174     23.67430      0.16770     27.83825
     0.50100      0.17515     27.87250      0.10619     23.69510      0.17515     27.87250
     0.52104      0.18266     27.90825      0.11066     23.71678      0.18266     27.90825
     0.54108      0.19023     27.94551      0.11515     23.73935      0.19023     27.94551
     0.56112      0.19786     27.98429      0.11968     23.76284      0.19786     27.98429
     0.58116      0.20557     28.02459      0.12424     23.78724      0.20557     28.02459
     0.60120      0.21334     28.06645      0.12882     23.81254      0.21334     28.06645
     0.62124      0.22119     28.10986      0.13344     23.83876      0.22119     28.10986
     0.64128      0.22911     28.15485      0.13809     23.86591      0.22911     28.15485
     0.66132      0.23711     28.20143      0.14278     23.89400      0.23711     28.20143
     0.68136      0.24520     28.24961      0.14750     23.92301      0.24520     28.24961
     0.70140      0.25337     28.29942      0.15226     23.95300      0.25337     28.29942
     0.72144      0.26163     28.35087      0.15706     23.98391      0.26163     28.35087
     0.74148      0.26998     28.40398      0.16190     24.01580      0.26998     28.40398
     0.76152      0.27843     28.45877      0.16677     24.04867      0.27843     28.45877
     0.78156      0.28698     28.51525      0.17170     24.08251      0.28698     28.51525
     0.80160      0.29564     28.57345      0.17666     24.11735      0.29564     28.57345
     0.82164      0.30440     28.63339      0.18167     24.15317      0.30440     28.63339
     0.84168      0.31327     28.69509      0.18673     24.19000      0.31327     28.69509
     0.86172      0.32226     28.75857      0.19184     24.22786      0.32226     28.75857
     0.88176      0.33137     28.82386      0.19700     24.26672      0.33137     28.82386
     0.90180      0.34060     28.89098      0.20221     24.30664      0.34060     28.89098
     0.92184      0.34996     28.95995      0.20748     24.34760      0.34996     28.95995
     0.94188      0.35945     29.03081      0.21280     24.38962      0.35945     29.03081
     0.96192      0.36909     29.10357      0.21817     24.43270      0.36909     29.10357
     0.98196      0.37886     29.17827      0.22361     24.47687      0.37886     29.17827
     1.00200      0.38878     29.25494      0.22911     24.52213      0.38878     29.25494
     1.02204      0.39886     29.33360      0.23467     24.56850      0.39886     29.33360
     1.04208      0.40909     29.41428      0.24029     24.61596      0.40909     29.41428
     1.06212      0.41948     29.49703      0.24599     24.66458      0.41948     29.49703
     1.08216      0.43005     29.58186      0.25175     24.71433      0.43005     29.58186
     1.10220      0.44079     29.66882      0.25758     24.76525      0.44079     29.66882
     1.12224      0.45171     29.75794      0.26348     24.81734      0.45171     29.75794
     1.14228      0.46282     29.84925      0.26946     24.87061      0.46282     29.84925
     1.16232      0.47412     29.94280      0.27552     24.92509      0.47412     29.94280
     1.18236      0.48562     30.03863      0.28166     24.98077      0.48562     30.03863
     1.20240      0.49733     30.13676      0.28788     25.03771      0.49733     30.13676
     1.22244      0.50925     30.23726      0.29419     25.09589      0.50925     30.23726
     1.24248      0.52139     30.34015      0.30058     25.15533      0.52139     30.34015
     1.26252      0.53377     30.44548      0.30706     25.21606      0.53377     30.44548
     1.28257      0.54638     30.55331      0.31364     25.27810      0.54638     30.55331
     1.30261      0.55924     30.66367      0.32031     25.34146      0.55924     30.66367
     1.32265      0.57235     30.77662      0.32708     25.40615      0.57235     30.77662
     1.34269      0.58572     30.89221      0.33395     25.47222      0.58572     30.89221
     1.36273      0.59937     31.01049      0.34092     25.53965      0.59937     31.01049
     1.38277      0.61330     31.13152      0.34801     25.60851      0.61330     31.13152
     1.40281      0.62752     31.25534      0.35520     25.67879      0.62752     31.25534
     1.42285      0.64205     31.38204      0.36251     25.75050      0.64205     31.38204
     1.44289      0.65688     31.51165      0.36993     25.82369      0.65688     31.51165
     1.46293      0.67205     31.64426      0.37747     25.89837      0.67205     31.64426
     1.48297      0.68755     31.77991      0.38515     25.97458      0.68755     31.77991
     1.50301      0.70339     31.91869      0.39294     26.05233      0.70339     31.91869
     1.52305      0.71960     32.06065      0.40087     26.13164      0.71960     32.06065
     1.54309      0.73619     32.20588      0.40894     26.21254      0.73619     32.20588
     1.56313      0.75316     32.35445      0.41715     26.29508      0.75316     32.35445
     1.58317      0.77054     32.50643      0.42550     26.37928      0.77054     32.50643
     1.60321      0.78833     32.66191      0.43400     26.46514      0.78833     32.66191
     1.62325      0.80656     32.82097      0.44266     26.55272      0.80656     32.82097
     1.64329      0.82524     32.98371      0.45147     26.64203      0.82524     32.98371
     1.66333      0.84439     33.15020      0.46045     26.73314      0.84439     33.15020
     1.68337      0.86402     33.32055      0.46960     26.82604      0.86402     33.32055
     1.70341      0.88416     33.49485      0.47892     26.92078      0.88416     33.49485
     1.72345      0.90482     33.67321      0.48842     27.01740      0.90482     33.67321
     1.74349      0.92603     33.85572      0.49811     27.11594      0.92603     33.85572
     1.76353      0.94781     34.04251      0.50799     27.21642      0.94781     34.04251
     1.78357      0.97017     34.23367      0.51807     27.31889      0.97017     34.23367
     1.80361      0.99315     34.42935      0.52835     27.42340      0.99315     34.42935
     1.82365      1.01677     34.62964      0.53884     27.52997      1.01677     34.62964
     1.84369      1.04105     34.83469      0.54955     27.63865      1.04105     34.83469
     1.86373      1.06603     35.04463      0.56048     27.74948      1.06603     35.04463
     1.88377      1.09173     35.25960      0.57165     27.86253      1.09173     35.25960
     1.90381      1.11818     35.47974      0.58305     27.97783      1.11818     35.47974
     1.92385      1.14541     35.70520      0.59471     28.09541      1.14541     35.70520
     1.94389      1.17347     35.93614      0.60662     28.21536      1.17347     35.93614
     1.96393      1.20238     36.17273      0.61879     28.33768      1.20238     36.17273
     1.98397      1.23218     36.41514      0.63124     28.46246      1.23218     36.41514
     2.00401      1.26291     36.66354      0.64398     28.58974      1.26291     36.66354
     2.02405      1.29461     36.91813      0.65701     28.71961      1.29461     36.91813
     2.04409      1.32733     37.17909      0.67034     28.85208      1.32733     37.17909
     2.06413      1.36112     37.44664      0.68399     28.98723      1.36112     37.44664
     2.08417      1.39601     37.72098      0.69797     29.12517      1.39601     37.72098
     2.10421      1.43208     38.00235      0.71228     29.26589      1.43208     38.00235
     2.12425      1.46936     38.29096      0.72695     29.40950      1.46936     38.29096
     2.14429      1.50793     38.58708      0.74197     29.55606      1.50793     38.58708
     2.16433      1.54783     38.89095      0.75738     29.70565      1.54783     38.89095
     2.18437      1.58914     39.20284      0.77317     29.85834      1.58914     39.20284
     2.20441      1.63193     39.52304      0.78938     30.01421      1.63193     39.52304
     2.22445      1.67627     39.85184      0.80600     30.17336      1.67627     39.85184
     2.24449      1.72224     40.18955      0.82306     30.33583      1.72224     40.18955
     2.26453      1.76993     40.53650      0.84057     30.50175      1.76993     40.53650
     2.28457      1.81941     40.89302      0.85856     30.67120      1.81941     40.89302
     2.30461      1.87080     41.25949      0.87704     30.84426      1.87080     41.25949
     2.32465      1.92418     41.63628      0.89602     31.02103      1.92418     41.63628
     2.34469      1.97968     42.02380      0.91554     31.20164      1.97968     42.02380
     2.36473      2.03740     42.42244      0.93561     31.38617      2.03740     42.42244
     2.38477      2.09747     42.83268      0.95626     31.57475      2.09747     42.83268
     2.40481      2.16001     43.25497      0.97750     31.76750      2.16001     43.25497
     2.42485      2.22518     43.68980      0.99937     31.96449      2.22518     43.68980
     2.44489      2.29313     44.13771      1.02189     32.16591      2.29313     44.13771
     2.46493      2.36402     44.59924      1.04508     32.37186      2.36402     44.59924
     2.48497      2.43802     45.07497      1.06899     32.58245      2.43802     45.07497
     2.50501      2.51532     45.56554      1.09363     32.79787      2.51532     45.56554
     2.52505      2.59613     46.07159      1.11905     33.01826      2.59613     46.07159
     2.54509      2.68067     46.59383      1.14527     33.24376      2.68067     46.59383
     2.56513      2.76917     47.13298      1.17233     33.47453      2.76917     47.13298
     2.58517      2.86189     47.68983      1.20027     33.71076      2.86189     47.68983
     2.60521      2.95911     48.26523      1.22914     33.95258      2.95911     48.26523
     2.62525      3.06113     48.86006      1.25897     34.20024      3.06113     48.86006
     2.64529      3.16827     49.47527      1.28982     34.45387      3.16827     49.47527
     2.66533      3.28088     50.11187      1.32173     34.71371      3.28088     50.11187
     2.68537      3.39936     50.77094      1.35474     34.97997      3.39936     50.77094
     2.70541      3.52411     51.45363      1.38893     35.25287      3.52411     51.45363
     2.72545      3.65560     52.16119      1.42434     35.53263      3.65560     52.16119
     2.74549      3.79433     52.89494      1.46104     35.81952      3.79433     52.89494
     2.76553      3.94084     53.65628      1.49910     36.11377      3.94084     53.65628
     2.78557      4.09574     54.44675      1.53858     36.41568      4.09574     54.44675
     2.80561      4.25967     55.26800      1.57956     36.72551      4.25967     55.26800
     2.82565      4.43337     56.12177      1.62213     37.04359      4.43337     56.12177
     2.84569      4.61763     57.00997      1.66636     37.37020      4.61763     57.00997
     2.86573      4.81333     57.93466      1.71236     37.70570      4.81333     57.93466
     2.88577      5.02145     58.89804      1.76021     38.05040      5.02145     58.89804
     2.90581      5.24306     59.90252      1.81004     38.40471      5.24306     59.90252
     2.92585      5.47937     60.95073      1.86194     38.76902      5.47937     60.95073
     2.94589      5.73172     62.04546      1.91605     39.14375      5.73172     62.04546
     2.96593      6.00159     63.18980      1.97249     39.52929      6.00159     63.18980
     2.98597      6.29065     64.38708      2.03141     39.92619      6.29065     64.38708
     3.00601      6.60078     65.64100      2.09297     40.33485      6.60078     65.64100
     3.02605      6.93408     66.95550      2.15732     40.75585      6.93408     66.95550
     3.04609      7.29293     68.33497      2.22465     41.18972      7.29293     68.33497
     3.06613      7.68002     69.78423      2.29515     41.63705      7.68002     69.78423
     3.08617      8.09839     71.30853      2.36904     42.09848      8.09839     71.30853
     3.10621      8.55152     72.91367      2.44654     42.57464      8.55152     72.91367
     3.12625      9.04337     74.60610      2.52790     43.06630      9.04337     74.60610
     3.14629      9.57850     76.39290      2.61340     43.57422      9.57850     76.39290
     3.16633     10.16212     78.28193      2.70333     44.09914     10.16212     78.28193
     3.18637     10.80029     80.28193      2.79802     44.64202     10.80029     80.28193
     3.20641     11.50001     82.40261      2.89783     45.20370     11.50001     82.40261
     3.22645     12.26946     84.65485      3.00315     45.78526     12.26946     84.65485
     3.24649     13.11818     87.05077      3.11440     46.38775     13.11818     87.05077
     3.26653     14.05745     89.60400      3.23207     47.01231     14.05745     89.60400
     3.28657     15.10055     92.32981      3.35669     47.66019     15.10055     92.32981
     3.30661     16.26332     95.24542      3.48883     48.33274     16.26332     95.24542
     3.32665     17.56463     98.37018      3.62914     49.03142     17.56463     98.37018
      3.3467      19.0273     101.7260       3.7783      49.7578      19.0273     101.7260
      3.3667      20.6789     105.3377       3.9372      50.5136      20.6789     105.3377
      3.3868      22.5532     109.2332       4.1068      51.3006      22.5532     109.2332
      3.4068      24.6914     113.4439       4.2879      52.1209      24.6914     113.4439
      3.4269      27.1448     118.0054       4.4818      52.9766      27.1448     118.0054
      3.4469      29.9776     122.9573       4.6897      53.8702      29.9776     122.9573
      3.4669      33.2702     128.3434       4.9131      54.8044      33.2702     128.3434
      3.4870      37.1254     134.2112       5.1538      55.7819      37.1254     134.2112
      3.5070      41.6744     140.6107       5.4136      56.8059      41.6744     140.6107
      3.5271      47.0874     147.5910       5.6946      57.8800      47.0874     147.5910
      3.5471      53.5860     155.1944       5.9996      59.0079      53.5860     155.1944
      3.5671      61.4607     163.4444       6.3313      60.1939      61.4607     163.4444
      3.5872      71.0932     172.3243       6.6934      61.4427      71.0932     172.3243
      3.6072      82.9823     181.7370       7.0898      62.7597      82.9823     181.7370
      3.6273      97.7679     191.4359       7.5253      64.1505      97.7677     191.4359
      3.6473     116.2338     200.9076       8.0057      65.6215     116.2334     200.9075
      3.6673     139.2459     209.1933       8.5378      67.1802     139.2451     209.1935
      3.6874     167.5292     214.6695       9.1300      68.8343     167.5277     214.6706
      3.7074     201.1732     214.9356       9.7923      70.5929     201.1715     214.9394
      3.7275     238.9113     207.1735      10.5372      72.4656     238.9133     207.1823
      3.7475     277.8068     189.3019      11.3803      74.4631     277.8228     189.3130
      3.7675     314.3592     161.1338      12.3409      76.5969     314.3979     161.1249
      3.7876     346.2286     123.5470      13.4437      78.8788     346.2601     123.4800
      3.8076     371.3954      76.3736      14.7202      81.3203     371.3318      76.2643
      3.8277     385.2388      19.5309      16.2107      83.9310     385.0445      19.5249
      3.8477     381.4507     -42.5487      17.9673      86.7157     381.3091     -42.3242
      3.8677     357.8862    -100.3547      20.0569      89.6694     358.0304    -100.0705
      3.8878     319.5039    -145.1025      22.5629      92.7681     319.8397    -145.0649
      3.9078     274.6709    -173.4718      25.5840      95.9526     274.8962    -173.7039
      3.9279     230.5421    -187.0526      29.2212      99.1070     230.5300    -187.3419
      3.9479     191.3213    -189.6865      33.5407     102.0322     191.1495    -189.8703
      3.9679     158.5414    -185.3774      38.4940     104.4460     158.3269    -185.4213
      3.9880     132.0608    -177.2585      43.8095     106.0679     131.8769    -177.1934
      4.0080     111.0053    -167.4012      48.9685     106.8495     110.8831    -167.2687
      4.0281      94.3488    -157.0312      53.4639     107.2243      94.2983    -156.8650
      4.0481      81.1708    -146.8170      57.2820     107.9925      81.1939    -146.6435
      4.0681      70.7288    -137.0989      61.0726     109.7604      70.8259    -136.9424
      4.0882      62.4520    -128.0390      65.7542     112.5027      62.6205    -127.9281
      4.1082      55.9072    -119.7149      72.0082     115.6119      56.1334    -119.6866
      4.1283      50.7525    -112.1730      80.0053     118.1978      50.9971    -112.2680
      4.1483      46.6868    -105.4467      89.3131     119.4568      46.8723    -105.6851
      4.1683      43.4102     -99.5324      99.0511     119.1455      43.4370     -99.8711
      4.1884      40.6373     -94.3333     108.5423     117.8749      40.4517     -94.6494
      4.2084      38.1879     -89.6473     118.0994     116.5956      37.8447     -89.8028
      4.2285      36.0620     -85.2709     128.9394     115.5116      35.6955     -85.2065
      4.2485      34.3841     -81.1356     142.1758     113.6365      34.1213     -80.8905
      4.2685      33.2684     -77.3434     158.0486     109.3671      33.1796     -77.0108
      4.2886      32.7170     -74.1158     176.0479     101.1757      32.8123     -73.8011
      4.3086      32.5521     -71.7137     195.3010      87.4987      32.7873     -71.5102
      4.3287      32.3754     -70.2995     213.9363      66.2924      32.6594     -70.2608
      4.3487      31.6587     -69.7347     227.7062      36.1749      31.8864     -69.8438
      4.3687      30.0496     -69.5051     230.7036      -0.5992      30.1609     -69.6837
      4.3888      27.6444     -68.9948     219.5806     -37.1020      27.6499     -69.1614
      4.4088      24.8731     -67.8689     196.9267     -65.7317      24.8194     -67.9852
      4.4289      22.1600     -66.1487     169.1449     -83.0818      22.0877     -66.2140
      4.4489      19.7405     -64.0281     141.9234     -90.3065      19.6715     -64.0562
      4.4689      17.6827     -61.7058     118.2287     -90.4650      17.6248     -61.7109
     4.48898     15.96615    -59.32381     98.83823    -86.43016     15.92040    -59.31586
     4.50902     14.54019    -56.96678     83.43964    -80.21279     14.50512    -56.95189
     4.52906     13.35132    -54.67915     71.36935    -73.03207     13.32492    -54.66080
     4.54910     12.35342    -52.48106     61.95461    -65.56526     12.33388    -52.46115
     4.56914     11.50956    -50.37877     54.62853    -58.16054     11.49547    -50.35825
     4.58918     10.79120    -48.37111     48.94944    -50.97738     10.78151    -48.35046
     4.60922     10.17651    -46.45309     44.58706    -44.07161     10.17052    -46.43248
     4.62926      9.64897    -44.61800     41.30127    -37.44296      9.64626    -44.59746
     4.64930      9.19610    -42.85835     38.92324    -31.06225      9.19645    -42.83783
     4.66934      8.80854    -41.16649     37.34120    -24.88655      8.81200    -41.14593
     4.68938      8.47945    -39.53494     36.49086    -18.86773      8.48625    -39.51431
     4.70942      8.20401    -37.95640     36.35018    -12.95794      8.21462    -37.93575
     4.72946      7.97914    -36.42384     36.93807     -7.11525      7.99433    -36.40340
     4.74950      7.80336    -34.93045     38.31651     -1.30951      7.82421    -34.91080
     4.76954      7.67671    -33.46974     40.59599      4.46637      7.70466    -33.45203
     4.78958      7.60085    -32.03543     43.94321     10.17872      7.63760    -32.02186
     4.80962      7.57917    -30.62162     48.58756     15.72021      7.62636    -30.61613
     4.82966      7.61708    -29.22298     54.81733     20.85603      7.67515    -29.23206
     4.84970      7.72221    -27.83519     62.94234     25.14014      7.78803    -27.86835
     4.86974      7.90452    -26.45560     73.17715     27.81343      7.96746    -26.52363
     4.88978      8.17596    -25.08403     85.37965     27.75508      8.21455    -25.19264
     4.90982      8.54925    -23.72330     98.65126     23.68550      8.53450    -23.86221
      4.9299       9.0360     -22.3777     111.1129      14.8561       8.9462     -22.5140
      4.9499       9.6479     -21.0481     120.5273       1.9289       9.4868     -21.1350
      4.9699      10.4052     -19.7272     125.7084     -13.1746      10.2078     -19.7275
      4.9900      11.3537     -18.4073     126.9621     -28.8310      11.1704     -18.3120
      5.0100      12.5712     -17.1039     124.6958     -44.5457      12.4461     -16.9319
      5.0301      14.1573     -15.8814     118.4442     -59.7626      14.1174     -15.6667
      5.0501      16.2124     -14.8755     107.9722     -72.7828      16.2695     -14.6562
     5.07014     18.80307    -14.31669     94.57681    -81.73881     18.95650    -14.13440
     5.09018     21.88854    -14.55044     80.50576    -86.09523     22.12124    -14.45083
     5.11022     25.18935    -15.99599     67.56086    -86.68118     25.45658    -16.02183
     5.13026     28.05924    -18.94427     56.55835    -84.78953     28.28351    -19.10978
     5.15030     29.58863    -23.18466     47.58717    -81.52599     29.68780    -23.44382
     5.17034     29.13291    -27.81411     40.40322    -77.63504     29.07755    -28.06973
     5.19038     26.85450    -31.68549     34.67725    -73.55831     26.69027    -31.85262
     5.21042     23.57539    -34.13660     30.10246    -69.53690     23.37939    -34.18904
     5.23046     20.14762    -35.18592     26.42606    -65.69371     19.97915    -35.14487
     5.25050     17.07586    -35.20932     23.44872    -62.08566     16.96407    -35.11177
     5.27054     14.53409    -34.61255     21.01371    -58.73353     14.48650    -34.49390
     5.29058     12.51210    -33.70040     18.99600    -55.63559     12.52305    -33.59049
     5.31062     10.92570    -32.66927     17.29768    -52.77335     10.97901    -32.59143
     5.33066      9.66982    -31.63222     15.84793    -50.11932      9.74017    -31.59840
     5.35070      8.64303    -30.63863     14.59802    -47.64823      8.70416    -30.64366
     5.37074      7.76761    -29.69060     13.50943    -45.34021      7.80517    -29.71606
     5.39078      7.00266    -28.76911     12.54833    -43.17476      7.01802    -28.79703
     5.41082      6.33582    -27.86093     11.69030    -41.12699      6.33773    -27.88248
     5.43086      5.76328    -26.96679     10.92396    -39.17449      5.75945    -26.98078
     5.45090      5.27793    -26.09438     10.24510    -37.30363      5.27268    -26.10261
     5.47094      4.86871    -25.25079      9.64926    -35.50821      4.86384    -25.25532
     5.49098      4.52340    -24.43988      9.12943    -33.78458      4.51941    -24.44221
     5.51102      4.23074    -23.66257      8.67724    -32.12886      4.22767    -23.66367
     5.53106      3.98130    -22.91791      8.28449    -30.53615      3.97897    -22.91833
     5.55110      3.76742    -22.20392      7.94391    -29.00090      3.76567    -22.20398
     5.57114      3.58305    -21.51816      7.64946    -27.51725      3.58174    -21.51804
     5.59118      3.42340    -20.85808      7.39619    -26.07942      3.42241    -20.85787
     5.61122      3.28469    -20.22117      7.18016    -24.68166      3.28394    -20.22093
     5.63126      3.16394    -19.60505      6.99827    -23.31852      3.16336    -19.60480
     5.65130      3.05876    -19.00750      6.84813    -21.98473      3.05831    -19.00726
     5.67134      2.96724    -18.42646      6.72796    -20.67524      2.96689    -18.42622
     5.69138      2.88786    -17.85999      6.63651    -19.38513      2.88759    -17.85978
     5.71142      2.81942    -17.30634      6.57306    -18.10960      2.81920    -17.30614
     5.73146      2.76093    -16.76383      6.53731    -16.84390      2.76075    -16.76365
     5.75150      2.71163    -16.23090      6.52945    -15.58329      2.71149    -16.23073
     5.77154      2.67095    -15.70607      6.55010    -14.32298      2.67084    -15.70591
     5.79158      2.63844    -15.18790      6.60039    -13.05802      2.63835    -15.18775
     5.81162      2.61380    -14.67501      6.68195    -11.78333      2.61373    -14.67487
     5.83166      2.59685    -14.16606      6.79704    -10.49358      2.59679    -14.16594
     5.85170      2.58751    -13.65972      6.94856     -9.18308      2.58747    -13.65960
     5.87174      2.58584    -13.15465      7.14022     -7.84578      2.58580    -13.15454
     5.89178      2.59198    -12.64950      7.37667     -6.47513      2.59195    -12.64939
     5.91182      2.60621    -12.14289      7.66373     -5.06399      2.60618    -12.14278
     5.93186      2.62890    -11.63339      8.00865     -3.60451      2.62888    -11.63328
     5.95190      2.66058    -11.11949      8.42043     -2.08804      2.66057    -11.11939
     5.97194      2.70192    -10.59963      8.91033     -0.50505      2.70191    -10.59953
     5.99198      2.75376    -10.07212      9.49244      1.15509      2.75376    -10.07202
     6.01202      2.81716     -9.53515     10.18454      2.90405      2.81717     -9.53505
     6.03206      2.89339     -8.98677     11.00919      4.75471      2.89340     -8.98667
     6.05210      2.98402     -8.42485     11.99522      6.72094      2.98405     -8.42474
     6.07214      3.09100     -7.84704     13.17980      8.81737      3.09103     -7.84694
     6.09218      3.21666     -7.25078     14.61119     11.05860      3.21671     -7.25067
     6.11222      3.36393     -6.63322     16.35260     13.45770      3.36399     -6.63311
     6.13226      3.53639     -5.99123     18.48738     16.02330      3.53647     -5.99111
     6.15230      3.73852     -5.32135     21.12608     18.75414      3.73861     -5.32122
     6.17234      3.97590     -4.61979     24.41545     21.62914      3.97602     -4.61966
     6.19238      4.25560     -3.88248     28.54922     24.58947      4.25576     -3.88234
     6.21242      4.58659     -3.10514     33.77804     27.50647      4.58679     -3.10501
     6.23246      4.98036     -2.28349     40.41161     30.12717      4.98062     -2.28336
     6.25250      5.45165     -1.41375     48.79086     31.98509      5.45198     -1.41365
     6.27254      6.01944     -0.49349     59.18613     32.27702      6.01988     -0.49344
     6.29258      6.70797      0.47681     71.53740     29.75224      6.70853      0.47676
     6.31262      7.54742      1.49095     84.96383     22.79814      7.54812      1.49071
     6.33266      8.57332      2.53271     97.20607     10.09467      8.57413      2.53214
      6.3527       9.8225       3.5702     104.7810      -7.9920       9.8233       3.5691
      6.3727      11.3220       4.5524     104.7719     -28.3660      11.3225       4.5506
     6.39279     13.07200      5.41667     97.17609    -46.47213     13.07141      5.41423
     6.41283     15.03599      6.12165     84.90780    -59.20926     15.03369      6.11928
     6.43287     17.17820      6.69125     71.45336    -66.20669     17.17415      6.69043
     6.45291     19.55437      7.20220     59.07722    -68.78353     19.54996      7.20425
     6.47295     22.36578      7.66643     48.66529    -68.55431     22.36328      7.67127
     6.49299     25.88574      7.89399     40.28181    -66.77377     25.88684      7.89975
     6.51303     30.30327      7.43703     33.66002    -64.25105     30.30800      7.44090
     6.53307     35.53625      5.61599     28.46115    -61.46193     35.54242      5.61567
     6.55311     40.99985      1.67421     24.37382    -58.67287     41.00371      1.66986
     6.57315     45.45555     -4.78894     21.13648    -56.02858     45.45491     -4.79389
     6.59319     47.35028    -13.18492     18.53086    -53.59891     47.34708    -13.18701
     6.61323     45.81220    -21.81161     16.37600    -51.39724     45.80980    -21.81096
     6.63327     41.39030    -28.80896     14.53742    -49.39108     41.38959    -28.80775
     6.65331     35.56198    -33.28769     12.93806    -47.52946     35.56204    -33.28696
     6.67335     29.68198    -35.44124     11.54541    -45.77550     29.68217    -35.44096
     6.69339     24.48624    -35.94492     10.34261    -44.11607     24.48635    -35.94482
     6.71343     20.19271    -35.45747      9.31082    -42.55119     20.19280    -35.45744
     6.73347     16.75313    -34.44856      8.42721    -41.08250     16.75318    -34.44855
     6.75351     14.02790    -33.20713      7.66855    -39.70884     14.02793    -33.20714
     6.77355     11.86897    -31.89647      7.01386    -38.42613     11.86899    -31.89648
     6.79359     10.14911    -30.60308      6.44544    -37.22852     10.14912    -30.60308
     6.81363      8.76743    -29.36940      5.94878    -36.10949      8.76744    -29.36940
     6.83367      7.64667    -28.21357      5.51214    -35.06231      7.64667    -28.21356
     6.85371      6.72849    -27.14078      5.12604    -34.08078      6.72849    -27.14078
     6.87375      5.96883    -26.14944      4.78278    -33.15899      5.96883    -26.14945
     6.89379      5.33434    -25.23476      4.47607    -32.29158      5.33434    -25.23476
     6.91383      4.79969    -24.39069      4.20076    -31.47383      4.79969    -24.39069
     6.93387      4.34537    -23.61077      3.95257    -30.70138      4.34537    -23.61077
     6.95391      3.95632    -22.88883      3.72794    -29.97042      3.95632    -22.88883
     6.97395      3.62071    -22.21901      3.52388    -29.27743      3.62071    -22.21901
     6.99399      3.32927    -21.59610      3.33789    -28.61941      3.32927    -21.59610
     7.01403      3.07457    -21.01531      3.16779    -27.99352      3.07457    -21.01531
     7.03407      2.85070    -20.47250      3.01178    -27.39734      2.85070    -20.47250
     7.05411      2.65285    -19.96388      2.86829    -26.82857      2.65285    -19.96388
     7.07415      2.47710    -19.48619      2.73595    -26.28524      2.47710    -19.48619
     7.09419      2.32025    -19.03648      2.61359    -25.76551      2.32025    -19.03648
     7.11423      2.17965    -18.61221      2.50020    -25.26775      2.17965    -18.61221
     7.13427      2.05309    -18.21106      2.39488    -24.79043      2.05309    -18.21106
     7.15431      1.93872    -17.83102      2.29686    -24.33223      1.93872    -17.83102
     7.17435      1.83499    -17.47027      2.20543    -23.89188      1.83499    -17.47027
     7.19439      1.74060    -17.12724      2.12000    -23.46826      1.74060    -17.12724
     7.21443      1.65441    -16.80045      2.04003    -23.06033      1.65441    -16.80045
     7.23447      1.57548    -16.48867      1.96504    -22.66716      1.57548    -16.48867
     7.25451      1.50298    -16.19070      1.89460    -22.28786      1.50298    -16.19070
     7.27455      1.43621    -15.90555      1.82834    -21.92165      1.43621    -15.90555
     7.29459      1.37457    -15.63226      1.76592    -21.56779      1.37457    -15.63226
     7.31463      1.31750    -15.36999      1.70702    -21.22556      1.31750    -15.36999
     7.33467      1.26456    -15.11800      1.65137    -20.89437      1.26456    -15.11800
     7.35471      1.21534    -14.87557      1.59872    -20.57363      1.21534    -14.87557
     7.37475      1.16947    -14.64210      1.54886    -20.26278      1.16947    -14.64210
     7.39479      1.12664    -14.41699      1.50157    -19.96134      1.12664    -14.41699
     7.41483      1.08658    -14.19975      1.45667    -19.66885      1.08658    -14.19975
     7.43487      1.04904    -13.98987      1.41399    -19.38485      1.04904    -13.98987
     7.45491      1.01380    -13.78693      1.37339    -19.10894      1.01380    -13.78693
     7.47495      0.98066    -13.59052      1.33471    -18.84075      0.98066    -13.59052
     7.49499      0.94945    -13.40028      1.29784    -18.57993      0.94945    -13.40028
     7.51503      0.92001    -13.21585      1.26265    -18.32613      0.92001    -13.21585
     7.53507      0.89220    -13.03693      1.22904    -18.07905      0.89220    -13.03693
     7.55511      0.86590    -12.86323      1.19691    -17.83838      0.86590    -12.86323
     7.57515      0.84098    -12.69447      1.16617    -17.60389      0.84098    -12.69447
     7.59519      0.81735    -12.53041      1.13672    -17.37527      0.81735    -12.53041
     7.61523      0.79491    -12.37082      1.10851    -17.15232      0.79491    -12.37082
     7.63527      0.77358    -12.21546      1.08145    -16.93478      0.77358    -12.21546
     7.65531      0.75327    -12.06416      1.05548    -16.72245      0.75327    -12.06416
     7.67535      0.73393    -11.91671      1.03053    -16.51511      0.73393    -11.91671
     7.69539      0.71548    -11.77295      1.00656    -16.31259      0.71548    -11.77295
     7.71543      0.69786    -11.63270      0.98350    -16.11470      0.69786    -11.63270
     7.73547      0.68103    -11.49581      0.96131    -15.92126      0.68103    -11.49581
     7.75551      0.66492    -11.36215      0.93994    -15.73211      0.66492    -11.36215
     7.77555      0.64951    -11.23157      0.91935    -15.54708      0.64951    -11.23157
     7.79559      0.63473    -11.10395      0.89950    -15.36605      0.63473    -11.10395
     7.81563      0.62056    -10.97916      0.88035    -15.18886      0.62056    -10.97916
     7.83567      0.60696    -10.85710      0.86187    -15.01539      0.60696    -10.85710
     7.85571      0.59390    -10.73765      0.84402    -14.84550      0.59390    -10.73765
     7.87575      0.58134    -10.62072      0.82678    -14.67909      0.58134    -10.62072
     7.89579      0.56926    -10.50622      0.81011    -14.51601      0.56926    -10.50622
     7.91583      0.55763    -10.39404      0.79399    -14.35619      0.55763    -10.39404
     7.93587      0.54643    -10.28412      0.77840    -14.19950      0.54643    -10.28412
     7.95591      0.53563    -10.17636      0.76330    -14.04584      0.53563    -10.17636
     7.97595      0.52522    -10.07069      0.74868    -13.89512      0.52522    -10.07069
     7.99599      0.51517     -9.96705      0.73452    -13.74726      0.51517     -9.96705
     8.01603      0.50546     -9.86535      0.72079    -13.60216      0.50546     -9.86535
     8.03607      0.49608     -9.76553      0.70748    -13.45974      0.49608     -9.76553
     8.05611      0.48702     -9.66754      0.69456    -13.31991      0.48702     -9.66754
     8.07615      0.47825     -9.57131      0.68203    -13.18261      0.47825     -9.57131
     8.09619      0.46977     -9.47678      0.66987    -13.04775      0.46977     -9.47678
     8.11623      0.46155     -9.38391      0.65806    -12.91527      0.46155     -9.38391
     8.13627      0.45360     -9.29264      0.64659    -12.78511      0.45360     -9.29264
     8.15631      0.44589     -9.20291      0.63544    -12.65718      0.44589     -9.20291
     8.17635      0.43841     -9.11470      0.62460    -12.53144      0.43841     -9.11470
     8.19639      0.43116     -9.02794      0.61406    -12.40782      0.43116     -9.02794
     8.21643      0.42412     -8.94259      0.60381    -12.28627      0.42412     -8.94259
     8.23647      0.41729     -8.85862      0.59384    -12.16672      0.41729     -8.85862
     8.25651      0.41066     -8.77599      0.58413    -12.04914      0.41066     -8.77599
     8.27655      0.40422     -8.69465      0.57468    -11.93344      0.40422     -8.69465
     8.29659      0.39796     -8.61457      0.56548    -11.81960      0.39796     -8.61457
     8.31663      0.39187     -8.53572      0.55652    -11.70757      0.39187     -8.53572
     8.33667      0.38595     -8.45806      0.54779    -11.59731      0.38595     -8.45806
     8.35671      0.38020     -8.38156      0.53928    -11.48874      0.38020     -8.38156
     8.37675      0.37459     -8.30618      0.53098    -11.38186      0.37459     -8.30618
     8.39679      0.36914     -8.23191      0.52289    -11.27660      0.36914     -8.23191
     8.41683      0.36383     -8.15870      0.51500    -11.17294      0.36383     -8.15870
     8.43687      0.35866     -8.08654      0.50731    -11.07082      0.35866     -8.08654
     8.45691      0.35363     -8.01539      0.49980    -10.97022      0.35363     -8.01539
     8.47695      0.34872     -7.94522      0.49248    -10.87110      0.34872     -7.94522
     8.49699      0.34394     -7.87603      0.48532    -10.77341      0.34394     -7.87603
     8.51703      0.33928     -7.80777      0.47834    -10.67713      0.33928     -7.80777
     8.53707      0.33474     -7.74042      0.47153    -10.58223      0.33474     -7.74042
     8.55711      0.33031     -7.67397      0.46487    -10.48867      0.33031     -7.67397
     8.57715      0.32598     -7.60839      0.45837    -10.39641      0.32598     -7.60839
     8.59719      0.32177     -7.54366      0.45202    -10.30544      0.32177     -7.54366
     8.61723      0.31765     -7.47976      0.44581    -10.21572      0.31765     -7.47976
     8.63727      0.31364     -7.41667      0.43975    -10.12722      0.31364     -7.41667
     8.65731      0.30972     -7.35437      0.43382    -10.03992      0.30972     -7.35437
    8.677354     0.305901    -7.292843     0.428023    -9.953782     0.305901    -7.292843
    8.697394     0.302169    -7.232062     0.422359    -9.868792     0.302169    -7.232062
    8.717434     0.298526    -7.172023     0.416820    -9.784915     0.298526    -7.172023
    8.737474     0.294970    -7.112696     0.411405    -9.702132     0.294970    -7.112696
    8.757514     0.291497    -7.054072     0.406109    -9.620411     0.291497    -7.054072
    8.777555     0.288107    -6.996131     0.400930    -9.539740     0.288107    -6.996131
    8.797595     0.284797    -6.938859     0.395865    -9.460092     0.284797    -6.938859
    8.817636     0.281564    -6.882239     0.390910    -9.381436     0.281564    -6.882239
    8.837675     0.278409    -6.826259     0.386064    -9.303766     0.278409    -6.826259
    8.857716     0.275328    -6.770897     0.381323    -9.227049     0.275328    -6.770897
    8.877755     0.272320    -6.716146     0.376686    -9.151266     0.272320    -6.716146
    8.897796     0.269383    -6.661986     0.372149    -9.076406     0.269383    -6.661986
    8.917835     0.266517    -6.608407     0.367711    -9.002433     0.266517    -6.608407
    8.937876     0.263720    -6.555389     0.363370    -8.929339     0.263720    -6.555389
    8.957915     0.260991    -6.502928     0.359124    -8.857103     0.260991    -6.502928
    8.977956     0.258329    -6.451002     0.354971    -8.785703     0.258329    -6.451002
    8.997995     0.255732    -6.399604     0.350909    -8.715129     0.255732    -6.399604
    9.018035     0.253200    -6.348719     0.346936    -8.645361     0.253200    -6.348719
    9.038075     0.250732    -6.298330     0.343052    -8.576365     0.250732    -6.298330
    9.058115     0.248328    -6.248432     0.339255    -8.508143     0.248328    -6.248432
    9.078156     0.245986    -6.199005     0.335543    -8.440670     0.245986    -6.199005
    9.098196     0.243707    -6.150044     0.331916    -8.373937     0.243707    -6.150044
    9.118237     0.241490    -6.101530     0.328372    -8.307912     0.241490    -6.101530
    9.138276     0.239334    -6.053455     0.324911    -8.242591     0.239334    -6.053455
    9.158317     0.237239    -6.005805     0.321532    -8.177952     0.237239    -6.005805
    9.178356     0.235206    -5.958570     0.318234    -8.113986     0.235206    -5.958570
    9.198397     0.233234    -5.911735     0.315017    -8.050669     0.233234    -5.911735
    9.218436     0.231324    -5.865289     0.311881    -7.987987     0.231324    -5.865289
    9.238477     0.229476    -5.819222     0.308825    -7.925926     0.229476    -5.819222
    9.258516     0.227690    -5.773521     0.305849    -7.864475     0.227690    -5.773521
    9.278557     0.225967    -5.728170     0.302954    -7.803608     0.225967    -5.728170
    9.298596     0.224307    -5.683161     0.300140    -7.743316     0.224307    -5.683161
    9.318637     0.222713    -5.638479     0.297408    -7.683574     0.222713    -5.638479
    9.338676     0.221184    -5.594114     0.294758    -7.624384     0.221184    -5.594114
    9.358717     0.219722    -5.550049     0.292192    -7.565718     0.219722    -5.550049
    9.378757     0.218329    -5.506273     0.289711    -7.507556     0.218329    -5.506273
    9.398798     0.217007    -5.462774     0.287317    -7.449888     0.217007    -5.462774
    9.418838     0.215757    -5.419535     0.285012    -7.392691     0.215757    -5.419535
    9.438877     0.214582    -5.376545     0.282798    -7.335952     0.214582    -5.376545
    9.458918     0.213485    -5.333785     0.280678    -7.279650     0.213485    -5.333785
    9.478957     0.212468    -5.291246     0.278655    -7.223776     0.212468    -5.291246
    9.498998     0.211536    -5.248906     0.276734    -7.168301     0.211536    -5.248906
    9.519037     0.210692    -5.206753     0.274919    -7.113210     0.210692    -5.206753
    9.539078     0.209940    -5.164765     0.273215    -7.058476     0.209940    -5.164765
    9.559117     0.209286    -5.122929     0.271629    -7.004093     0.209286    -5.122929
    9.579158     0.208735    -5.081223     0.270166    -6.950022     0.208735    -5.081223
    9.599197     0.208293    -5.039630     0.268836    -6.896247     0.208293    -5.039630
    9.619238     0.207969    -4.998126     0.267648    -6.842744     0.207969    -4.998126
    9.639277     0.207769    -4.956691     0.266612    -6.789482     0.207769    -4.956691
    9.659318     0.207703    -4.915297     0.265742    -6.736434     0.207703    -4.915297
    9.679358     0.207781    -4.873922     0.265050    -6.683575     0.207781    -4.873922
    9.699399     0.208016    -4.832535     0.264556    -6.630862     0.208016    -4.832535
    9.719439     0.208420    -4.791114     0.264277    -6.578266     0.208420    -4.791114
    9.739479     0.209010    -4.749618     0.264237    -6.525742     0.209010    -4.749618
    9.759519     0.209802    -4.708019     0.264464    -6.473258     0.209802    -4.708019
    9.779559     0.210818    -4.666275     0.264989    -6.420757     0.210817    -4.666275
    9.799599     0.212079    -4.624349     0.265849    -6.368191     0.212079    -4.624349
    9.819639     0.213614    -4.582191     0.267091    -6.315502     0.213614    -4.582191
    9.839679     0.215452    -4.539757     0.268767    -6.262632     0.215452    -4.539757
    9.859718     0.217632    -4.496990     0.270942    -6.209501     0.217632    -4.496990
    9.879759     0.220195    -4.453828     0.273695    -6.156034     0.220195    -4.453828
    9.899798     0.223191    -4.410209     0.277120    -6.102151     0.223191    -4.410209
    9.919839     0.226679    -4.366053     0.281334    -6.047729     0.226679    -4.366053
    9.939879     0.230731    -4.321284     0.286481    -5.992687     0.230730    -4.321284
    9.959920     0.235429    -4.275806     0.292738    -5.936875     0.235428    -4.275806
    9.979959     0.240875    -4.229518     0.300331    -5.880169     0.240874    -4.229518
    10.00000      0.24719     -4.18230      0.30954     -5.82240      0.24719     -4.18230
# 
# 06/16/2017 at 12:54 YAMBO_RT @ anomaly [start]
# 06/16/2017 at 12:55                    [end]
#  
# Timing   [Min/Max/Average]: 03s/03s/03s
#
# .-Input file : yambo.in
# | optics                         # [R OPT] Optics
# | bse                            # [R BSE] Bethe Salpeter Equation.
# | bsk                            # [R BSK] Bethe Salpeter Equation kernel
# | bss                            # [R BSS] Bethe Salpeter Equation solver
# | em1s                           # [R Xs] Static Inverse Dielectric Matrix
# | BoseTemp= 0.000000     eV      # Bosonic Temperature
# | FFTGvecs=  387         RL      # [FFT] Plane-waves
# | X_Threads= 1                   # [OPENMP/X] Number of threads for response functions
# | DIP_Threads= 1                 # [OPENMP/X] Number of threads for dipoles
# | K_Threads= 1                   # [OPENMP/BSK] Number of threads for response functions
# | Chimod= "hartree"              # [X] IP/Hartree/ALDA/LRC/BSfxc
# | BSEmod= "retarded"             # [BSE] resonant/retarded/coupling
# | BSKmod= "SEX"                  # [BSE] IP/Hartree/HF/ALDA/SEX/BSfxc
# | BSSmod= "h"                    # [BSS] (h)aydock/(d)iagonalization/(i)nversion/(t)ddft`
# | BSENGexx=  531         RL      # [BSK] Exchange components
# | BSENGBlk=  59          RL      # [BSK] Screened interaction block size
# | #WehCpl                        # [BSK] eh interaction included also in coupling
# | KfnQPdb= "E < 08_cohsex_eq/ndb.QP" # [EXTQP BSK BSS] Database
# | RfnRTdb= "f @ 0.1 ps < 04_elel+elph_0K/ndb.RT_carriers" # [EXTRT R] Database
# | % BEnRange
# |   0.00000 | 10.00000 | eV      # [BSS] Energy range
# | %
# | % BDmRange
# |   0.10000 |  0.10000 | eV      # [BSS] Damping range
# | %
# | BEnSteps=  500                 # [BSS] Energy steps
# | % BLongDir
# | 0.1000E-4 | 0.000    | 0.000    |        # [BSS] [cc] Electric Field
# | %
# | % BSEBands
# |   2 |  7 |                     # [BSK] Bands range
# | %
# | BSHayTrs=  0.02000             # [BSS] Relative [o/o] Haydock treshold. Strict(>0)/Average(<0)
# | % BndsRnXs
# |   1 |  8 |                     # [Xs] Polarization function bands
# | %
# | NGsBlkXs=  59          RL      # [Xs] Response block size
# | GrFnTpXs= "R"                  # [Xs] Green`s function (T)ordered,(R)etarded,(r)senant,(a)ntiresonant [T, R, r, Ta, Ra]
# | % DmRngeXs
# |   0.10000 |  0.10000 | eV      # [Xs] Damping range
# | %
# | % LongDrXs
# | 0.1000E-4 | 0.000    | 0.000    |        # [Xs] [cc] Electric Field
# | %
