#                                                           
#  __  __   ________   ___ __ __    _______   ______        
# /_/\/_/\ /_______/\ /__//_//_/\ /_______/\ /_____/\       
# \ \ \ \ \\::: _  \ \\::\| \| \ \\::: _  \ \\:::_ \ \      
#  \:\_\ \ \\::(_)  \ \\:.      \ \\::(_)  \/_\:\ \ \ \     
#   \::::_\/ \:: __  \ \\:.\-/\  \ \\::  _  \ \\:\ \ \ \    
#     \::\ \  \:.\ \  \ \\. \  \  \ \\::(_)  \ \\:\_\ \ \   
#      \__\/   \__\/\__\/ \__\/ \__\/ \_______\/ \_____\/   
#                                                           
#                                                           
#        Version 4.2.0 Revision 14428 Hash 698a636          
#                  MPI+SLK+OpenMP Build                     
#                http://www.yambo-code.org                  
#
# Absorption @ Q(1) [q->0 direction] :0.1000E-4  0.000     0.000   
#
#
# - Energies      are GoWo Plasmon Pole appox.
# - Wavefunctions are Slater exchange(X)+Perdew & Zunger(C)
#
# - The Green`s function is Retarded -
# - Using the Length Gauge -
# - [r,Vnl] *is* included -
#
#   BSK|Identifier              :3156
#      |Dimension               :100
#      |Bands                   :2 - 7
#      |Exchange           [res]: yes
#      |Correlation        [res]: yes
#      |Kernel`s coupling       : no
#      |Exchange           [cpl]: no
#      |Correlation        [cpl]: no
#      |W interaction is bare   : no
#      |ALDA kernel in R-space  : no
#      |RL vectors    [exchange]:531
#      |RL vectors [correlation]:59
#      |E/h energy range    [ev]:-1.000000 - -1.000000
#      |Coupling range     [o/o]: 100.0000 -  100.0000
#    W |Interaction is diagonal : no
#      |Matrix size             :59
#      |Bands                   :1 - 8
#      |e/h energy range    [ev]:-1.000000 - -1.000000
#      |Poles              [o/o]: 100.0000
#      |RL vectors in the sum   :387
#      |[r,Vnl] included        : yes
#      |Field direction         :0.1000E-4  0.000000  0.000000
#      |Coulomb Cutoff          :none
#      |xc-Kernel               :none
#   RIM|RL components      [col]:0
#      |Random points      [col]:0
#  
#   Haydock|Accuracy (requested) [o/o]:  0.02000
#          |Accuracy (reached)   [o/o]:  0.01121
#          |Iteration                 :27
#
#    E/ev[1]      EPS-Im[2]    EPS-Re[3]    EPSo-Im[4]   EPSo-Re[5]   EPS`-Im[6]   EPS`-Re[7]
#
     0.00000      0.00000     32.63306      0.00000     30.90092      0.00000     32.63306
   0.2004E-1    0.1222E-1     32.63       0.1028E-1     30.90       0.1222E-1     32.63   
   0.4008E-1    0.2445E-1     32.64       0.2057E-1     30.91       0.2445E-1     32.64   
   0.6012E-1    0.3669E-1     32.64       0.3086E-1     30.91       0.3669E-1     32.64   
     0.08016      0.04895     32.65258      0.04117     30.91733      0.04895     32.65258
     0.10020      0.06124     32.66357      0.05150     30.92659      0.06124     32.66357
     0.12024      0.07356     32.67702      0.06185     30.93788      0.07356     32.67702
     0.14028      0.08591     32.69293      0.07223     30.95126      0.08591     32.69293
     0.16032      0.09831     32.71131      0.08264     30.96672      0.09831     32.71131
     0.18036      0.11076     32.73217      0.09310     30.98428      0.11076     32.73217
     0.20040      0.12326     32.75552      0.10359     31.00391      0.12326     32.75552
     0.22044      0.13583     32.78136      0.11414     31.02564      0.13583     32.78136
     0.24048      0.14848     32.80972      0.12473     31.04947      0.14848     32.80972
     0.26052      0.16119     32.84062      0.13539     31.07543      0.16119     32.84062
     0.28056      0.17400     32.87405      0.14611     31.10354      0.17400     32.87405
     0.30060      0.18689     32.91006      0.15690     31.13377      0.18689     32.91006
     0.32064      0.19988     32.94864      0.16776     31.16617      0.19988     32.94864
     0.34068      0.21298     32.98983      0.17871     31.20075      0.21298     32.98983
     0.36072      0.22619     33.03363      0.18974     31.23750      0.22619     33.03363
     0.38076      0.23952     33.08009      0.20086     31.27649      0.23952     33.08009
     0.40080      0.25298     33.12921      0.21207     31.31771      0.25298     33.12921
     0.42084      0.26658     33.18103      0.22339     31.36115      0.26658     33.18103
     0.44088      0.28032     33.23558      0.23482     31.40688      0.28032     33.23558
     0.46092      0.29422     33.29289      0.24637     31.45489      0.29422     33.29289
     0.48096      0.30827     33.35298      0.25803     31.50523      0.30827     33.35298
     0.50100      0.32250     33.41589      0.26983     31.55790      0.32250     33.41589
     0.52104      0.33691     33.48165      0.28176     31.61294      0.33691     33.48165
     0.54108      0.35150     33.55030      0.29383     31.67037      0.35150     33.55030
     0.56112      0.36630     33.62188      0.30605     31.73022      0.36630     33.62188
     0.58116      0.38131     33.69643      0.31843     31.79253      0.38131     33.69643
     0.60120      0.39653     33.77399      0.33097     31.85729      0.39653     33.77399
     0.62124      0.41198     33.85461      0.34369     31.92460      0.41198     33.85461
     0.64128      0.42768     33.93833      0.35658     31.99448      0.42768     33.93833
     0.66132      0.44363     34.02520      0.36966     32.06691      0.44363     34.02520
     0.68136      0.45984     34.11527      0.38294     32.14198      0.45984     34.11527
     0.70140      0.47633     34.20860      0.39643     32.21973      0.47633     34.20860
     0.72144      0.49311     34.30524      0.41013     32.30017      0.49311     34.30524
     0.74148      0.51019     34.40524      0.42406     32.38337      0.51019     34.40524
     0.76152      0.52759     34.50869      0.43822     32.46936      0.52759     34.50869
     0.78156      0.54533     34.61562      0.45263     32.55821      0.54533     34.61562
     0.80160      0.56340     34.72612      0.46729     32.64994      0.56340     34.72612
     0.82164      0.58184     34.84025      0.48222     32.74462      0.58184     34.84025
     0.84168      0.60066     34.95808      0.49743     32.84232      0.60066     34.95808
     0.86172      0.61988     35.07970      0.51293     32.94304      0.61988     35.07970
     0.88176      0.63951     35.20518      0.52873     33.04689      0.63951     35.20518
     0.90180      0.65957     35.33460      0.54486     33.15392      0.65957     35.33460
     0.92184      0.68008     35.46806      0.56131     33.26418      0.68008     35.46806
     0.94188      0.70107     35.60563      0.57811     33.37777      0.70107     35.60563
     0.96192      0.72255     35.74743      0.59527     33.49472      0.72255     35.74743
     0.98196      0.74455     35.89354      0.61280     33.61511      0.74455     35.89354
     1.00200      0.76709     36.04408      0.63073     33.73905      0.76709     36.04408
     1.02204      0.79019     36.19914      0.64907     33.86658      0.79019     36.19914
     1.04208      0.81389     36.35885      0.66784     33.99780      0.81389     36.35885
     1.06212      0.83820     36.52332      0.68706     34.13279      0.83820     36.52332
     1.08216      0.86316     36.69268      0.70674     34.27163      0.86316     36.69268
     1.10220      0.88881     36.86705      0.72691     34.41443      0.88881     36.86705
     1.12224      0.91516     37.04659      0.74760     34.56129      0.91516     37.04659
     1.14228      0.94226     37.23141      0.76882     34.71234      0.94226     37.23141
     1.16232      0.97014     37.42169      0.79059     34.86761      0.97014     37.42169
     1.18236      0.99883     37.61756      0.81296     35.02729      0.99883     37.61756
     1.20240      1.02839     37.81920      0.83593     35.19144      1.02839     37.81920
     1.22244      1.05885     38.02679      0.85955     35.36023      1.05885     38.02679
     1.24248      1.09026     38.24049      0.88384     35.53376      1.09026     38.24049
     1.26252      1.12267     38.46050      0.90883     35.71216      1.12267     38.46050
     1.28257      1.15612     38.68703      0.93456     35.89559      1.15612     38.68703
     1.30261      1.19067     38.92027      0.96107     36.08421      1.19067     38.92027
     1.32265      1.22638     39.16045      0.98839     36.27813      1.22638     39.16045
     1.34269      1.26331     39.40780      1.01656     36.47754      1.26331     39.40780
     1.36273      1.30153     39.66257      1.04563     36.68264      1.30153     39.66257
     1.38277      1.34110     39.92501      1.07565     36.89355      1.34110     39.92501
     1.40281      1.38210     40.19539      1.10666     37.11049      1.38210     40.19539
     1.42285      1.42461     40.47400      1.13871     37.33367      1.42461     40.47400
     1.44289      1.46872     40.76114      1.17186     37.56327      1.46872     40.76114
     1.46293      1.51451     41.05712      1.20618     37.79954      1.51451     41.05712
     1.48297      1.56209     41.36229      1.24172     38.04270      1.56209     41.36229
     1.50301      1.61156     41.67699      1.27856     38.29298      1.61156     41.67699
     1.52305      1.66304     42.00161      1.31676     38.55066      1.66304     42.00161
     1.54309      1.71665     42.33654      1.35640     38.81599      1.71665     42.33654
     1.56313      1.77251     42.68219      1.39758     39.08926      1.77251     42.68219
     1.58317      1.83078     43.03903      1.44038     39.37081      1.83078     43.03903
     1.60321      1.89161     43.40752      1.48489     39.66095      1.89161     43.40752
     1.62325      1.95515     43.78815      1.53124     39.95998      1.95515     43.78815
     1.64329      2.02159     44.18148      1.57951     40.26828      2.02159     44.18148
     1.66333      2.09112     44.58807      1.62985     40.58624      2.09112     44.58807
     1.68337      2.16393     45.00854      1.68239     40.91430      2.16393     45.00854
     1.70341      2.24028     45.44356      1.73727     41.25285      2.24028     45.44356
     1.72345      2.32041     45.89382      1.79464     41.60236      2.32041     45.89382
     1.74349      2.40462     46.36007      1.85469     41.96333      2.40462     46.36007
     1.76353      2.49320     46.84309      1.91759     42.33633      2.49320     46.84309
     1.78357      2.58650     47.34375      1.98356     42.72182      2.58650     47.34375
     1.80361      2.68488     47.86296      2.05281     43.12050      2.68488     47.86296
     1.82365      2.78873     48.40171      2.12559     43.53292      2.78873     48.40171
     1.84369      2.89852     48.96107      2.20218     43.95988      2.89852     48.96107
     1.86373      3.01473     49.54218      2.28287     44.40200      3.01473     49.54218
     1.88377      3.13791     50.14627      2.36799     44.86016      3.13791     50.14627
     1.90381      3.26866     50.77471      2.45790     45.33520      3.26866     50.77471
     1.92385      3.40768     51.42894      2.55301     45.82809      3.40768     51.42894
     1.94389      3.55572     52.11054      2.65377     46.33975      3.55572     52.11054
     1.96393      3.71363     52.82123      2.76068     46.87130      3.71363     52.82123
     1.98397      3.88238     53.56288      2.87430     47.42389      3.88238     53.56288
     2.00401      4.06306     54.33754      2.99526     47.99889      4.06306     54.33754
     2.02405      4.25688     55.14743      3.12428     48.59761      4.25688     55.14743
     2.04409      4.46525     55.99502      3.26215     49.22158      4.46525     55.99502
     2.06413      4.68977     56.88301      3.40979     49.87246      4.68977     56.88301
     2.08417      4.93227     57.81435      3.56823     50.55209      4.93227     57.81435
     2.10421      5.19484     58.79232      3.73865     51.26245      5.19484     58.79232
     2.12425      5.47993     59.82055      3.92242     52.00575      5.47993     59.82055
     2.14429      5.79035     60.90303      4.12109     52.78437      5.79035     60.90303
     2.16433      6.12941     62.04424      4.33649     53.60105      6.12940     62.04424
     2.18437      6.50096     63.24915      4.57071     54.45872      6.50096     63.24915
     2.20441      6.90959     64.52328      4.82623     55.36071      6.90959     64.52328
     2.22445      7.36071     65.87286      5.10596     56.31068      7.36071     65.87286
     2.24449      7.86080     67.30482      5.41332     57.31264      7.86080     67.30482
     2.26453      8.41764     68.82693      5.75242     58.37129      8.41764     68.82693
     2.28457      9.04069     70.44795      6.12816     59.49170      9.04068     70.44794
     2.30461      9.74146     72.17768      6.54648     60.67958      9.74146     72.17768
     2.32465     10.53415     74.02708      7.01459     61.94141     10.53414     74.02708
     2.34469     11.43638     76.00842      7.54133     63.28430     11.43637     76.00843
     2.36473     12.47018     78.13515      8.13766     64.71635     12.47017     78.13516
     2.38477     13.66348     80.42207      8.81726     66.24632     13.66345     80.42207
     2.40481     15.05180     82.88473      9.59732     67.88404     15.05176     82.88475
     2.42485     16.68102     85.53905     10.49974     69.63979     16.68097     85.53908
     2.44489     18.61062     88.39955     11.55258     71.52424     18.61056     88.39963
     2.46493     20.91856     91.47682     12.79222     73.54758     20.91847     91.47696
     2.48497     23.70735     94.77215     14.26613     75.71800     23.70724     94.77236
     2.50501     27.11179     98.26784     16.03653     78.03851     27.11168     98.26820
      2.5250      31.3074     101.9100      18.1851      80.5017      31.3074     101.9107
      2.5451      36.5165     105.5782      20.8181      83.0799      36.5167     105.5793
      2.5651      43.0020     109.0346      24.0705      85.7077      43.0029     109.0365
      2.5852      51.0270     111.8479      28.1028      88.2536      51.0299     111.8508
      2.6052      60.7342     113.3046      33.0799      90.4762      60.7413     113.3075
      2.6253      71.8853     112.3860      39.1047      91.9741      71.8997     112.3848
      2.6453      83.4805     108.0116      46.0748      92.1723      83.5027     107.9955
     2.66533     93.59688     99.77093     53.47768     90.45580     93.61208     99.72302
      2.6854     100.1202      88.8026      60.3132      86.5629     100.0863      88.7222
      2.7054     102.2754      77.5710      65.5045      81.0339     102.1459      77.5147
      2.7255     101.1945      68.1646      68.7003      75.0291     100.9977      68.2448
     2.74549     98.62106     61.10424     70.47659     69.37083     98.51537     61.38208
     2.76553     95.57353     55.96585     71.47512     63.97090     95.74791     56.31032
     2.78557     92.46450     52.44598     71.57524     58.42780     92.91329     52.57081
     2.80561     89.81831     50.38575     70.16593     52.99413     90.26781     50.11423
     2.82565     88.23968     49.18674     67.15890     48.64478     88.37074     48.64210
     2.84569     87.74833     47.78360     63.39593     46.14640     87.45854     47.29274
     2.86573     87.41982     45.36154     59.98990     45.37307     86.88986     45.20469
     2.88577     85.87636     42.18738     57.54101     45.52614     85.41678     42.40154
     2.90581     82.42673     39.64978     55.89086     45.75476     82.23394     40.04491
     2.92585     77.70510     39.20559     54.35551     45.70166     77.76510     39.56542
     2.94589     73.07225     41.39277     52.29210     45.72464     73.26601     41.61650
     2.96593     69.69127     45.87302     49.64397     46.55463     69.91431     45.96165
     2.98597     68.20881     51.99523     46.92280     48.67620     68.40663     51.98709
     3.00601     68.92059     59.17167     44.74450     52.09347     69.07418     59.10396
     3.02605     72.01333     66.95990     43.51094     56.53764     72.12034     66.85912
     3.04609     77.72562     74.99430     43.40490     61.71651     77.78916     74.87690
     3.06613     86.42826     82.86044     44.50568     67.41827     86.45164     82.73705
     3.08617     98.64164     89.93002     46.88826     73.51086     98.62690     89.80865
      3.1062     114.9687      95.1386      50.6816      79.9047     114.9165      95.0277
      3.1263     135.8491      96.7048      56.1026      86.5058     135.7604      96.6151
      3.1463     160.9619      91.9082      63.4792      93.1577     160.8416      91.8548
      3.1663     188.1389      77.3514      73.2656      99.5613     188.0016      77.3509
      3.1864     212.2518      50.5132      86.0317     105.1488     212.1258      50.5740
      3.2064     225.8483      12.7765     102.3815     108.8926     225.7672      12.8862
      3.2265     223.2904     -28.7501     122.6908     109.0612     223.2720     -28.6264
      3.2465     205.4127     -64.5507     146.4992     103.0630     205.4465     -64.4480
      3.2665     178.7478     -88.7804     171.4760      87.8318     178.8080     -88.7144
      3.2866     150.4045    -101.2567     192.5395      61.4926     150.4691    -101.2243
      3.3066     124.7227    -104.9412     202.9342      26.1651     124.7804    -104.9325
      3.3267     103.2645    -103.1510     198.3936     -11.0167     103.3118    -103.1567
      3.3467      86.0219     -98.3774     180.7984     -41.7098      86.0591     -98.3909
      3.3667      72.3885     -92.1926     156.4768     -61.5673      72.4171     -92.2103
      3.3868      61.6509     -85.4985     131.5192     -71.1353      61.6726     -85.5180
      3.4068      53.1754     -78.7776     109.3474     -73.2786      53.1916     -78.7977
     3.42685     46.45393    -72.26928     91.04677    -70.89202     46.46574    -72.28951
     3.44689     41.09671    -66.07755     76.47360    -66.06470     41.10500    -66.09762
     3.46693     36.81069    -60.23277     65.04958    -60.08730     36.81603    -60.25271
     3.48697     33.37755    -54.72699     56.14477    -53.68946     33.38031    -54.74680
     3.50701     30.63548    -49.53273     49.21479    -47.25509     30.63588    -49.55255
     3.52705     28.46556    -44.61377     43.83034    -40.96934     28.46361    -44.63368
     3.54709     26.78164    -39.93047     39.66692    -34.90647     26.77726    -39.95067
     3.56713     25.52348    -35.44272     36.48558    -29.08078     25.51641    -35.46333
     3.58717     24.65214    -31.11144     34.11410    -23.47466     24.64197    -31.13253
     3.60721     24.14730    -26.89921     32.43226    -18.05433     24.13337    -26.92083
     3.62725     24.00608    -22.77101     31.36139    -12.77859     23.98746    -22.79308
     3.64729     24.24346    -18.69517     30.85748     -7.60342     24.21887    -18.71740
     3.66733     24.89433    -14.64472     30.90762     -2.48495     24.86196    -14.66634
     3.68737     26.01683    -10.60126     31.52920      2.61736     25.97428    -10.62083
     3.70741     27.69765     -6.56103     32.77195      7.73772     27.64177     -6.57572
     3.72745     30.05863     -2.54651     34.72253     12.89806     29.98565     -2.55107
     3.74749     33.26271      1.37263     37.51192     18.09779     33.16893      1.38763
     3.76753     37.51400      5.04393     41.32458     23.29512     37.39803      5.09467
     3.78758     43.03811      8.17591     46.40620     28.37452     42.90702      8.28838
     3.80762     50.01274     10.26381     53.06087     33.09103     49.89493     10.47327
     3.82766     58.40102     10.53667     61.61446     36.98565     58.36802     10.87240
     3.84770     67.66738      8.04849     72.29758     39.27998     67.84708      8.48311
     3.86774     76.53805      2.10662     84.98235     38.82373     77.05969      2.46998
     3.88778     83.27427     -7.03251     98.77671     34.29192     84.08481     -7.06125
      3.9078      86.6676     -17.9819     111.7871      24.8687      87.3766     -18.6215
      3.9279      86.7162     -29.1803     121.7103      11.1296      86.8277     -30.1995
      3.9479      83.9495     -39.8103     127.1968      -5.0720      83.3646     -40.6222
      3.9679      78.5738     -49.3739     128.2781     -22.0426      77.7082     -49.5782
      3.9880      70.8377     -56.9973     125.1355     -38.9288      70.1812     -56.6884
      4.0080      61.6924     -61.8322     117.4694     -54.6295      61.4149     -61.3533
      4.0281      52.4712     -63.7909     105.6640     -67.2187      52.4727     -63.3854
     4.04810     44.16154    -63.49468     91.55415    -75.18864     44.29078    -63.23197
     4.06814     37.16598    -61.75897     77.42723    -78.54190     37.32484    -61.61790
     4.08818     31.48079    -59.24927     64.81571    -78.39334     31.62566    -59.18924
     4.10822     26.92653    -56.40377     54.27772    -76.06015     27.04444    -56.39180
     4.12826     23.28647    -53.47800     45.75999    -72.56766     23.37732    -53.49271
     4.14830     20.36496    -50.60859     38.96510    -68.57442     20.43259    -50.63728
     4.16834     18.00292    -47.86177     33.55439    -64.45906     18.05160    -47.89720
     4.18838     16.07683    -45.26448     29.22803    -60.42198     16.11012    -45.30256
     4.20842     14.49253    -42.82260     25.74473    -56.55944     14.51307    -42.86086
     4.22846     13.17862    -40.53143     22.91813    -52.90976     13.18827    -40.56805
     4.24850     12.08058    -38.38118     20.60659    -49.48029     12.08085    -38.41446
     4.26854     11.15635    -36.35989     18.70304    -46.26246     11.14893    -36.38806
     4.28858     10.37312    -34.45468     17.12637    -43.24028     10.36031    -34.47630
     4.30862      9.70548    -32.65236     15.81489    -40.39463      9.69010    -32.66690
     4.32866      9.13422    -30.94008     14.72143    -37.70576      9.11891    -30.94830
     4.34870      8.64511    -29.30629     13.80974    -35.15441      8.63151    -29.30980
     4.36874      8.22718    -27.74106     13.05192    -32.72235      8.21593    -27.74153
     4.38878      7.87170    -26.23579     12.42648    -30.39251      7.86273    -26.23450
     4.40882      7.57147    -24.78264     11.91693    -28.14902      7.56446    -24.78047
     4.42886      7.32073    -23.37430     11.51087    -25.97705      7.31526    -23.37175
     4.44890      7.11488    -22.00389     11.19916    -23.86262      7.11062    -22.00122
     4.46894      6.95045    -20.66487     10.97550    -21.79248      6.94711    -20.66224
     4.48898      6.82491    -19.35098     10.83607    -19.75383      6.82228    -19.34845
     4.50902      6.73658    -18.05617     10.77935    -17.73425      6.73450    -18.05377
     4.52906      6.68458    -16.77446     10.80606    -15.72126      6.68292    -16.77220
     4.54910      6.66880    -15.50003     10.91925    -13.70241      6.66747    -15.49788
     4.56914      6.68986    -14.22695     11.12446    -11.66494      6.68880    -14.22491
     4.58918      6.74919    -12.94919     11.43012     -9.59559      6.74835    -12.94726
     4.60922      6.84909    -11.66054     11.84802     -7.48050      6.84843    -11.65871
     4.62926      6.99280    -10.35455     12.39414     -5.30499      6.99230    -10.35278
     4.64930      7.18472     -9.02427     13.08967     -3.05361      7.18436     -9.02255
     4.66934      7.43058     -7.66230     13.96254     -0.71011      7.43034     -7.66062
     4.68938      7.73776     -6.26067     15.04947      1.74217      7.73763     -6.25902
     4.70942      8.11569     -4.81072     16.39881      4.31954      8.11566     -4.80909
     4.72946      8.57639     -3.30298     18.07448      7.03639      8.57648     -3.30133
     4.74950      9.13524     -1.72711     20.16133      9.90205      9.13545     -1.72544
     4.76954      9.81194     -0.07194     22.77231     12.91504      9.81226     -0.07026
     4.78958     10.63185      1.67433     26.05773     16.05246     10.63230      1.67604
     4.80962     11.62791      3.52394     30.21607     19.25099     11.62853      3.52570
     4.82966     12.84317      5.48866     35.50361     22.37295     12.84399      5.49049
     4.84970     14.33424      7.57812     42.23429     25.14849     14.33530      7.58001
     4.86974     16.17606      9.79685     50.74725     27.08297     16.17741      9.79881
     4.88978     18.46823     12.13873     61.29229     27.33142     18.46996     12.14073
     4.90982     21.34286     14.57661     73.74831     24.59749     21.34508     14.57864
     4.92986     24.97330     17.04397     87.11185     17.26037     24.97618     17.04597
     4.94990     29.58088     19.40285     98.97076      4.10878     29.58456     19.40465
      4.9699      35.4290      21.3891     105.8008     -14.2287      35.4337      21.3904
      4.9900      42.7824      22.5286     104.9070     -34.4116      42.7882      22.5290
     5.01002     51.78177     22.03344     96.63573    -51.92134     51.78872     22.03211
     5.03006     62.16017     18.75158     84.06226    -63.93045     62.16766     18.74761
     5.05010     72.78722     11.38577     70.58887    -70.30089     72.79411     11.37819
     5.07014     81.35184     -0.70957     58.32415    -72.42592     81.35571     -0.72050
     5.09018     84.99752    -16.33591     48.04352    -71.89511     84.99641    -16.34822
     5.11022     82.20652    -32.25286     39.75903    -69.91279     82.20042    -32.26345
     5.13026     74.13027    -45.03365     33.18627    -67.24328     74.12120    -45.04043
     5.15030     63.56206    -53.13642     27.98502    -64.32746     63.55233    -53.13923
     5.17034     52.97034    -57.00322     23.85111    -61.40330     52.96156    -57.00294
     5.19038     43.65461    -57.90121     20.53957    -58.59081     43.64734    -57.89900
     5.21042     35.97959    -57.02922     17.86161    -55.94424     35.97380    -57.02590
     5.23046     29.84273    -55.23005     15.67429    -53.48232     29.83827    -55.22618
     5.25050     24.98673    -53.01848     13.86991    -51.20526     24.98339    -53.01439
     5.27054     21.14382    -50.68431     12.36713    -49.10402     21.14136    -50.68014
     5.29058     18.08543    -48.38064     11.10421    -47.16563     18.08370    -48.37647
     5.31062     15.63110    -46.18254     10.03386    -45.37579     15.62996    -46.17837
     5.33066     13.64288    -44.12193      9.11965    -43.72024     13.64229    -44.11779
     5.35070     12.01674    -42.20778      8.33317    -42.18576     12.01665    -42.20365
     5.37074     10.67427    -40.43705      7.65213    -40.75996     10.67465    -40.43289
     5.39078      9.55632    -38.80114      7.05891    -39.43189      9.55721    -38.79692
     5.41082      8.61800    -37.28901      6.53946    -38.19168      8.61945    -37.28474
     5.43086      7.82498    -35.88907      6.08254    -37.03049      7.82707    -35.88472
     5.45090      7.15090    -34.59006      5.67909    -35.94065      7.15377    -34.58564
     5.47094      6.57542    -33.38145      5.32183    -34.91517      6.57927    -33.37701
     5.49098      6.08285    -32.25370      5.00492    -33.94803      6.08795    -32.24934
     5.51102      5.66117    -31.19829      4.72372    -33.03382      5.66787    -31.19425
     5.53106      5.30130    -30.20777      4.47466    -32.16792      5.31006    -30.20450
     5.55110      4.99668    -29.27586      4.25508    -31.34634      5.00798    -29.27420
     5.57114      4.74285    -28.39761      4.06319    -30.56598      4.75705    -28.39899
     5.59118      4.53718    -27.56976      3.89795    -29.82466      4.55405    -27.57653
     5.61122      4.37835    -26.79138      3.75884    -29.12163      4.39604    -26.80682
     5.63126      4.26532    -26.06463      3.64526    -28.45797      4.27871    -26.09192
     5.65130      4.19521    -25.39510      3.55523    -27.83696      4.19488    -25.43388
     5.67134      4.16037    -24.79030      3.48334    -27.26317      4.13582    -24.83128
     5.69138      4.14713    -24.25492      3.41930    -26.73928      4.09685    -24.27881
     5.71142      4.14060    -23.78590      3.35031    -26.26146      4.08099    -23.77492
     5.73146      4.13282    -23.37625      3.26785    -25.81912      4.09125    -23.33095
     5.75150      4.12007    -23.02654      3.17075    -25.40182      4.11496    -22.96858
     5.77154      4.08681    -22.74435      3.05947    -25.00363      4.11430    -22.70105
     5.79158      3.99997    -22.52312      2.93195    -24.61816      4.03914    -22.50814
     5.81162      3.83208    -22.32509      2.78887    -24.23481      3.86297    -22.33266
     5.83166      3.59064    -22.09873      2.63841    -23.84431      3.60659    -22.11480
     5.85170      3.31411    -21.81380      2.49181    -23.44490      3.31872    -21.82856
     5.87174      3.04244    -21.47206      2.35700    -23.04096      3.04136    -21.48239
     5.89178      2.79873    -21.09207      2.23692    -22.63841      2.79571    -21.09835
     5.91182      2.59003    -20.69332      2.13125    -22.24184      2.58684    -20.69683
     5.93186      2.41471    -20.28989      2.03830    -21.85405      2.41197    -20.29172
     5.95190      2.26803    -19.89027      1.95616    -21.47639      2.26587    -19.89113
     5.97194      2.14497    -19.49891      1.88310    -21.10931      2.14332    -19.49924
     5.99198      2.04119    -19.11781      1.81776    -20.75273      2.03994    -19.11785
     6.01202      1.95328    -18.74757      1.75908    -20.40627      1.95234    -18.74746
     6.03206      1.87868    -18.38799      1.70627    -20.06945      1.87797    -18.38782
     6.05210      1.81553    -18.03849      1.65879    -19.74170      1.81499    -18.03828
     6.07214      1.76257    -17.69825      1.61629    -19.42239      1.76215    -17.69804
     6.09218      1.71898    -17.36638      1.57858    -19.11096      1.71866    -17.36617
     6.11222      1.68439    -17.04195      1.54566    -18.80680      1.68414    -17.04174
     6.13226      1.65880    -16.72400      1.51768    -18.50936      1.65861    -16.72381
     6.15230      1.64261    -16.41163      1.49501    -18.21814      1.64246    -16.41145
     6.17234      1.63666    -16.10398      1.47824    -17.93269      1.63655    -16.10381
     6.19238      1.64233    -15.80031      1.46828    -17.65269      1.64224    -15.80015
     6.21242      1.66162    -15.50010      1.46639    -17.37806      1.66156    -15.49994
     6.23246      1.69739    -15.20320      1.47432    -17.10910      1.69736    -15.20305
     6.25250      1.75356    -14.91024      1.49441    -16.84686      1.75355    -14.91010
     6.27254      1.83537    -14.62320      1.52953    -16.59363      1.83537    -14.62306
     6.29258      1.94952    -14.34644      1.58282    -16.35390      1.94955    -14.34630
     6.31262      2.10387    -14.08856      1.65659    -16.13547      2.10392    -14.08844
     6.33266      2.30590    -13.86503      1.74963    -15.95048      2.30598    -13.86492
     6.35271      2.55817    -13.70123      1.85235    -15.81419      2.55828    -13.70114
     6.37275      2.84880    -13.63310      1.94168    -15.73803      2.84892    -13.63304
     6.39279      3.13736    -13.69790      1.98384    -15.71582      3.13749    -13.69789
     6.41283      3.34879    -13.90672      1.95307    -15.71534      3.34891    -13.90676
     6.43287      3.40043    -14.21039      1.85286    -15.69320      3.40050    -14.21046
     6.45291      3.26108    -14.50505      1.71278    -15.62249      3.26111    -14.50513
     6.47295      2.97898    -14.69564      1.56522    -15.50205      2.97898    -14.69570
     6.49299      2.63965    -14.74911      1.43005    -15.34520      2.63963    -14.74915
     6.51303      2.31063    -14.68619      1.31444    -15.16692      2.31061    -14.68622
     6.53307      2.02423    -14.54565      1.21841    -14.97851      2.02421    -14.54566
     6.55311      1.78760    -14.36134      1.13918    -14.78707      1.78758    -14.36134
     6.57315      1.59618    -14.15622      1.07349    -14.59664      1.59617    -14.15622
     6.59319      1.44200    -13.94401      1.01842    -14.40935      1.44199    -13.94401
     6.61323      1.31717    -13.73228      0.97164    -14.22624      1.31716    -13.73229
     6.63327      1.21512    -13.52497      0.93133    -14.04770      1.21512    -13.52497
     6.65331      1.13070    -13.32389      0.89613    -13.87384      1.13069    -13.32389
     6.67335      1.05996    -13.12973      0.86498    -13.70455      1.05996    -13.12973
     6.69339      0.99994    -12.94261      0.83710    -13.53968      0.99994    -12.94261
     6.71343      0.94839    -12.76229      0.81188    -13.37903      0.94839    -12.76229
     6.73347      0.90362    -12.58843      0.78888    -13.22236      0.90362    -12.58843
     6.75351      0.86431    -12.42063      0.76771    -13.06949      0.86431    -12.42063
     6.77355      0.82947    -12.25846      0.74810    -12.92020      0.82947    -12.25846
     6.79359      0.79832    -12.10154      0.72983    -12.77433      0.79832    -12.10154
     6.81363      0.77023    -11.94949      0.71270    -12.63169      0.77023    -11.94949
     6.83367      0.74473    -11.80198      0.69657    -12.49214      0.74473    -11.80198
     6.85371      0.72142    -11.65870      0.68133    -12.35552      0.72142    -11.65870
     6.87375      0.69998    -11.51937      0.66687    -12.22173      0.69998    -11.51937
     6.89379      0.68016    -11.38375      0.65312    -12.09062      0.68016    -11.38375
     6.91383      0.66175    -11.25160      0.63999    -11.96209      0.66175    -11.25160
     6.93387      0.64457    -11.12273      0.62743    -11.83603      0.64457    -11.12273
     6.95391      0.62848    -10.99695      0.61539    -11.71236      0.62848    -10.99695
     6.97395      0.61335    -10.87410      0.60383    -11.59097      0.61335    -10.87410
     6.99399      0.59908    -10.75403      0.59271    -11.47180      0.59907    -10.75403
     7.01403      0.58557    -10.63658      0.58199    -11.35476      0.58557    -10.63658
     7.03407      0.57277    -10.52166      0.57166    -11.23979      0.57277    -10.52166
     7.05411      0.56059    -10.40913      0.56167    -11.12680      0.56059    -10.40913
     7.07415      0.54899    -10.29889      0.55201    -11.01576      0.54899    -10.29889
     7.09419      0.53791    -10.19084      0.54266    -10.90657      0.53791    -10.19084
     7.11423      0.52731    -10.08489      0.53361    -10.79921      0.52731    -10.08489
     7.13427      0.51715     -9.98096      0.52482    -10.69361      0.51715     -9.98096
     7.15431      0.50740     -9.87897      0.51630    -10.58972      0.50740     -9.87897
     7.17435      0.49803     -9.77885      0.50802    -10.48748      0.49803     -9.77885
     7.19439      0.48902     -9.68053      0.49997    -10.38687      0.48902     -9.68053
     7.21443      0.48033     -9.58394      0.49215    -10.28783      0.48033     -9.58394
     7.23447      0.47195     -9.48902      0.48453    -10.19032      0.47195     -9.48902
     7.25451      0.46385     -9.39573      0.47712    -10.09429      0.46385     -9.39573
    7.274549     0.456030    -9.304002     0.469906    -9.999716     0.456030    -9.304002
    7.294589     0.448462    -9.213794     0.462874    -9.906562     0.448462    -9.213794
    7.314629     0.441135    -9.125051     0.456019    -9.814777     0.441135    -9.125051
    7.334669     0.434034    -9.037732     0.449334    -9.724343     0.434034    -9.037732
    7.354709     0.427149    -8.951795     0.442812    -9.635215     0.427149    -8.951795
    7.374749     0.420468    -8.867203     0.436448    -9.547379     0.420468    -8.867203
    7.394789     0.413981    -8.783907     0.430235    -9.460782     0.413981    -8.783907
    7.414829     0.407679    -8.701884     0.424168    -9.375419     0.407679    -8.701884
    7.434869     0.401552    -8.621087     0.418241    -9.291236     0.401552    -8.621087
    7.454909     0.395594    -8.541491     0.412450    -9.208225     0.395594    -8.541491
    7.474950     0.389796    -8.463059     0.406790    -9.126359     0.389796    -8.463059
    7.494989     0.384151    -8.385764     0.401257    -9.045602     0.384151    -8.385764
    7.515030     0.378654    -8.309572     0.395846    -8.965932     0.378654    -8.309572
    7.535069     0.373298    -8.234462     0.390553    -8.887330     0.373298    -8.234462
    7.555110     0.368077    -8.160398     0.385376    -8.809768     0.368077    -8.160398
    7.575150     0.362986    -8.087362     0.380310    -8.733236     0.362986    -8.087362
    7.595191     0.358020    -8.015322     0.375351    -8.657695     0.358020    -8.015322
    7.615230     0.353175    -7.944260     0.370497    -8.583134     0.353175    -7.944260
    7.635271     0.348446    -7.874147     0.365745    -8.509527     0.348446    -7.874147
    7.655310     0.343829    -7.804969     0.361091    -8.436868     0.343829    -7.804969
    7.675351     0.339320    -7.736695     0.356533    -8.365115     0.339320    -7.736695
    7.695390     0.334916    -7.669312     0.352068    -8.294271     0.334916    -7.669312
    7.715430     0.330613    -7.602793     0.347694    -8.224305     0.330613    -7.602793
    7.735471     0.326407    -7.537119     0.343408    -8.155202     0.326407    -7.537119
    7.755510     0.322296    -7.472278     0.339208    -8.086946     0.322296    -7.472278
    7.775551     0.318276    -7.408243     0.335091    -8.019516     0.318276    -7.408243
    7.795590     0.314345    -7.345002     0.331056    -7.952909     0.314345    -7.345002
    7.815631     0.310501    -7.282535     0.327100    -7.887090     0.310501    -7.282535
    7.835670     0.306740    -7.220827     0.323221    -7.822057     0.306740    -7.220827
    7.855711     0.303061    -7.159858     0.319418    -7.757792     0.303061    -7.159858
    7.875751     0.299461    -7.099618     0.315688    -7.694278     0.299461    -7.099618
    7.895792     0.295937    -7.040086     0.312030    -7.631494     0.295937    -7.040086
    7.915831     0.292489    -6.981250     0.308443    -7.569446     0.292489    -6.981250
    7.935872     0.289114    -6.923093     0.304924    -7.508095     0.289114    -6.923093
    7.955911     0.285809    -6.865606     0.301473    -7.447447     0.285809    -6.865606
    7.975952     0.282575    -6.808768     0.298087    -7.387479     0.282575    -6.808768
    7.995991     0.279407    -6.752569     0.294765    -7.328183     0.279407    -6.752569
    8.016032     0.276306    -6.696996     0.291506    -7.269541     0.276306    -6.696996
    8.036072     0.273270    -6.642038     0.288309    -7.211549     0.273270    -6.642038
    8.056112     0.270297    -6.587676     0.285172    -7.154183     0.270297    -6.587676
    8.076152     0.267386    -6.533903     0.282095    -7.097444     0.267386    -6.533903
    8.096192     0.264535    -6.480705     0.279076    -7.041312     0.264535    -6.480705
    8.116232     0.261744    -6.428071     0.276114    -6.985779     0.261744    -6.428071
    8.136271     0.259012    -6.375991     0.273207    -6.930829     0.259012    -6.375991
    8.156312     0.256336    -6.324447     0.270356    -6.876457     0.256336    -6.324447
    8.176352     0.253717    -6.273434     0.267560    -6.822646     0.253717    -6.273434
    8.196392     0.251153    -6.222937     0.264817    -6.769390     0.251153    -6.222937
    8.216433     0.248644    -6.172949     0.262126    -6.716681     0.248644    -6.172949
    8.236473     0.246188    -6.123456     0.259487    -6.664500     0.246188    -6.123456
    8.256513     0.243785    -6.074450     0.256900    -6.612841     0.243785    -6.074450
    8.276553     0.241435    -6.025917     0.254363    -6.561696     0.241435    -6.025917
    8.296593     0.239136    -5.977852     0.251876    -6.511055     0.239136    -5.977852
    8.316633     0.236888    -5.930238     0.249438    -6.460907     0.236888    -5.930238
    8.336673     0.234691    -5.883071     0.247049    -6.411242     0.234691    -5.883071
    8.356713     0.232544    -5.836338     0.244709    -6.362048     0.232544    -5.836338
    8.376753     0.230448    -5.790030     0.242417    -6.313319     0.230448    -5.790030
    8.396793     0.228400    -5.744135     0.240173    -6.265044     0.228400    -5.744135
    8.416833     0.226403    -5.698648     0.237977    -6.217215     0.226403    -5.698648
    8.436873     0.224454    -5.653553     0.235828    -6.169818     0.224454    -5.653553
    8.456913     0.222555    -5.608847     0.233726    -6.122847     0.222555    -5.608847
    8.476954     0.220705    -5.564515     0.231672    -6.076293     0.220705    -5.564515
    8.496993     0.218904    -5.520551     0.229665    -6.030148     0.218904    -5.520551
    8.517034     0.217153    -5.476940     0.227706    -5.984398     0.217153    -5.476940
    8.537074     0.215452    -5.433678     0.225795    -5.939039     0.215452    -5.433678
    8.557114     0.213801    -5.390754     0.223932    -5.894059     0.213801    -5.390754
    8.577154     0.212201    -5.348153     0.222118    -5.849447     0.212201    -5.348153
    8.597194     0.210653    -5.305871     0.220353    -5.805194     0.210653    -5.305871
    8.617234     0.209157    -5.263895     0.218637    -5.761293     0.209157    -5.263895
    8.637274     0.207714    -5.222215     0.216973    -5.717731     0.207714    -5.222215
    8.657314     0.206325    -5.180820     0.215360    -5.674497     0.206325    -5.180820
    8.677354     0.204991    -5.139701     0.213800    -5.631588     0.204991    -5.139701
    8.697394     0.203715    -5.098846     0.212293    -5.588985     0.203715    -5.098846
    8.717434     0.202497    -5.058244     0.210843    -5.546681     0.202497    -5.058244
    8.737474     0.201339    -5.017881     0.209450    -5.504664     0.201339    -5.017881
    8.757514     0.200243    -4.977752     0.208116    -5.462931     0.200243    -4.977752
    8.777555     0.199212    -4.937837     0.206843    -5.421455     0.199212    -4.937837
    8.797595     0.198249    -4.898128     0.205635    -5.380237     0.198249    -4.898128
    8.817636     0.197355    -4.858608     0.204494    -5.339260     0.197355    -4.858608
    8.837675     0.196535    -4.819269     0.203423    -5.298509     0.196535    -4.819269
    8.857716     0.195791    -4.780091     0.202427    -5.257969     0.195791    -4.780091
    8.877755     0.195129    -4.741063     0.201509    -5.217636     0.195129    -4.741063
    8.897796     0.194553    -4.702166     0.200674    -5.177477     0.194553    -4.702166
    8.917835     0.194069    -4.663388     0.199927    -5.137497     0.194069    -4.663388
    8.937876     0.193681    -4.624704     0.199276    -5.097664     0.193681    -4.624704
    8.957915     0.193396    -4.586103     0.198727    -5.057968     0.193396    -4.586103
    8.977956     0.193224    -4.547558     0.198288    -5.018379     0.193224    -4.547558
    8.997995     0.193170    -4.509055     0.197968    -4.978891     0.193170    -4.509055
    9.018035     0.193246    -4.470567     0.197779    -4.939470     0.193246    -4.470567
    9.038075     0.193463    -4.432068     0.197733    -4.900098     0.193463    -4.432068
    9.058115     0.193831    -4.393535     0.197844    -4.860745     0.193831    -4.393535
    9.078156     0.194367    -4.354937     0.198127    -4.821383     0.194367    -4.354937
    9.098196     0.195085    -4.316243     0.198604    -4.781981     0.195085    -4.316243
    9.118237     0.196005    -4.277420     0.199294    -4.742505     0.196005    -4.277420
    9.138276     0.197148    -4.238431     0.200226    -4.702918     0.197148    -4.238431
    9.158317     0.198537    -4.199233     0.201428    -4.663177     0.198537    -4.199233
    9.178356     0.200203    -4.159786     0.202938    -4.623232     0.200203    -4.159786
    9.198397     0.202177    -4.120034     0.204798    -4.583035     0.202177    -4.120034
    9.218436     0.204499    -4.079928     0.207058    -4.542527     0.204499    -4.079928
    9.238477     0.207214    -4.039403     0.209782    -4.501636     0.207214    -4.039403
    9.258516     0.210375    -3.998395     0.213041    -4.460302     0.210375    -3.998395
    9.278557     0.214045    -3.956824     0.216926    -4.418428     0.214045    -3.956825
    9.298596     0.218300    -3.914611     0.221546    -4.375930     0.218300    -3.914611
    9.318637     0.223229    -3.871654     0.227036    -4.332702     0.223229    -3.871654
    9.338676     0.228942    -3.827850     0.233563    -4.288631     0.228941    -3.827850
    9.358717     0.235568    -3.783074     0.241336    -4.243573     0.235568    -3.783074
    9.378757     0.243269    -3.737197     0.250619    -4.197390     0.243269    -3.737197
    9.398798     0.252242    -3.690055     0.261745    -4.149919     0.252241    -3.690056
    9.418838     0.262729    -3.641483     0.275145    -4.100996     0.262728    -3.641484
    9.438877     0.275034    -3.591283     0.291375    -4.050439     0.275033    -3.591284
    9.458918     0.289541    -3.539239     0.311160    -3.998096     0.289540    -3.539238
    9.478957     0.306734    -3.485111     0.335456    -3.943846     0.306732    -3.485111
    9.498998     0.327236    -3.428647     0.365527    -3.887675     0.327233    -3.428646
    9.519037     0.351846    -3.369586     0.403052    -3.829790     0.351843    -3.369585
    9.539078     0.381615    -3.307678     0.450251    -3.770774     0.381610    -3.307675
    9.559117     0.417912    -3.242735     0.510012    -3.711980     0.417906    -3.242731
    9.579158     0.462559    -3.174701     0.585953    -3.656092     0.462551    -3.174693
    9.599197     0.517962    -3.103806     0.682184    -3.608119     0.517951    -3.103792
    9.619238     0.587312    -3.030815     0.802345    -3.576825     0.587299    -3.030790
    9.639277     0.674759    -2.957523     0.946922    -3.576220     0.674750    -2.957479
    9.659318     0.785541    -2.887543     1.107905    -3.625311     0.785547    -2.887471
    9.679358     0.925701    -2.827682     1.261637    -3.742020     0.925752    -2.827572
    9.699399     1.100887    -2.789890     1.367791    -3.927658     1.101042    -2.789762
    9.719439     1.312916    -2.793462     1.386886    -4.151242     1.313244    -2.793406
    9.739479     1.552826    -2.865247     1.310412    -4.358224     1.553297    -2.865479
    9.759519     1.790921    -3.032869     1.168542    -4.505013     1.791215    -3.033577
    9.779559     1.972451    -3.305435     1.004622    -4.580934     1.972068    -3.306350
    9.799599     2.035680    -3.648996     0.849752    -4.599488     2.034637    -3.649390
    9.819639     1.953923    -3.987973     0.717480    -4.580499     1.952925    -3.987531
    9.839679     1.759399    -4.249008     0.609954    -4.540237     1.758984    -4.248144
    9.859718     1.515952    -4.403227     0.524355    -4.489445     1.516080    -4.402451
    9.879759     1.276711    -4.463944     0.456574    -4.434460     1.277104    -4.463457
    9.899798     1.068373    -4.460337     0.402746    -4.378768     1.068821    -4.460118
    9.919839     0.897614    -4.418859     0.359681    -4.324159     0.898014    -4.418826
    9.939879     0.761491    -4.357778     0.324909    -4.271483     0.761812    -4.357854
    9.959920     0.654013    -4.288134     0.296548    -4.221063     0.654258    -4.288272
    9.979959     0.569170    -4.216101     0.273183    -4.172957     0.569345    -4.216271
    10.00000      0.50188     -4.14490      0.25375     -4.12708      0.50199     -4.14509
# 
# 04/10/2017 at 17:09 YAMBO_RT @ anomaly [start]
# 04/10/2017 at 17:09                    [end]
#  
# Timing   [Min/Max/Average]: 03s/03s/03s
#
# .-Input file : yambo.in
# | optics                       # [R OPT] Optics
# | bse                          # [R BSE] Bethe Salpeter Equation.
# | bsk                          # [R BSK] Bethe Salpeter Equation kernel
# | bss                          # [R BSS] Bethe Salpeter Equation solver
# | em1s                         # [R Xs] Static Inverse Dielectric Matrix
# | BoseTemp= 0.000000     eV    # Bosonic Temperature
# | FFTGvecs=  387         RL    # [FFT] Plane-waves
# | X_Threads= 1                 # [OPENMP/X] Number of threads for response functions
# | DIP_Threads= 1               # [OPENMP/X] Number of threads for dipoles
# | K_Threads= 1                 # [OPENMP/BSK] Number of threads for response functions
# | Chimod= "hartree"            # [X] IP/Hartree/ALDA/LRC/BSfxc
# | BSEmod= "retarded"           # [BSE] resonant/retarded/coupling
# | BSKmod= "SEX"                # [BSE] IP/Hartree/HF/ALDA/SEX/BSfxc
# | BSSmod= "h"                  # [BSS] (h)aydock/(d)iagonalization/(i)nversion/(t)ddft`
# | BSENGexx=  531         RL    # [BSK] Exchange components
# | BSENGBlk=  59          RL    # [BSK] Screened interaction block size
# | #WehCpl                      # [BSK] eh interaction included also in coupling
# | KfnQPdb= "E < 08_ypp_gw_10fs/ndb.QP" # [EXTQP BSK BSS] Database
# | KfnRTdb= "f @ 0.1 ps < 04_elel+elph_0K/ndb.RT_carriers" # [EXTRT BSK BSS] Database
# | RfnRTdb= "f @ 0.1 ps < 04_elel+elph_0K/ndb.RT_carriers" # [EXTRT R] Database
# | % BEnRange
# |   0.00000 | 10.00000 | eV    # [BSS] Energy range
# | %
# | % BDmRange
# |   0.10000 |  0.10000 | eV    # [BSS] Damping range
# | %
# | BEnSteps=  500               # [BSS] Energy steps
# | % BLongDir
# | 0.1000E-4 | 0.000    | 0.000    |        # [BSS] [cc] Electric Field
# | %
# | % BSEBands
# |   2 |  7 |                   # [BSK] Bands range
# | %
# | BSHayTrs=  0.02000           # [BSS] Relative [o/o] Haydock treshold. Strict(>0)/Average(<0)
# | XfnRTdb= "f @ 0.1 ps < 04_elel+elph_0K/ndb.RT_carriers" # [EXTRT Xd] Database
# | % BndsRnXs
# |   1 |  8 |                   # [Xs] Polarization function bands
# | %
# | NGsBlkXs=  59          RL    # [Xs] Response block size
# | GrFnTpXs= "R"                # [Xs] Green`s function (T)ordered,(R)etarded,(r)senant,(a)ntiresonant [T, R, r, Ta, Ra]
# | % DmRngeXs
# |   0.10000 |  0.10000 | eV    # [Xs] Damping range
# | %
# | % LongDrXs
# | 0.1000E-4 | 0.000    | 0.000    |        # [Xs] [cc] Electric Field
# | %
