#                                                                     
#  ____  ____     _       ____    ____  ______      ___               
# |_  _||_  _|   / \     |_   \  /   _||_   _ \   ."   `.             
#   \ \  / /    / _ \      |   \/   |    | |_) | /  .-.  \            
#    \ \/ /    / ___ \     | |\  /| |    |  __". | |   | |            
#    _|  |_  _/ /   \ \_  _| |_\/_| |_  _| |__) |\  `-"  /            
#   |______||____| |____||_____||_____||_______/  `.___."             
#                                                                     
#                                                                     
#                                                                     
# Version 5.2.0 Revision 23455 Hash (prev commit) 4b9e8e27e8          
#                  Branch is phys-magnons                             
#          MPI+OpenMP+SLK+SLEPC+HDF5_MPI_IO Build                     
#                http://www.yambo-code.org                            
#
# Magnons (S+-) @ Q(1):   1.00000000      0.00000000      0.00000000    [q->0 direction]
#
# [GEN] GF Energies                               : Slater exchange(X)+Perdew & Wang(C)
# [GEN] Green`s Function                          : Resonant
#
# [GEN] Gauge                                     : Length
# [GEN] [r,Vnl] included                          : yes
#
# DIP band range                                  :   1  10
# DIP band range limits                           :  10   1
# DIP e/h energy range                            :  -1.00000000     -1.00000000    [eV]
# RL vectors in the sum                           :   4935
# [r,Vnl] included                                : yes
# Bands ordered                                   : no
# Direct v evaluation                             : no
# Approach used                                   : G-space v
# Dipoles computed                                : R V P Spin
# Wavefunctions                                   : Slater exchange(X)+Perdew & Wang(C)
#
#
# [K] Identifier                                  :   4868
# [K] Dimension                                   :   324
# [K] Bands                                       :   1  10
# [K] Exchange res                                : no
# [K] Correlation res                             : no
# [K] Kernel`s coupling                           : no
# [K] Exchange cpl                                : no
# [K] Correlation cpl                             : no
# [K] W interaction is bare                       : no
# [K] ALDA kernel in R-space                      : yes
# [K] E/h energy range                            :  -1.00000000     -1.00000000    [eV]
# [K] Coupling range                              :   100.000000      100.000000    [o/o]
# [X] Response Kind                               : BAR
#
#
#    E[1] [eV]          Im(Spm)            Re(Spm)            Im(Spm_o)          Re(Spm_o)
#
        0.000000           0.131990E-3        0.007376           0.273661E-4        0.003407
        0.003000           0.132729E-3        0.007396           0.274371E-4        0.003411
        0.006000           0.133475E-3        0.007416           0.275085E-4        0.003415
        0.009000           0.134226E-3        0.007436           0.275801E-4        0.003419
        0.012000           0.134985E-3        0.007456           0.276520E-4        0.003423
        0.015000           0.135749E-3        0.007477           0.277242E-4        0.003427
        0.018000           0.136521E-3        0.007497           0.277967E-4        0.003431
        0.021000           0.137299E-3        0.007518           0.278695E-4        0.003436
        0.024000           0.138083E-3        0.007538           0.279426E-4        0.003440
        0.027000           0.138875E-3        0.007559           0.280160E-4        0.003444
        0.030000           0.139673E-3        0.007580           0.280898E-4        0.003448
        0.033000           0.140479E-3        0.007601           0.281638E-4        0.003452
        0.036000           0.141291E-3        0.007622           0.282381E-4        0.003457
        0.039000           0.142111E-3        0.007643           0.283128E-4        0.003461
        0.042000           0.142938E-3        0.007665           0.283878E-4        0.003465
        0.045000           0.143772E-3        0.007686           0.284630E-4        0.003469
        0.048000           0.144614E-3        0.007708           0.285387E-4        0.003474
        0.051000           0.145463E-3        0.007729           0.286146E-4        0.003478
        0.054000           0.146320E-3        0.007751           0.286908E-4        0.003482
        0.057000           0.147184E-3        0.007773           0.287674E-4        0.003487
        0.060000           0.148056E-3        0.007795           0.288443E-4        0.003491
        0.063000           0.148937E-3        0.007818           0.289215E-4        0.003495
        0.066000           0.149825E-3        0.007840           0.289991E-4        0.003500
        0.069000           0.150721E-3        0.007863           0.290770E-4        0.003504
        0.072000           0.151625E-3        0.007885           0.291552E-4        0.003508
        0.075000           0.152538E-3        0.007908           0.292338E-4        0.003513
        0.078000           0.153458E-3        0.007931           0.293127E-4        0.003517
        0.081000           0.154388E-3        0.007954           0.293919E-4        0.003521
        0.084000           0.155326E-3        0.007977           0.294715E-4        0.003526
        0.087000           0.156272E-3        0.008001           0.295514E-4        0.003530
        0.090000           0.157228E-3        0.008024           0.296317E-4        0.003535
        0.093000           0.158192E-3        0.008048           0.297123E-4        0.003539
        0.096000           0.159165E-3        0.008072           0.297933E-4        0.003544
        0.099000           0.160148E-3        0.008095           0.298746E-4        0.003548
        0.102000           0.161139E-3        0.008120           0.299562E-4        0.003553
        0.105000           0.162140E-3        0.008144           0.300383E-4        0.003557
        0.108000           0.163151E-3        0.008168           0.301207E-4        0.003562
        0.111000           0.164171E-3        0.008193           0.302034E-4        0.003566
        0.114000           0.165200E-3        0.008217           0.302865E-4        0.003571
        0.117000           0.166240E-3        0.008242           0.303700E-4        0.003575
        0.120000           0.167290E-3        0.008267           0.304539E-4        0.003580
        0.123000           0.168349E-3        0.008292           0.305381E-4        0.003584
        0.126000           0.169419E-3        0.008318           0.306227E-4        0.003589
        0.129000           0.170499E-3        0.008343           0.307077E-4        0.003593
        0.132000           0.171590E-3        0.008369           0.307930E-4        0.003598
        0.135000           0.172691E-3        0.008395           0.308787E-4        0.003603
        0.138000           0.173803E-3        0.008420           0.309648E-4        0.003607
        0.141000           0.174926E-3        0.008447           0.310513E-4        0.003612
        0.144000           0.176060E-3        0.008473           0.311382E-4        0.003617
        0.147000           0.177205E-3        0.008499           0.312255E-4        0.003621
        0.150000           0.178361E-3        0.008526           0.313131E-4        0.003626
        0.153000           0.179529E-3        0.008553           0.314012E-4        0.003631
        0.156000           0.180709E-3        0.008580           0.314896E-4        0.003635
        0.159000           0.181900E-3        0.008607           0.315785E-4        0.003640
        0.162000           0.183104E-3        0.008634           0.316677E-4        0.003645
        0.165000           0.184319E-3        0.008662           0.317574E-4        0.003650
        0.168000           0.185547E-3        0.008690           0.318474E-4        0.003654
        0.171000           0.186787E-3        0.008718           0.319379E-4        0.003659
        0.174000           0.188040E-3        0.008746           0.320288E-4        0.003664
        0.177000           0.189306E-3        0.008774           0.321201E-4        0.003669
        0.180000           0.190584E-3        0.008802           0.322118E-4        0.003674
        0.183000           0.191876E-3        0.008831           0.323039E-4        0.003679
        0.186000           0.193181E-3        0.008860           0.323965E-4        0.003683
        0.189000           0.194499E-3        0.008889           0.324895E-4        0.003688
        0.192000           0.195831E-3        0.008918           0.325829E-4        0.003693
        0.195000           0.197178E-3        0.008948           0.326767E-4        0.003698
        0.198000           0.198538E-3        0.008977           0.327710E-4        0.003703
        0.201000           0.199912E-3        0.009007           0.328657E-4        0.003708
        0.204000           0.201301E-3        0.009037           0.329609E-4        0.003713
        0.207000           0.202705E-3        0.009067           0.330564E-4        0.003718
        0.210000           0.204123E-3        0.009098           0.331525E-4        0.003723
        0.213000           0.205557E-3        0.009129           0.332490E-4        0.003728
        0.216000           0.207006E-3        0.009159           0.333459E-4        0.003733
        0.219000           0.208470E-3        0.009191           0.334433E-4        0.003738
        0.222000           0.209950E-3        0.009222           0.335411E-4        0.003743
        0.225000           0.211447E-3        0.009254           0.336395E-4        0.003748
        0.228000           0.212959E-3        0.009285           0.337382E-4        0.003753
        0.231000           0.214488E-3        0.009317           0.338375E-4        0.003758
        0.234000           0.216033E-3        0.009350           0.339372E-4        0.003763
        0.237000           0.217596E-3        0.009382           0.340374E-4        0.003768
        0.240000           0.219176E-3        0.009415           0.341380E-4        0.003773
        0.243000           0.220773E-3        0.009448           0.342391E-4        0.003778
        0.246000           0.222388E-3        0.009481           0.343407E-4        0.003783
        0.249000           0.224021E-3        0.009514           0.344429E-4        0.003789
        0.252000           0.225672E-3        0.009548           0.345454E-4        0.003794
        0.255000           0.227341E-3        0.009582           0.346485E-4        0.003799
        0.258000           0.229030E-3        0.009616           0.347521E-4        0.003804
        0.261000           0.230737E-3        0.009651           0.348562E-4        0.003809
        0.264000           0.232464E-3        0.009685           0.349607E-4        0.003815
        0.267000           0.234210E-3        0.009720           0.350658E-4        0.003820
        0.270000           0.235977E-3        0.009755           0.351714E-4        0.003825
        0.273000           0.237763E-3        0.009791           0.352775E-4        0.003830
        0.276000           0.239571E-3        0.009827           0.353842E-4        0.003836
        0.279000           0.241399E-3        0.009863           0.354913E-4        0.003841
        0.282000           0.243248E-3        0.009899           0.355990E-4        0.003846
        0.285000           0.245119E-3        0.009936           0.357071E-4        0.003852
        0.288000           0.247012E-3        0.009972           0.358159E-4        0.003857
        0.291000           0.248927E-3        0.010010           0.359251E-4        0.003862
        0.294000           0.250864E-3        0.010047           0.360349E-4        0.003868
        0.297000           0.252825E-3        0.010085           0.361452E-4        0.003873
        0.300000           0.254809E-3        0.010123           0.362561E-4        0.003879
        0.303000           0.256816E-3        0.010161           0.363675E-4        0.003884
        0.306000           0.258848E-3        0.010200           0.364795E-4        0.003890
        0.309000           0.260904E-3        0.010239           0.365920E-4        0.003895
        0.312000           0.262985E-3        0.010278           0.367051E-4        0.003901
        0.315000           0.265091E-3        0.010317           0.368188E-4        0.003906
        0.318000           0.267222E-3        0.010357           0.369330E-4        0.003912
        0.321000           0.269380E-3        0.010398           0.370478E-4        0.003917
        0.324000           0.271564E-3        0.010438           0.371632E-4        0.003923
        0.327000           0.273776E-3        0.010479           0.372791E-4        0.003928
        0.330000           0.276014E-3        0.010520           0.373957E-4        0.003934
        0.333000           0.278281E-3        0.010562           0.375128E-4        0.003939
        0.336000           0.280575E-3        0.010603           0.376305E-4        0.003945
        0.339000           0.282899E-3        0.010646           0.377488E-4        0.003951
        0.342000           0.285251E-3        0.010688           0.378677E-4        0.003956
        0.345000           0.287634E-3        0.010731           0.379873E-4        0.003962
        0.348000           0.290047E-3        0.010774           0.381074E-4        0.003968
        0.351000           0.292490E-3        0.010818           0.382282E-4        0.003974
        0.354000           0.294965E-3        0.010862           0.383495E-4        0.003979
        0.357000           0.297471E-3        0.010906           0.384715E-4        0.003985
        0.360000           0.300010E-3        0.010951           0.385941E-4        0.003991
        0.363000           0.302582E-3        0.010996           0.387174E-4        0.003997
        0.366000           0.305188E-3        0.011042           0.388413E-4        0.004002
        0.369000           0.307828E-3        0.011088           0.389658E-4        0.004008
        0.372000           0.310502E-3        0.011134           0.390910E-4        0.004014
        0.375000           0.313211E-3        0.011181           0.392168E-4        0.004020
        0.378000           0.315957E-3        0.011228           0.393433E-4        0.004026
        0.381000           0.318739E-3        0.011275           0.394704E-4        0.004032
        0.384000           0.321558E-3        0.011323           0.395983E-4        0.004038
        0.387000           0.324416E-3        0.011371           0.397267E-4        0.004044
        0.390000           0.327311E-3        0.011420           0.398559E-4        0.004050
        0.393000           0.330246E-3        0.011469           0.399857E-4        0.004056
        0.396000           0.333222E-3        0.011519           0.401162E-4        0.004062
        0.399000           0.336237E-3        0.011569           0.402474E-4        0.004068
        0.402000           0.339295E-3        0.011620           0.403794E-4        0.004074
        0.405000           0.342395E-3        0.011671           0.405120E-4        0.004080
        0.408000           0.345537E-3        0.011722           0.406453E-4        0.004086
        0.411000           0.348724E-3        0.011774           0.407793E-4        0.004092
        0.414000           0.351955E-3        0.011827           0.409141E-4        0.004098
        0.417000           0.355232E-3        0.011880           0.410496E-4        0.004104
        0.420000           0.358555E-3        0.011933           0.411858E-4        0.004110
        0.423000           0.361925E-3        0.011987           0.413227E-4        0.004117
        0.426000           0.365343E-3        0.012042           0.414604E-4        0.004123
        0.429000           0.368811E-3        0.012096           0.415988E-4        0.004129
        0.432000           0.372328E-3        0.012152           0.417379E-4        0.004135
        0.435000           0.375897E-3        0.012208           0.418779E-4        0.004142
        0.438000           0.379517E-3        0.012264           0.420186E-4        0.004148
        0.441000           0.383191E-3        0.012322           0.421600E-4        0.004154
        0.444000           0.386918E-3        0.012379           0.423022E-4        0.004160
        0.447000           0.390701E-3        0.012437           0.424452E-4        0.004167
        0.450000           0.394539E-3        0.012496           0.425891E-4        0.004173
        0.453000           0.398436E-3        0.012556           0.427336E-4        0.004180
        0.456000           0.402390E-3        0.012615           0.428790E-4        0.004186
        0.459000           0.406404E-3        0.012676           0.430252E-4        0.004192
        0.462000           0.410479E-3        0.012737           0.431722E-4        0.004199
        0.465000           0.414616E-3        0.012799           0.433201E-4        0.004205
        0.468000           0.418817E-3        0.012861           0.434687E-4        0.004212
        0.471000           0.423082E-3        0.012924           0.436182E-4        0.004218
        0.474000           0.427413E-3        0.012988           0.437685E-4        0.004225
        0.477000           0.431811E-3        0.013052           0.439197E-4        0.004232
        0.480000           0.436279E-3        0.013117           0.440717E-4        0.004238
        0.483000           0.440816E-3        0.013183           0.442246E-4        0.004245
        0.486000           0.445425E-3        0.013249           0.443783E-4        0.004251
        0.489000           0.450108E-3        0.013316           0.445329E-4        0.004258
        0.492000           0.454865E-3        0.013384           0.446884E-4        0.004265
        0.495000           0.459698E-3        0.013452           0.448448E-4        0.004272
        0.498000           0.464610E-3        0.013521           0.450020E-4        0.004278
        0.501000           0.469601E-3        0.013591           0.451602E-4        0.004285
        0.504000           0.474674E-3        0.013662           0.453193E-4        0.004292
        0.507000           0.479830E-3        0.013733           0.454792E-4        0.004299
        0.510000           0.485071E-3        0.013805           0.456402E-4        0.004305
        0.513000           0.490399E-3        0.013878           0.458020E-4        0.004312
        0.516000           0.495816E-3        0.013952           0.459648E-4        0.004319
        0.519000           0.501324E-3        0.014027           0.461285E-4        0.004326
        0.522000           0.506924E-3        0.014102           0.462932E-4        0.004333
        0.525000           0.512620E-3        0.014178           0.464588E-4        0.004340
        0.528000           0.518413E-3        0.014255           0.466254E-4        0.004347
        0.531000           0.524306E-3        0.014333           0.467930E-4        0.004354
        0.534000           0.530300E-3        0.014412           0.469616E-4        0.004361
        0.537000           0.536398E-3        0.014492           0.471311E-4        0.004368
        0.540000           0.542603E-3        0.014573           0.473017E-4        0.004375
        0.543000           0.548916E-3        0.014654           0.474733E-4        0.004382
        0.546000           0.555342E-3        0.014737           0.476459E-4        0.004389
        0.549000           0.561882E-3        0.014820           0.478195E-4        0.004397
        0.552000           0.568538E-3        0.014905           0.479941E-4        0.004404
        0.555000           0.575314E-3        0.014990           0.481698E-4        0.004411
        0.558000           0.582213E-3        0.015077           0.483466E-4        0.004418
        0.561000           0.589238E-3        0.015165           0.485244E-4        0.004425
        0.564000           0.596392E-3        0.015253           0.487033E-4        0.004433
        0.567000           0.603677E-3        0.015343           0.488833E-4        0.004440
        0.570000           0.611097E-3        0.015434           0.490643E-4        0.004447
        0.573000           0.618656E-3        0.015526           0.492465E-4        0.004455
        0.576000           0.626357E-3        0.015619           0.494298E-4        0.004462
        0.579000           0.634204E-3        0.015713           0.496142E-4        0.004470
        0.582000           0.642200E-3        0.015808           0.497997E-4        0.004477
        0.585000           0.650348E-3        0.015905           0.499864E-4        0.004484
        0.588000           0.658654E-3        0.016003           0.501742E-4        0.004492
        0.591000           0.667121E-3        0.016102           0.503631E-4        0.004500
        0.594000           0.675754E-3        0.016202           0.505533E-4        0.004507
        0.597000           0.684555E-3        0.016304           0.507446E-4        0.004515
        0.600000           0.693532E-3        0.016407           0.509371E-4        0.004522
        0.603000           0.702686E-3        0.016511           0.511308E-4        0.004530
        0.606000           0.712025E-3        0.016617           0.513257E-4        0.004538
        0.609000           0.721551E-3        0.016724           0.515219E-4        0.004545
        0.612000           0.731272E-3        0.016832           0.517192E-4        0.004553
        0.615000           0.741191E-3        0.016942           0.519178E-4        0.004561
        0.618000           0.751314E-3        0.017054           0.521177E-4        0.004569
        0.621000           0.761648E-3        0.017167           0.523188E-4        0.004576
        0.624000           0.772197E-3        0.017281           0.525213E-4        0.004584
        0.627000           0.782968E-3        0.017397           0.527250E-4        0.004592
        0.630000           0.793967E-3        0.017515           0.529300E-4        0.004600
        0.633000           0.805201E-3        0.017635           0.531363E-4        0.004608
        0.636000           0.816676E-3        0.017756           0.533439E-4        0.004616
        0.639000           0.828400E-3        0.017879           0.535529E-4        0.004624
        0.642000           0.840379E-3        0.018003           0.537633E-4        0.004632
        0.645000           0.852621E-3        0.018129           0.539750E-4        0.004640
        0.648000           0.865134E-3        0.018258           0.541880E-4        0.004648
        0.651000           0.877925E-3        0.018388           0.544025E-4        0.004656
        0.654000           0.891004E-3        0.018520           0.546184E-4        0.004665
        0.657000           0.904379E-3        0.018654           0.548356E-4        0.004673
        0.660000           0.918058E-3        0.018790           0.550543E-4        0.004681
        0.663000           0.932052E-3        0.018928           0.552744E-4        0.004689
        0.666000           0.946370E-3        0.019068           0.554960E-4        0.004698
        0.669000           0.961021E-3        0.019210           0.557191E-4        0.004706
        0.672000           0.976017E-3        0.019355           0.559436E-4        0.004714
        0.675000           0.991368E-3        0.019501           0.561697E-4        0.004723
        0.678000           0.001007           0.019651           0.563972E-4        0.004731
        0.681000           0.001023           0.019802           0.566263E-4        0.004740
        0.684000           0.001040           0.019956           0.568569E-4        0.004748
        0.687000           0.001057           0.020112           0.570891E-4        0.004757
        0.690000           0.001074           0.020271           0.573228E-4        0.004765
        0.693000           0.001092           0.020432           0.575581E-4        0.004774
        0.696000           0.001110           0.020596           0.577950E-4        0.004783
        0.699000           0.001128           0.020763           0.580336E-4        0.004791
        0.702000           0.001148           0.020933           0.582737E-4        0.004800
        0.705000           0.001167           0.021105           0.585155E-4        0.004809
        0.708000           0.001187           0.021281           0.587590E-4        0.004818
        0.711000           0.001208           0.021459           0.590041E-4        0.004826
        0.714000           0.001229           0.021641           0.592510E-4        0.004835
        0.717000           0.001251           0.021825           0.594995E-4        0.004844
        0.720000           0.001273           0.022013           0.597498E-4        0.004853
        0.723000           0.001296           0.022205           0.600018E-4        0.004862
        0.726000           0.001320           0.022399           0.602556E-4        0.004871
        0.729000           0.001344           0.022598           0.605112E-4        0.004880
        0.732000           0.001369           0.022800           0.607686E-4        0.004889
        0.735000           0.001394           0.023005           0.610277E-4        0.004898
        0.738000           0.001421           0.023215           0.612888E-4        0.004908
        0.741000           0.001448           0.023428           0.615516E-4        0.004917
        0.744000           0.001476           0.023646           0.618164E-4        0.004926
        0.747000           0.001504           0.023867           0.620830E-4        0.004935
        0.750000           0.001534           0.024093           0.623516E-4        0.004945
        0.753000           0.001564           0.024324           0.626221E-4        0.004954
        0.756000           0.001596           0.024559           0.628946E-4        0.004963
        0.759000           0.001628           0.024798           0.631690E-4        0.004973
        0.762000           0.001661           0.025043           0.634454E-4        0.004982
        0.765000           0.001695           0.025292           0.637238E-4        0.004992
        0.768000           0.001731           0.025546           0.640042E-4        0.005001
        0.771000           0.001767           0.025806           0.642867E-4        0.005011
        0.774000           0.001805           0.026071           0.645713E-4        0.005021
        0.777000           0.001844           0.026342           0.648580E-4        0.005030
        0.780000           0.001884           0.026619           0.651469E-4        0.005040
        0.783000           0.001926           0.026902           0.654378E-4        0.005050
        0.786000           0.001968           0.027190           0.657309E-4        0.005060
        0.789000           0.002013           0.027486           0.660262E-4        0.005070
        0.792000           0.002059           0.027788           0.663238E-4        0.005080
        0.795000           0.002106           0.028096           0.666235E-4        0.005090
        0.798000           0.002155           0.028412           0.669255E-4        0.005100
        0.801000           0.002206           0.028735           0.672298E-4        0.005110
        0.804000           0.002259           0.029066           0.675364E-4        0.005120
        0.807000           0.002313           0.029404           0.678454E-4        0.005130
        0.810000           0.002370           0.029751           0.681568E-4        0.005140
        0.813000           0.002428           0.030106           0.684704E-4        0.005150
        0.816000           0.002489           0.030469           0.687866E-4        0.005161
        0.819000           0.002552           0.030842           0.691051E-4        0.005171
        0.822000           0.002618           0.031224           0.694261E-4        0.005181
        0.825000           0.002686           0.031616           0.697496E-4        0.005192
        0.828000           0.002757           0.032018           0.700757E-4        0.005202
        0.831000           0.002831           0.032431           0.704043E-4        0.005213
        0.834000           0.002907           0.032854           0.707354E-4        0.005223
        0.837000           0.002987           0.033289           0.710693E-4        0.005234
        0.840000           0.003071           0.033735           0.714057E-4        0.005245
        0.843000           0.003157           0.034194           0.717448E-4        0.005255
        0.846000           0.003248           0.034666           0.720866E-4        0.005266
        0.849000           0.003342           0.035151           0.724311E-4        0.005277
        0.852000           0.003441           0.035650           0.727783E-4        0.005288
        0.855000           0.003544           0.036164           0.731284E-4        0.005299
        0.858000           0.003651           0.036692           0.734813E-4        0.005310
        0.861000           0.003764           0.037237           0.738370E-4        0.005321
        0.864000           0.003882           0.037798           0.741957E-4        0.005332
        0.867000           0.004006           0.038376           0.745573E-4        0.005343
        0.870000           0.004135           0.038973           0.749218E-4        0.005354
        0.873000           0.004271           0.039589           0.752894E-4        0.005366
        0.876000           0.004414           0.040224           0.756599E-4        0.005377
        0.879000           0.004564           0.040880           0.760335E-4        0.005388
        0.882000           0.004722           0.041558           0.764102E-4        0.005400
        0.885000           0.004888           0.042260           0.767901E-4        0.005411
        0.888000           0.005063           0.042985           0.771731E-4        0.005423
        0.891000           0.005247           0.043736           0.775594E-4        0.005434
        0.894000           0.005442           0.044513           0.779489E-4        0.005446
        0.897000           0.005648           0.045319           0.783417E-4        0.005458
        0.900000           0.005865           0.046154           0.787378E-4        0.005469
        0.903000           0.006095           0.047021           0.791374E-4        0.005481
        0.906000           0.006340           0.047921           0.795403E-4        0.005493
        0.909000           0.006599           0.048856           0.799466E-4        0.005505
        0.912000           0.006874           0.049828           0.803565E-4        0.005517
        0.915000           0.007166           0.050839           0.807699E-4        0.005529
        0.918000           0.007478           0.051892           0.811869E-4        0.005541
        0.921000           0.007810           0.052989           0.816076E-4        0.005554
        0.924000           0.008165           0.054133           0.820319E-4        0.005566
        0.927000           0.008544           0.055327           0.824599E-4        0.005578
        0.930000           0.008950           0.056574           0.828917E-4        0.005591
        0.933000           0.009385           0.057878           0.833274E-4        0.005603
        0.936000           0.009853           0.059242           0.837669E-4        0.005615
        0.939000           0.010356           0.060672           0.842103E-4        0.005628
        0.942000           0.010899           0.062170           0.846577E-4        0.005641
        0.945000           0.011485           0.063742           0.851090E-4        0.005653
        0.948000           0.012118           0.065395           0.855645E-4        0.005666
        0.951000           0.012805           0.067132           0.860241E-4        0.005679
        0.954000           0.013552           0.068961           0.864879E-4        0.005692
        0.957000           0.014364           0.070890           0.869559E-4        0.005705
        0.960000           0.015251           0.072925           0.874281E-4        0.005718
        0.963000           0.016222           0.075076           0.879048E-4        0.005731
        0.966000           0.017286           0.077350           0.883858E-4        0.005744
        0.969000           0.018457           0.079760           0.888713E-4        0.005758
        0.972000           0.019748           0.082316           0.893613E-4        0.005771
        0.975000           0.021177           0.085030           0.898559E-4        0.005785
        0.978000           0.022763           0.087916           0.903551E-4        0.005798
        0.981000           0.024530           0.090989           0.908590E-4        0.005812
        0.984000           0.026505           0.094264           0.913677E-4        0.005825
        0.987000           0.028721           0.097759           0.918813E-4        0.005839
        0.990000           0.031217           0.101493           0.923997E-4        0.005853
        0.993000           0.034041           0.105484           0.929231E-4        0.005867
        0.996000           0.037250           0.109754           0.934515E-4        0.005881
        0.999000           0.040915           0.114321           0.939850E-4        0.005895
        1.002000           0.045120           0.119204           0.945237E-4        0.005909
        1.005000           0.049970           0.124420           0.950676E-4        0.005923
        1.008000           0.055594           0.129976           0.956169E-4        0.005937
        1.011000           0.062151           0.135869           0.961716E-4        0.005952
        1.014000           0.069838           0.142079           0.967317E-4        0.005966
        1.017000           0.078898           0.148550           0.972974E-4        0.005981
        1.020000           0.089629           0.155178           0.978687E-4        0.005995
        1.023000           0.102393           0.161777           0.984457E-4        0.006010
        1.026000           0.117615           0.168039           0.990285E-4        0.006025
        1.029000           0.135775           0.173465           0.996172E-4        0.006040
        1.032000           0.157365           0.177284           0.100212E-3        0.006055
        1.035000           0.182780           0.178338           0.100813E-3        0.006070
        1.038000           0.212124           0.174988           0.101419E-3        0.006085
        1.041000           0.244843           0.165098           0.102032E-3        0.006100
        1.044000           0.279245           0.146268           0.102652E-3        0.006116
        1.047000           0.312038           0.116520           0.103277E-3        0.006131
        1.050000           0.338381           0.075516           0.103910E-3        0.006146
        1.053000           0.353035           0.025789           0.104549E-3        0.006162
        1.056000           0.352516          -0.027120           0.105194E-3        0.006178
        1.059000           0.336954          -0.076416           0.105847E-3        0.006194
        1.062000           0.310019          -0.116720           0.106506E-3        0.006210
        1.065000           0.276985          -0.145714           0.107172E-3        0.006226
        1.068000           0.242612          -0.163885           0.107846E-3        0.006242
        1.071000           0.210077          -0.173271           0.108526E-3        0.006258
        1.074000           0.180986          -0.176270           0.109214E-3        0.006274
        1.077000           0.155830          -0.174989           0.109910E-3        0.006291
        1.080000           0.134481          -0.171034           0.110613E-3        0.006307
        1.083000           0.116529          -0.165531           0.111323E-3        0.006324
        1.086000           0.101483          -0.159235           0.112042E-3        0.006340
        1.089000           0.088866          -0.152626           0.112768E-3        0.006357
        1.092000           0.078255          -0.146003           0.113503E-3        0.006374
        1.095000           0.069294          -0.139547           0.114246E-3        0.006391
        1.098000           0.061689          -0.133356           0.114997E-3        0.006408
        1.101000           0.055199          -0.127484           0.115756E-3        0.006426
        1.104000           0.049631          -0.121950           0.116524E-3        0.006443
        1.107000           0.044827          -0.116757           0.117301E-3        0.006461
        1.110000           0.040661          -0.111894           0.118086E-3        0.006478
        1.113000           0.037029          -0.107347           0.118881E-3        0.006496
        1.116000           0.033847          -0.103096           0.119685E-3        0.006514
        1.119000           0.031046          -0.099122           0.120498E-3        0.006532
        1.122000           0.028570          -0.095404           0.121321E-3        0.006550
        1.125000           0.026371          -0.091924           0.122153E-3        0.006568
        1.128000           0.024411          -0.088662           0.122995E-3        0.006587
        1.131000           0.022657          -0.085601           0.123847E-3        0.006605
        1.134000           0.021082          -0.082726           0.124709E-3        0.006624
        1.137000           0.019663          -0.080022           0.125581E-3        0.006643
        1.140000           0.018380          -0.077476           0.126464E-3        0.006661
        1.143000           0.017217          -0.075075           0.127358E-3        0.006680
        1.146000           0.016159          -0.072808           0.128262E-3        0.006700
        1.149000           0.015195          -0.070664           0.129178E-3        0.006719
        1.152000           0.014313          -0.068636           0.130104E-3        0.006738
        1.155000           0.013505          -0.066713           0.131042E-3        0.006758
        1.158000           0.012763          -0.064890           0.131992E-3        0.006778
        1.161000           0.012080          -0.063157           0.132954E-3        0.006797
        1.164000           0.011450          -0.061510           0.133927E-3        0.006817
        1.167000           0.010867          -0.059941           0.134913E-3        0.006837
        1.170000           0.010328          -0.058447           0.135911E-3        0.006858
        1.173000           0.009827          -0.057021           0.136922E-3        0.006878
        1.176000           0.009361          -0.055660           0.137946E-3        0.006899
        1.179000           0.008928          -0.054359           0.138983E-3        0.006920
        1.182000           0.008524          -0.053115           0.140034E-3        0.006940
        1.185000           0.008147          -0.051923           0.141098E-3        0.006961
        1.188000           0.007794          -0.050782           0.142176E-3        0.006983
        1.191000           0.007463          -0.049686           0.143268E-3        0.007004
        1.194000           0.007153          -0.048635           0.144375E-3        0.007026
        1.197000           0.006862          -0.047626           0.145496E-3        0.007047
        1.200000           0.006588          -0.046655           0.146632E-3        0.007069
        1.203000           0.006330          -0.045722           0.147784E-3        0.007091
        1.206000           0.006087          -0.044823           0.148951E-3        0.007113
        1.209000           0.005858          -0.043957           0.150134E-3        0.007136
        1.212000           0.005641          -0.043123           0.151334E-3        0.007158
        1.215000           0.005437          -0.042318           0.152549E-3        0.007181
        1.218000           0.005243          -0.041541           0.153782E-3        0.007204
        1.221000           0.005059          -0.040791           0.155032E-3        0.007227
        1.224000           0.004885          -0.040066           0.156299E-3        0.007251
        1.227000           0.004719          -0.039365           0.157584E-3        0.007274
        1.230000           0.004562          -0.038687           0.158888E-3        0.007298
        1.233000           0.004413          -0.038031           0.160210E-3        0.007322
        1.236000           0.004271          -0.037395           0.161551E-3        0.007346
        1.239000           0.004136          -0.036780           0.162911E-3        0.007370
        1.242000           0.004007          -0.036183           0.164291E-3        0.007395
        1.245000           0.003884          -0.035604           0.165691E-3        0.007419
        1.248000           0.003766          -0.035043           0.167112E-3        0.007444
        1.251000           0.003654          -0.034498           0.168553E-3        0.007469
        1.254000           0.003547          -0.033969           0.170016E-3        0.007495
        1.257000           0.003444          -0.033455           0.171502E-3        0.007520
        1.260000           0.003346          -0.032955           0.173009E-3        0.007546
        1.263000           0.003252          -0.032469           0.174539E-3        0.007572
        1.266000           0.003162          -0.031997           0.176093E-3        0.007598
        1.269000           0.003076          -0.031537           0.177670E-3        0.007625
        1.272000           0.002993          -0.031090           0.179272E-3        0.007651
        1.275000           0.002913          -0.030654           0.180899E-3        0.007678
        1.278000           0.002837          -0.030230           0.182551E-3        0.007706
        1.281000           0.002764          -0.029816           0.184230E-3        0.007733
        1.284000           0.002693          -0.029413           0.185934E-3        0.007761
        1.287000           0.002625          -0.029020           0.187666E-3        0.007789
        1.290000           0.002560          -0.028637           0.189426E-3        0.007817
        1.293000           0.002497          -0.028263           0.191215E-3        0.007845
        1.296000           0.002437          -0.027898           0.193032E-3        0.007874
        1.299000           0.002379          -0.027542           0.194879E-3        0.007903
        1.302000           0.002322          -0.027194           0.196757E-3        0.007932
        1.305000           0.002268          -0.026854           0.198666E-3        0.007962
        1.308000           0.002216          -0.026522           0.200607E-3        0.007992
        1.311000           0.002165          -0.026197           0.202580E-3        0.008022
        1.314000           0.002116          -0.025880           0.204587E-3        0.008053
        1.317000           0.002069          -0.025570           0.206629E-3        0.008083
        1.320000           0.002024          -0.025266           0.208705E-3        0.008114
        1.323000           0.001980          -0.024969           0.210817E-3        0.008146
        1.326000           0.001937          -0.024679           0.212966E-3        0.008177
        1.329000           0.001896          -0.024394           0.215153E-3        0.008210
        1.332000           0.001856          -0.024116           0.217379E-3        0.008242
        1.335000           0.001818          -0.023843           0.219644E-3        0.008275
        1.338000           0.001780          -0.023576           0.221950E-3        0.008308
        1.341000           0.001744          -0.023314           0.224298E-3        0.008341
        1.344000           0.001709          -0.023058           0.226688E-3        0.008375
        1.347000           0.001675          -0.022806           0.229122E-3        0.008409
        1.350000           0.001642          -0.022560           0.231602E-3        0.008443
        1.353000           0.001610          -0.022318           0.234127E-3        0.008478
        1.356000           0.001579          -0.022081           0.236700E-3        0.008513
        1.359000           0.001549          -0.021848           0.239321E-3        0.008549
        1.362000           0.001519          -0.021620           0.241993E-3        0.008585
        1.365000           0.001491          -0.021396           0.244715E-3        0.008621
        1.368000           0.001464          -0.021177           0.247490E-3        0.008658
        1.371000           0.001437          -0.020961           0.250320E-3        0.008695
        1.374000           0.001411          -0.020749           0.253205E-3        0.008733
        1.377000           0.001385          -0.020541           0.256147E-3        0.008771
        1.380000           0.001361          -0.020336           0.259148E-3        0.008809
        1.383000           0.001337          -0.020135           0.262209E-3        0.008848
        1.386000           0.001314          -0.019938           0.265332E-3        0.008888
        1.389000           0.001291          -0.019744           0.268519E-3        0.008928
        1.392000           0.001269          -0.019554           0.271772E-3        0.008968
        1.395000           0.001247          -0.019366           0.275093E-3        0.009009
        1.398000           0.001226          -0.019182           0.278483E-3        0.009050
        1.401000           0.001206          -0.019001           0.281944E-3        0.009092
        1.404000           0.001186          -0.018822           0.285479E-3        0.009135
        1.407000           0.001167          -0.018647           0.289091E-3        0.009177
        1.410000           0.001148          -0.018474           0.292780E-3        0.009221
        1.413000           0.001130          -0.018305           0.296550E-3        0.009265
        1.416000           0.001112          -0.018138           0.300403E-3        0.009310
        1.419000           0.001094          -0.017973           0.304342E-3        0.009355
        1.422000           0.001077          -0.017811           0.308369E-3        0.009400
        1.425000           0.001061          -0.017652           0.312487E-3        0.009447
        1.428000           0.001045          -0.017495           0.316699E-3        0.009494
        1.431000           0.001029          -0.017340           0.321008E-3        0.009541
        1.434000           0.001014          -0.017188           0.325417E-3        0.009590
        1.437000           0.998468E-3       -0.017038           0.329930E-3        0.009639
        1.440000           0.983792E-3       -0.016890           0.334549E-3        0.009688
        1.443000           0.969463E-3       -0.016744           0.339278E-3        0.009738
        1.446000           0.955471E-3       -0.016600           0.344122E-3        0.009789
        1.449000           0.941806E-3       -0.016459           0.349082E-3        0.009841
        1.452000           0.928457E-3       -0.016319           0.354165E-3        0.009894
        1.455000           0.915418E-3       -0.016182           0.359374E-3        0.009947
        1.458000           0.902676E-3       -0.016046           0.364713E-3        0.010001
        1.461000           0.890226E-3       -0.015912           0.370187E-3        0.010056
        1.464000           0.878058E-3       -0.015780           0.375800E-3        0.010111
        1.467000           0.866164E-3       -0.015650           0.381558E-3        0.010168
        1.470000           0.854537E-3       -0.015521           0.387465E-3        0.010225
        1.473000           0.843170E-3       -0.015395           0.393528E-3        0.010283
        1.476000           0.832054E-3       -0.015270           0.399751E-3        0.010342
        1.479000           0.821185E-3       -0.015146           0.406141E-3        0.010403
        1.482000           0.810553E-3       -0.015024           0.412704E-3        0.010464
        1.485000           0.800155E-3       -0.014904           0.419446E-3        0.010526
        1.488000           0.789982E-3       -0.014785           0.426374E-3        0.010589
        1.491000           0.780030E-3       -0.014668           0.433496E-3        0.010653
        1.494000           0.770292E-3       -0.014552           0.440818E-3        0.010718
        1.497000           0.760764E-3       -0.014438           0.448350E-3        0.010784
        1.500000           0.751439E-3       -0.014325           0.456098E-3        0.010851
        1.503000           0.742312E-3       -0.014213           0.464071E-3        0.010920
        1.506000           0.733379E-3       -0.014103           0.472280E-3        0.010989
        1.509000           0.724635E-3       -0.013994           0.480732E-3        0.011060
        1.512000           0.716075E-3       -0.013886           0.489439E-3        0.011133
        1.515000           0.707694E-3       -0.013780           0.498411E-3        0.011206
        1.518000           0.699489E-3       -0.013675           0.507658E-3        0.011281
        1.521000           0.691455E-3       -0.013571           0.517194E-3        0.011357
        1.524000           0.683588E-3       -0.013468           0.527029E-3        0.011435
        1.527000           0.675883E-3       -0.013367           0.537178E-3        0.011514
        1.530000           0.668338E-3       -0.013266           0.547653E-3        0.011594
        1.533000           0.660949E-3       -0.013167           0.558471E-3        0.011677
        1.536000           0.653712E-3       -0.013069           0.569644E-3        0.011760
        1.539000           0.646623E-3       -0.012971           0.581191E-3        0.011846
        1.542000           0.639680E-3       -0.012875           0.593129E-3        0.011933
        1.545000           0.632879E-3       -0.012780           0.605474E-3        0.012022
        1.548000           0.626217E-3       -0.012686           0.618248E-3        0.012113
        1.551000           0.619691E-3       -0.012593           0.631469E-3        0.012205
        1.554000           0.613298E-3       -0.012501           0.645161E-3        0.012300
        1.557000           0.607036E-3       -0.012409           0.659344E-3        0.012397
        1.560000           0.600901E-3       -0.012319           0.674045E-3        0.012496
        1.563000           0.594892E-3       -0.012230           0.689289E-3        0.012597
        1.566000           0.589004E-3       -0.012141           0.705104E-3        0.012700
        1.569000           0.583238E-3       -0.012053           0.721518E-3        0.012805
        1.572000           0.577588E-3       -0.011967           0.738564E-3        0.012913
        1.575000           0.572055E-3       -0.011881           0.756273E-3        0.013024
        1.578000           0.566634E-3       -0.011796           0.774684E-3        0.013137
        1.581000           0.561325E-3       -0.011711           0.793831E-3        0.013253
        1.584000           0.556124E-3       -0.011628           0.813758E-3        0.013372
        1.587000           0.551031E-3       -0.011545           0.834507E-3        0.013494
        1.590000           0.546043E-3       -0.011463           0.856124E-3        0.013618
        1.593000           0.541158E-3       -0.011381           0.878659E-3        0.013746
        1.596000           0.536375E-3       -0.011301           0.902166E-3        0.013878
        1.599000           0.531692E-3       -0.011221           0.926703E-3        0.014012
        1.602000           0.527107E-3       -0.011142           0.952329E-3        0.014151
        1.605000           0.522618E-3       -0.011063           0.979114E-3        0.014293
        1.608000           0.518225E-3       -0.010985           0.001007           0.014439
        1.611000           0.513925E-3       -0.010908           0.001036           0.014589
        1.614000           0.509718E-3       -0.010832           0.001067           0.014744
        1.617000           0.505601E-3       -0.010756           0.001099           0.014903
        1.620000           0.501573E-3       -0.010680           0.001133           0.015067
        1.623000           0.497634E-3       -0.010606           0.001169           0.015235
        1.626000           0.493783E-3       -0.010531           0.001206           0.015409
        1.629000           0.490017E-3       -0.010458           0.001245           0.015588
        1.632000           0.486335E-3       -0.010385           0.001286           0.015773
        1.635000           0.482738E-3       -0.010312           0.001330           0.015964
        1.638000           0.479223E-3       -0.010240           0.001375           0.016162
        1.641000           0.475791E-3       -0.010169           0.001424           0.016366
        1.644000           0.472439E-3       -0.010098           0.001475           0.016577
        1.647000           0.469167E-3       -0.010028           0.001529           0.016795
        1.650000           0.465975E-3       -0.009958           0.001586           0.017021
        1.653000           0.462862E-3       -0.009888           0.001646           0.017255
        1.656000           0.459826E-3       -0.009819           0.001711           0.017498
        1.659000           0.456867E-3       -0.009751           0.001779           0.017750
        1.662000           0.453985E-3       -0.009682           0.001852           0.018012
        1.665000           0.451180E-3       -0.009615           0.001929           0.018284
        1.668000           0.448450E-3       -0.009547           0.002012           0.018568
        1.671000           0.445795E-3       -0.009480           0.002100           0.018862
        1.674000           0.443214E-3       -0.009414           0.002194           0.019170
        1.677000           0.440708E-3       -0.009348           0.002295           0.019490
        1.680000           0.438277E-3       -0.009282           0.002404           0.019825
        1.683000           0.435918E-3       -0.009217           0.002520           0.020174
        1.686000           0.433634E-3       -0.009152           0.002646           0.020540
        1.689000           0.431423E-3       -0.009087           0.002781           0.020923
        1.692000           0.429285E-3       -0.009023           0.002927           0.021324
        1.695000           0.427221E-3       -0.008958           0.003085           0.021745
        1.698000           0.425229E-3       -0.008895           0.003257           0.022187
        1.701000           0.423311E-3       -0.008831           0.003444           0.022652
        1.704000           0.421467E-3       -0.008768           0.003648           0.023142
        1.707000           0.419696E-3       -0.008705           0.003870           0.023659
        1.710000           0.417998E-3       -0.008642           0.004114           0.024204
        1.713000           0.416375E-3       -0.008580           0.004381           0.024780
        1.716000           0.414826E-3       -0.008518           0.004676           0.025390
        1.719000           0.413352E-3       -0.008456           0.005002           0.026036
        1.722000           0.411953E-3       -0.008394           0.005363           0.026722
        1.725000           0.410630E-3       -0.008333           0.005764           0.027451
        1.728000           0.409383E-3       -0.008271           0.006212           0.028226
        1.731000           0.408213E-3       -0.008210           0.006713           0.029052
        1.734000           0.407121E-3       -0.008149           0.007277           0.029933
        1.737000           0.406107E-3       -0.008088           0.007914           0.030873
        1.740000           0.405173E-3       -0.008028           0.008636           0.031877
        1.743000           0.404319E-3       -0.007967           0.009459           0.032950
        1.746000           0.403546E-3       -0.007907           0.010401           0.034097
        1.749000           0.402857E-3       -0.007846           0.011484           0.035321
        1.752000           0.402250E-3       -0.007786           0.012738           0.036625
        1.755000           0.401730E-3       -0.007726           0.014196           0.038011
        1.758000           0.401295E-3       -0.007666           0.015902           0.039474
        1.761000           0.400949E-3       -0.007606           0.017907           0.041007
        1.764000           0.400692E-3       -0.007546           0.020277           0.042589
        1.767000           0.400527E-3       -0.007486           0.023091           0.044187
        1.770000           0.400456E-3       -0.007426           0.026444           0.045741
        1.773000           0.400479E-3       -0.007367           0.030445           0.047154
        1.776000           0.400601E-3       -0.007307           0.035211           0.048274
        1.779000           0.400822E-3       -0.007247           0.040850           0.048868
        1.782000           0.401145E-3       -0.007187           0.047426           0.048599
        1.785000           0.401573E-3       -0.007127           0.054886           0.047007
        1.788000           0.402109E-3       -0.007067           0.062960           0.043536
        1.791000           0.402755E-3       -0.007007           0.071039           0.037646
        1.794000           0.403515E-3       -0.006947           0.078115           0.029046
        1.797000           0.404392E-3       -0.006886           0.082931           0.018021
        1.800000           0.405389E-3       -0.006826           0.084412           0.005603
        1.803000           0.406510E-3       -0.006765           0.082188          -0.006647
        1.806000           0.407760E-3       -0.006704           0.076808          -0.017234
        1.809000           0.409142E-3       -0.006644           0.069429          -0.025275
        1.812000           0.410661E-3       -0.006582           0.061284          -0.030631
        1.815000           0.412322E-3       -0.006521           0.053301          -0.033666
        1.818000           0.414129E-3       -0.006459           0.046011          -0.034942
        1.821000           0.416089E-3       -0.006397           0.039630          -0.034998
        1.824000           0.418206E-3       -0.006335           0.034180          -0.034270
        1.827000           0.420487E-3       -0.006273           0.029582          -0.033072
        1.830000           0.422939E-3       -0.006210           0.025726          -0.031617
        1.833000           0.425569E-3       -0.006147           0.022494          -0.030044
        1.836000           0.428383E-3       -0.006083           0.019781          -0.028442
        1.839000           0.431390E-3       -0.006019           0.017494          -0.026864
        1.842000           0.434598E-3       -0.005954           0.015557          -0.025340
        1.845000           0.438017E-3       -0.005889           0.013909          -0.023887
        1.848000           0.441655E-3       -0.005824           0.012498          -0.022514
        1.851000           0.445523E-3       -0.005758           0.011284          -0.021221
        1.854000           0.449632E-3       -0.005691           0.010233          -0.020008
        1.857000           0.453993E-3       -0.005624           0.009320          -0.018871
        1.860000           0.458619E-3       -0.005556           0.008521          -0.017807
        1.863000           0.463524E-3       -0.005488           0.007820          -0.016810
        1.866000           0.468722E-3       -0.005419           0.007201          -0.015876
        1.869000           0.474227E-3       -0.005349           0.006653          -0.015000
        1.872000           0.480058E-3       -0.005278           0.006165          -0.014177
        1.875000           0.486231E-3       -0.005206           0.005729          -0.013404
        1.878000           0.492766E-3       -0.005134           0.005339          -0.012677
        1.881000           0.499683E-3       -0.005060           0.004988          -0.011991
        1.884000           0.507005E-3       -0.004985           0.004671          -0.011344
        1.887000           0.514754E-3       -0.004910           0.004384          -0.010732
        1.890000           0.522958E-3       -0.004833           0.004124          -0.010154
        1.893000           0.531643E-3       -0.004755           0.003887          -0.009605
        1.896000           0.540842E-3       -0.004676           0.003671          -0.009084
        1.899000           0.550585E-3       -0.004595           0.003473          -0.008590
        1.902000           0.560908E-3       -0.004513           0.003292          -0.008119
        1.905000           0.571850E-3       -0.004430           0.003125          -0.007670
        1.908000           0.583454E-3       -0.004345           0.002971          -0.007242
        1.911000           0.595764E-3       -0.004258           0.002830          -0.006834
        1.914000           0.608830E-3       -0.004169           0.002699          -0.006443
        1.917000           0.622707E-3       -0.004079           0.002577          -0.006068
        1.920000           0.637453E-3       -0.003986           0.002465          -0.005709
        1.923000           0.653136E-3       -0.003892           0.002360          -0.005365
        1.926000           0.669824E-3       -0.003795           0.002263          -0.005034
        1.929000           0.687596E-3       -0.003696           0.002172          -0.004716
        1.932000           0.706539E-3       -0.003594           0.002088          -0.004410
        1.935000           0.726750E-3       -0.003489           0.002009          -0.004115
        1.938000           0.748330E-3       -0.003382           0.001935          -0.003830
        1.941000           0.771398E-3       -0.003272           0.001865          -0.003556
        1.944000           0.796081E-3       -0.003158           0.001800          -0.003290
        1.947000           0.822524E-3       -0.003041           0.001739          -0.003033
        1.950000           0.850887E-3       -0.002920           0.001682          -0.002785
        1.953000           0.881345E-3       -0.002795           0.001628          -0.002544
        1.956000           0.914098E-3       -0.002666           0.001577          -0.002311
        1.959000           0.949369E-3       -0.002532           0.001529          -0.002084
        1.962000           0.987412E-3       -0.002394           0.001484          -0.001864
        1.965000           0.001029          -0.002250           0.001441          -0.001650
        1.968000           0.001073          -0.002101           0.001400          -0.001443
        1.971000           0.001121          -0.001945           0.001362          -0.001240
        1.974000           0.001174          -0.001784           0.001326          -0.001043
        1.977000           0.001230          -0.001615           0.001292          -0.850933E-3
        1.980000           0.001293          -0.001438           0.001259          -0.663552E-3
        1.983000           0.001360          -0.001254           0.001229          -0.480658E-3
        1.986000           0.001435          -0.001060           0.001199          -0.302015E-3
        1.989000           0.001516          -0.857483E-3        0.001172          -0.127449E-3
        1.992000           0.001606          -0.644267E-3        0.001145           0.432556E-4
        1.995000           0.001705          -0.419849E-3        0.001120           0.210294E-3
        1.998000           0.001815          -0.183266E-3        0.001097           0.373843E-3
        2.001000           0.001937           0.665462E-4        0.001074           0.534082E-3
        2.004000           0.002073           0.330699E-3        0.001053           0.691148E-3
        2.007000           0.002225           0.610455E-3        0.001032           0.845206E-3
        2.010000           0.002396           0.907161E-3        0.001013           0.996400E-3
        2.013000           0.002588           0.001222           0.994294E-3        0.001145
        2.016000           0.002806           0.001557           0.976693E-3        0.001291
        2.019000           0.003053           0.001914           0.959938E-3        0.001434
        2.022000           0.003336           0.002293           0.943986E-3        0.001575
        2.025000           0.003660           0.002697           0.928797E-3        0.001714
        2.028000           0.004034           0.003127           0.914337E-3        0.001851
        2.031000           0.004467           0.003584           0.900570E-3        0.001985
        2.034000           0.004972           0.004066           0.887465E-3        0.002118
        2.037000           0.005564           0.004574           0.874990E-3        0.002249
        2.040000           0.006261           0.005103           0.863119E-3        0.002378
        2.043000           0.007087           0.005644           0.851825E-3        0.002505
        2.046000           0.008069           0.006186           0.841084E-3        0.002631
        2.049000           0.009240           0.006703           0.830872E-3        0.002755
        2.052000           0.010637           0.007160           0.821167E-3        0.002878
        2.055000           0.012300           0.007498           0.811951E-3        0.002999
        2.058000           0.014260           0.007630           0.803203E-3        0.003119
        2.061000           0.016528           0.007432           0.794905E-3        0.003238
        2.064000           0.019069           0.006739           0.787041E-3        0.003356
        2.067000           0.021761           0.005363           0.779595E-3        0.003472
        2.070000           0.024357           0.003144           0.772552E-3        0.003588
        2.073000           0.026491           0.367490E-4        0.765899E-3        0.003702
        2.076000           0.027746          -0.003786           0.759621E-3        0.003816
        2.079000           0.027828          -0.007909           0.753708E-3        0.003929
        2.082000           0.026717          -0.011801           0.748147E-3        0.004041
        2.085000           0.024676          -0.015021           0.742927E-3        0.004152
        2.088000           0.022117          -0.017361           0.738039E-3        0.004262
        2.091000           0.019419          -0.018843           0.733473E-3        0.004372
        2.094000           0.016847          -0.019617           0.729219E-3        0.004481
        2.097000           0.014537          -0.019873           0.725271E-3        0.004589
        2.100000           0.012534          -0.019779           0.721619E-3        0.004697
        2.103000           0.010832          -0.019464           0.718256E-3        0.004804
        2.106000           0.009400          -0.019021           0.715177E-3        0.004911
        2.109000           0.008199          -0.018512           0.712373E-3        0.005018
        2.112000           0.007192          -0.017974           0.709840E-3        0.005124
        2.115000           0.006346          -0.017434           0.707572E-3        0.005229
        2.118000           0.005631          -0.016906           0.705564E-3        0.005335
        2.121000           0.005025          -0.016398           0.703811E-3        0.005440
        2.124000           0.004508          -0.015915           0.702309E-3        0.005545
        2.127000           0.004064          -0.015459           0.701054E-3        0.005649
        2.130000           0.003681          -0.015029           0.700042E-3        0.005754
        2.133000           0.003350          -0.014626           0.699271E-3        0.005858
        2.136000           0.003061          -0.014247           0.698736E-3        0.005963
        2.139000           0.002808          -0.013892           0.698436E-3        0.006067
        2.142000           0.002585          -0.013559           0.698369E-3        0.006171
        2.145000           0.002388          -0.013246           0.698531E-3        0.006276
        2.148000           0.002213          -0.012952           0.698923E-3        0.006380
        2.151000           0.002057          -0.012675           0.699542E-3        0.006484
        2.154000           0.001917          -0.012414           0.700386E-3        0.006589
        2.157000           0.001792          -0.012168           0.701456E-3        0.006693
        2.160000           0.001679          -0.011936           0.702750E-3        0.006798
        2.163000           0.001577          -0.011716           0.704269E-3        0.006903
        2.166000           0.001485          -0.011508           0.706012E-3        0.007008
        2.169000           0.001400          -0.011310           0.707980E-3        0.007114
        2.172000           0.001324          -0.011122           0.710173E-3        0.007220
        2.175000           0.001253          -0.010944           0.712592E-3        0.007326
        2.178000           0.001189          -0.010774           0.715238E-3        0.007433
        2.181000           0.001130          -0.010611           0.718112E-3        0.007540
        2.184000           0.001076          -0.010456           0.721217E-3        0.007647
        2.187000           0.001025          -0.010308           0.724553E-3        0.007755
        2.190000           0.978801E-3       -0.010166           0.728123E-3        0.007863
        2.193000           0.935730E-3       -0.010030           0.731931E-3        0.007972
        2.196000           0.895750E-3       -0.009899           0.735978E-3        0.008082
        2.199000           0.858570E-3       -0.009774           0.740267E-3        0.008192
        2.202000           0.823935E-3       -0.009653           0.744803E-3        0.008303
        2.205000           0.791616E-3       -0.009537           0.749589E-3        0.008414
        2.208000           0.761416E-3       -0.009426           0.754629E-3        0.008527
        2.211000           0.733153E-3       -0.009318           0.759927E-3        0.008640
        2.214000           0.706663E-3       -0.009214           0.765488E-3        0.008753
        2.217000           0.681802E-3       -0.009113           0.771318E-3        0.008868
        2.220000           0.658437E-3       -0.009016           0.777422E-3        0.008984
        2.223000           0.636454E-3       -0.008922           0.783805E-3        0.009100
        2.226000           0.615744E-3       -0.008831           0.790474E-3        0.009218
        2.229000           0.596211E-3       -0.008742           0.797436E-3        0.009336
        2.232000           0.577766E-3       -0.008657           0.804699E-3        0.009455
        2.235000           0.560333E-3       -0.008574           0.812270E-3        0.009576
        2.238000           0.543838E-3       -0.008493           0.820157E-3        0.009698
        2.241000           0.528214E-3       -0.008414           0.828369E-3        0.009821
        2.244000           0.513401E-3       -0.008338           0.836915E-3        0.009945
        2.247000           0.499345E-3       -0.008264           0.845805E-3        0.010070
        2.250000           0.485996E-3       -0.008191           0.855050E-3        0.010197
        2.253000           0.473306E-3       -0.008121           0.864660E-3        0.010325
        2.256000           0.461233E-3       -0.008052           0.874649E-3        0.010455
        2.259000           0.449739E-3       -0.007985           0.885027E-3        0.010586
        2.262000           0.438787E-3       -0.007920           0.895810E-3        0.010718
        2.265000           0.428344E-3       -0.007856           0.907009E-3        0.010853
        2.268000           0.418380E-3       -0.007793           0.918642E-3        0.010989
        2.271000           0.408865E-3       -0.007732           0.930724E-3        0.011126
        2.274000           0.399775E-3       -0.007673           0.943272E-3        0.011266
        2.277000           0.391085E-3       -0.007614           0.956303E-3        0.011407
        2.280000           0.382773E-3       -0.007557           0.969837E-3        0.011550
        2.283000           0.374816E-3       -0.007501           0.983896E-3        0.011696
        2.286000           0.367198E-3       -0.007446           0.998500E-3        0.011843
        2.289000           0.359898E-3       -0.007392           0.001014           0.011993
        2.292000           0.352901E-3       -0.007339           0.001029           0.012145
        2.295000           0.346190E-3       -0.007288           0.001046           0.012299
        2.298000           0.339753E-3       -0.007237           0.001063           0.012455
        2.301000           0.333574E-3       -0.007187           0.001081           0.012615
        2.304000           0.327641E-3       -0.007138           0.001099           0.012777
        2.307000           0.321943E-3       -0.007090           0.001118           0.012941
        2.310000           0.316468E-3       -0.007042           0.001138           0.013108
        2.313000           0.311206E-3       -0.006996           0.001159           0.013279
        2.316000           0.306149E-3       -0.006950           0.001180           0.013452
        2.319000           0.301285E-3       -0.006905           0.001203           0.013629
        2.322000           0.296608E-3       -0.006860           0.001226           0.013809
        2.325000           0.292110E-3       -0.006816           0.001251           0.013992
        2.328000           0.287782E-3       -0.006773           0.001276           0.014180
        2.331000           0.283619E-3       -0.006731           0.001303           0.014370
        2.334000           0.279613E-3       -0.006689           0.001331           0.014565
        2.337000           0.275760E-3       -0.006648           0.001360           0.014764
        2.340000           0.272052E-3       -0.006607           0.001391           0.014967
        2.343000           0.268486E-3       -0.006567           0.001422           0.015175
        2.346000           0.265056E-3       -0.006527           0.001456           0.015387
        2.349000           0.261759E-3       -0.006488           0.001491           0.015605
        2.352000           0.258588E-3       -0.006449           0.001527           0.015827
        2.355000           0.255542E-3       -0.006411           0.001566           0.016055
        2.358000           0.252616E-3       -0.006373           0.001606           0.016288
        2.361000           0.249806E-3       -0.006335           0.001649           0.016527
        2.364000           0.247111E-3       -0.006298           0.001693           0.016773
        2.367000           0.244527E-3       -0.006262           0.001740           0.017025
        2.370000           0.242052E-3       -0.006225           0.001790           0.017283
        2.373000           0.239683E-3       -0.006190           0.001842           0.017549
        2.376000           0.237420E-3       -0.006154           0.001897           0.017823
        2.379000           0.235259E-3       -0.006119           0.001956           0.018104
        2.382000           0.233200E-3       -0.006084           0.002018           0.018394
        2.385000           0.231241E-3       -0.006049           0.002083           0.018693
        2.388000           0.229382E-3       -0.006015           0.002153           0.019001
        2.391000           0.227623E-3       -0.005981           0.002227           0.019319
        2.394000           0.225961E-3       -0.005947           0.002306           0.019647
        2.397000           0.224398E-3       -0.005914           0.002390           0.019987
        2.400000           0.222933E-3       -0.005880           0.002480           0.020338
        2.403000           0.221568E-3       -0.005847           0.002576           0.020702
        2.406000           0.220303E-3       -0.005814           0.002679           0.021079
        2.409000           0.219139E-3       -0.005781           0.002789           0.021471
        2.412000           0.218077E-3       -0.005749           0.002908           0.021878
        2.415000           0.217119E-3       -0.005716           0.003036           0.022301
        2.418000           0.216269E-3       -0.005684           0.003174           0.022741
        2.421000           0.215527E-3       -0.005652           0.003324           0.023200
        2.424000           0.214899E-3       -0.005620           0.003487           0.023679
        2.427000           0.214386E-3       -0.005588           0.003663           0.024180
        2.430000           0.213994E-3       -0.005556           0.003856           0.024703
        2.433000           0.213728E-3       -0.005525           0.004067           0.025252
        2.436000           0.213593E-3       -0.005493           0.004299           0.025827
        2.439000           0.213596E-3       -0.005461           0.004553           0.026431
        2.442000           0.213743E-3       -0.005429           0.004834           0.027066
        2.445000           0.214044E-3       -0.005398           0.005146           0.027735
        2.448000           0.214507E-3       -0.005366           0.005492           0.028441
        2.451000           0.215143E-3       -0.005334           0.005879           0.029186
        2.454000           0.215965E-3       -0.005302           0.006313           0.029973
        2.457000           0.216985E-3       -0.005270           0.006801           0.030807
        2.460000           0.218220E-3       -0.005238           0.007353           0.031691
        2.463000           0.219686E-3       -0.005206           0.007981           0.032627
        2.466000           0.221405E-3       -0.005173           0.008698           0.033620
        2.469000           0.223399E-3       -0.005141           0.009522           0.034671
        2.472000           0.225694E-3       -0.005108           0.010474           0.035784
        2.475000           0.228319E-3       -0.005074           0.011579           0.036958
        2.478000           0.231310E-3       -0.005041           0.012869           0.038190
        2.481000           0.234706E-3       -0.005007           0.014385           0.039473
        2.484000           0.238552E-3       -0.004973           0.016176           0.040789
        2.487000           0.242901E-3       -0.004938           0.018299           0.042112
        2.490000           0.247816E-3       -0.004902           0.020827           0.043393
        2.493000           0.253367E-3       -0.004866           0.023837           0.044554
        2.496000           0.259639E-3       -0.004830           0.027415           0.045474
        2.499000           0.266731E-3       -0.004792           0.031632           0.045971
        2.502000           0.274761E-3       -0.004754           0.036516           0.045782
        2.505000           0.283866E-3       -0.004715           0.042000           0.044559
        2.508000           0.294214E-3       -0.004675           0.047835           0.041898
        2.511000           0.306002E-3       -0.004634           0.053515           0.037443
        2.514000           0.319472E-3       -0.004592           0.058258           0.031070
        2.517000           0.334912E-3       -0.004548           0.061167           0.023118
        2.520000           0.352674E-3       -0.004503           0.061577           0.014450
        2.523000           0.373192E-3       -0.004457           0.059395           0.006209
        2.526000           0.396995E-3       -0.004409           0.055157          -0.627863E-3
        2.529000           0.424734E-3       -0.004359           0.049738          -0.005573
        2.532000           0.457216E-3       -0.004308           0.043975          -0.008644
        2.535000           0.495437E-3       -0.004255           0.038454          -0.010155
        2.538000           0.540629E-3       -0.004202           0.033487          -0.010510
        2.541000           0.594301E-3       -0.004147           0.029183          -0.010080
        2.544000           0.658266E-3       -0.004093           0.025533          -0.009148
        2.547000           0.734663E-3       -0.004041           0.022474          -0.007919
        2.550000           0.825871E-3       -0.003994           0.019924          -0.006527
        2.553000           0.934277E-3       -0.003955           0.017800          -0.005061
        2.556000           0.001062          -0.003930           0.016030          -0.003575
        2.559000           0.001208          -0.003929           0.014553          -0.002103
        2.562000           0.001371          -0.003962           0.013316          -0.660741E-3
        2.565000           0.001539          -0.004040           0.012278           0.740822E-3
        2.568000           0.001697          -0.004172           0.011406           0.002098
        2.571000           0.001820          -0.004359           0.010672           0.003412
        2.574000           0.001881          -0.004586           0.010055           0.004683
        2.577000           0.001868          -0.004823           0.009536           0.005916
        2.580000           0.001782          -0.005037           0.009101           0.007114
        2.583000           0.001644          -0.005205           0.008739           0.008281
        2.586000           0.001481          -0.005317           0.008441           0.009422
        2.589000           0.001313          -0.005377           0.008198           0.010541
        2.592000           0.001157          -0.005395           0.008004           0.011642
        2.595000           0.001018          -0.005384           0.007856           0.012729
        2.598000           0.898205E-3       -0.005353           0.007747           0.013806
        2.601000           0.797196E-3       -0.005310           0.007676           0.014877
        2.604000           0.712607E-3       -0.005260           0.007640           0.015946
        2.607000           0.642039E-3       -0.005206           0.007637           0.017016
        2.610000           0.583189E-3       -0.005150           0.007665           0.018091
        2.613000           0.534046E-3       -0.005095           0.007723           0.019174
        2.616000           0.492920E-3       -0.005040           0.007812           0.020269
        2.619000           0.458428E-3       -0.004986           0.007931           0.021380
        2.622000           0.429446E-3       -0.004934           0.008080           0.022509
        2.625000           0.405070E-3       -0.004883           0.008260           0.023661
        2.628000           0.384575E-3       -0.004833           0.008473           0.024839
        2.631000           0.367379E-3       -0.004785           0.008719           0.026048
        2.634000           0.353021E-3       -0.004737           0.009001           0.027291
        2.637000           0.341128E-3       -0.004691           0.009321           0.028573
        2.640000           0.331408E-3       -0.004646           0.009682           0.029898
        2.643000           0.323630E-3       -0.004601           0.010087           0.031272
        2.646000           0.317617E-3       -0.004557           0.010541           0.032698
        2.649000           0.313233E-3       -0.004514           0.011049           0.034184
        2.652000           0.310386E-3       -0.004471           0.011616           0.035735
        2.655000           0.309013E-3       -0.004428           0.012249           0.037358
        2.658000           0.309088E-3       -0.004385           0.012957           0.039059
        2.661000           0.310611E-3       -0.004342           0.013749           0.040847
        2.664000           0.313615E-3       -0.004299           0.014635           0.042729
        2.667000           0.318166E-3       -0.004255           0.015630           0.044716
        2.670000           0.324361E-3       -0.004211           0.016750           0.046816
        2.673000           0.332336E-3       -0.004167           0.018012           0.049041
        2.676000           0.342273E-3       -0.004121           0.019441           0.051401
        2.679000           0.354401E-3       -0.004075           0.021063           0.053908
        2.682000           0.369013E-3       -0.004027           0.022912           0.056575
        2.685000           0.386475E-3       -0.003979           0.025028           0.059414
        2.688000           0.407244E-3       -0.003928           0.027460           0.062436
        2.691000           0.431888E-3       -0.003877           0.030270           0.065651
        2.694000           0.461118E-3       -0.003824           0.033530           0.069066
        2.697000           0.495811E-3       -0.003769           0.037335           0.072680
        2.700000           0.537065E-3       -0.003712           0.041796           0.076483
        2.703000           0.586239E-3       -0.003655           0.047056           0.080445
        2.706000           0.645011E-3       -0.003596           0.053287           0.084510
        2.709000           0.715411E-3       -0.003538           0.060699           0.088577
        2.712000           0.799866E-3       -0.003482           0.069541           0.092473
        2.715000           0.901132E-3       -0.003430           0.080097           0.095922
        2.718000           0.001022          -0.003388           0.092660           0.098492
        2.721000           0.001165          -0.003360           0.107487           0.099531
        2.724000           0.001332          -0.003356           0.124673           0.098104
        2.727000           0.001519          -0.003389           0.143968           0.092976
        2.730000           0.001718          -0.003471           0.164487           0.082717
        2.733000           0.001912          -0.003617           0.184418           0.066062
        2.736000           0.002074          -0.003829           0.200982           0.042604
        2.739000           0.002172          -0.004096           0.211006           0.013559
        2.742000           0.002184          -0.004389           0.212151          -0.017997
        2.745000           0.002105          -0.004667           0.204125          -0.048009
        2.748000           0.001956          -0.004897           0.188853          -0.073033
        2.751000           0.001765          -0.005062           0.169434          -0.091380
        2.754000           0.001563          -0.005163           0.148826          -0.103125
        2.757000           0.001368          -0.005210           0.129090          -0.109396
        2.760000           0.001193          -0.005217           0.111316          -0.111628
        2.763000           0.001041          -0.005197           0.095884          -0.111123
        2.766000           0.911390E-3       -0.005161           0.082757          -0.108890
        2.769000           0.802143E-3       -0.005114           0.071707          -0.105643
        2.772000           0.710436E-3       -0.005062           0.062442          -0.101865
        2.775000           0.633449E-3       -0.005009           0.054674          -0.097864
        2.778000           0.568638E-3       -0.004955           0.048144          -0.093835
        2.781000           0.513846E-3       -0.004902           0.042632          -0.089893
        2.784000           0.467286E-3       -0.004850           0.037956          -0.086104
        2.787000           0.427508E-3       -0.004801           0.033969          -0.082503
        2.790000           0.393327E-3       -0.004754           0.030550          -0.079105
        2.793000           0.363789E-3       -0.004708           0.027603          -0.075912
        2.796000           0.338119E-3       -0.004665           0.025047          -0.072920
        2.799000           0.315694E-3       -0.004624           0.022821          -0.070118
        2.802000           0.296001E-3       -0.004585           0.020871          -0.067497
        2.805000           0.278621E-3       -0.004547           0.019156          -0.065045
        2.808000           0.263210E-3       -0.004511           0.017639          -0.062748
        2.811000           0.249484E-3       -0.004476           0.016293          -0.060596
        2.814000           0.237208E-3       -0.004443           0.015094          -0.058578
        2.817000           0.226184E-3       -0.004411           0.014020          -0.056683
        2.820000           0.216247E-3       -0.004380           0.013057          -0.054900
        2.823000           0.207257E-3       -0.004351           0.012188          -0.053223
        2.826000           0.199097E-3       -0.004322           0.011404          -0.051641
        2.829000           0.191666E-3       -0.004295           0.010692          -0.050148
        2.832000           0.184877E-3       -0.004268           0.010045          -0.048738
        2.835000           0.178658E-3       -0.004242           0.009454          -0.047403
        2.838000           0.172945E-3       -0.004216           0.008915          -0.046138
        2.841000           0.167683E-3       -0.004192           0.008420          -0.044938
        2.844000           0.162824E-3       -0.004168           0.007966          -0.043798
        2.847000           0.158327E-3       -0.004145           0.007548          -0.042715
        2.850000           0.154154E-3       -0.004122           0.007161          -0.041683
        2.853000           0.150276E-3       -0.004100           0.006805          -0.040700
        2.856000           0.146662E-3       -0.004078           0.006474          -0.039762
        2.859000           0.143290E-3       -0.004057           0.006167          -0.038867
        2.862000           0.140136E-3       -0.004036           0.005881          -0.038010
        2.865000           0.137181E-3       -0.004016           0.005616          -0.037191
        2.868000           0.134408E-3       -0.003996           0.005368          -0.036407
        2.871000           0.131802E-3       -0.003976           0.005136          -0.035655
        2.874000           0.129348E-3       -0.003957           0.004919          -0.034934
        2.877000           0.127034E-3       -0.003938           0.004716          -0.034241
        2.880000           0.124849E-3       -0.003919           0.004525          -0.033576
        2.883000           0.122784E-3       -0.003901           0.004346          -0.032936
        2.886000           0.120828E-3       -0.003883           0.004178          -0.032320
        2.889000           0.118974E-3       -0.003865           0.004019          -0.031727
        2.892000           0.117214E-3       -0.003848           0.003869          -0.031155
        2.895000           0.115542E-3       -0.003831           0.003728          -0.030603
        2.898000           0.113951E-3       -0.003814           0.003594          -0.030071
        2.901000           0.112436E-3       -0.003797           0.003468          -0.029558
        2.904000           0.110992E-3       -0.003780           0.003348          -0.029061
        2.907000           0.109613E-3       -0.003764           0.003235          -0.028581
        2.910000           0.108297E-3       -0.003748           0.003127          -0.028117
        2.913000           0.107038E-3       -0.003732           0.003025          -0.027667
        2.916000           0.105833E-3       -0.003716           0.002928          -0.027232
        2.919000           0.104680E-3       -0.003700           0.002835          -0.026810
        2.922000           0.103574E-3       -0.003685           0.002747          -0.026401
        2.925000           0.102513E-3       -0.003669           0.002663          -0.026004
        2.928000           0.101495E-3       -0.003654           0.002583          -0.025619
        2.931000           0.100517E-3       -0.003639           0.002507          -0.025246
        2.934000           0.995759E-4       -0.003624           0.002434          -0.024883
        2.937000           0.986711E-4       -0.003609           0.002364          -0.024530
        2.940000           0.978000E-4       -0.003595           0.002297          -0.024187
        2.943000           0.969609E-4       -0.003580           0.002233          -0.023854
        2.946000           0.961523E-4       -0.003566           0.002172          -0.023529
        2.949000           0.953723E-4       -0.003551           0.002114          -0.023213
        2.952000           0.946197E-4       -0.003537           0.002058          -0.022906
        2.955000           0.938933E-4       -0.003523           0.002004          -0.022606
        2.958000           0.931915E-4       -0.003509           0.001952          -0.022314
        2.961000           0.925133E-4       -0.003495           0.001902          -0.022030
        2.964000           0.918576E-4       -0.003481           0.001855          -0.021752
        2.967000           0.912234E-4       -0.003468           0.001809          -0.021481
        2.970000           0.906097E-4       -0.003454           0.001764          -0.021217
        2.973000           0.900155E-4       -0.003441           0.001722          -0.020959
        2.976000           0.894400E-4       -0.003427           0.001681          -0.020708
        2.979000           0.888825E-4       -0.003414           0.001642          -0.020462
        2.982000           0.883422E-4       -0.003401           0.001604          -0.020222
        2.985000           0.878184E-4       -0.003387           0.001567          -0.019987
        2.988000           0.873104E-4       -0.003374           0.001531          -0.019757
        2.991000           0.868175E-4       -0.003361           0.001497          -0.019533
        2.994000           0.863392E-4       -0.003348           0.001464          -0.019313
        2.997000           0.858750E-4       -0.003335           0.001433          -0.019098
        3.000000           0.854242E-4       -0.003323           0.001402          -0.018888
# 
# 02/28/2024 at 13:49 yambo @ unimi-XPS-8930 [start]
# 02/28/2024 at 13:49                        [end]
#  
# Timing   [Min/Max/Average]: 02s/02s/02s
#
# .-Input file  yambo.in
# | optics                           # [R] Linear Response optical properties
# | bss                              # [R] BSE solver
# | bse                              # [R][BSE] Bethe Salpeter Equation.
# | tddft                            # [R][K] Use TDDFT kernel
# | ElecTemp= 0.025861         eV    # Electronic Temperature
# | BoseTemp= 0.025861         eV    # Bosonic Temperature
# | FFTGvecs=  4935            RL    # [FFT] Plane-waves
# | BS_nCPU_LinAlg_INV= 1            # [PARALLEL] CPUs for Linear Algebra (if -1 it is automatically set)
# | BS_nCPU_LinAlg_DIAGO= 1          # [PARALLEL] CPUs for Linear Algebra (if -1 it is automatically set)
# | X_Threads= 1                     # [OPENMP/X] Number of threads for response functions
# | DIP_Threads= 1                   # [OPENMP/X] Number of threads for dipoles
# | K_Threads= 1                     # [OPENMP/BSK] Number of threads for response functions
# | BSKmod= "ALDA"                   # [BSE] IP/Hartree/HF/ALDA/SEX/BSfxc
# | BSEmod= "resonant"               # [BSE] resonant/retarded/coupling
# | BSSmod= "d"                      # [BSS] (h)aydock/(d)iagonalization/(s)lepc/(i)nversion/(t)ddft`
# | DipComputed= "R V P Spin"        # [DIP] [default R P V; extra P2 Spin Orb]
# | BSENGexx= 1                RL    # [BSK] Exchange components
# | BSENGfxc= 10               Ry    # [BSK] Fxc components
# | % BSEQptR
# |  1 | 2 |                             # [BSK] Transferred momenta range
# | %
# | % BSEBands
# |   1 | 10 |                           # [BSK] Bands range
# | %
# | % BEnRange
# |  0.000000 | 3.000000 |         eV    # [BSS] Energy range
# | %
# | % BDmRange
# |  0.020000 | 0.020000 |         eV    # [BSS] Damping range
# | %
# | BEnSteps= 1001                   # [BSS] Energy steps
# | % BLongDir
# |  1.000000 | 0.000000 | 0.000000 |        # [BSS] [cc] Electric Field versor
# | %
# | BSEprop= " jdos magn"            # [BSS] Can be any among abs/jdos/kerr/asymm/anHAll/magn/dich/photolum/esrt
# | BSEdips= "none"                  # [BSS] Can be "trace/none" or "xy/xz/yz" to define off-diagonal rotation plane
# | #WRbsWF                        # [BSS] Write to disk excitonic the WFs
