#                                                           
#  **    **    **     ****     ****  ******     *******     
# //**  **    ****   /**/**   **/** /*////**   **/////**    
#  //****    **//**  /**//** ** /** /*   /**  **     //**   
#   //**    **  //** /** //***  /** /******  /**      /**   
#    /**   **********/**  //*   /** /*//// **/**      /**   
#    /**  /**//////**/**   /    /** /*    /**//**     **    
#    /**  /**     /**/**        /** /*******  //*******     
#    //   //      // //         //  ///////    ///////      
#                                                           
#        Version 4.2.0 Revision 14319 Hash 8432f48          
#                  MPI+SLK+OpenMP Build                     
#                http://www.yambo-code.org                  
#
# Polarizability ( -<<X>> ) [volume @ Q(1) [q->0 direction]0.1000E-4  0.000     0.000   
#
#
# - Energies      are Teter 93(XC)
# - Wavefunctions are Teter 93(XC)
#
# - The Green`s function is Retarded -
# - Using the Length Gauge -
# - [r,Vnl] *is* included -
#
#   BSK|Identifier              :6493
#      |Dimension               :199
#      |Bands                   :1 - 200
#      |Exchange           [res]: yes
#      |Correlation        [res]: no
#      |Kernel`s coupling       : no
#      |Exchange           [cpl]: no
#      |Correlation        [cpl]: no
#      |W interaction is bare   : no
#      |ALDA kernel in R-space  : no
#      |RL vectors    [exchange]:9045
#      |E/h energy range    [ev]:-1.000000 - -1.000000
#      |Coupling range     [o/o]: 100.0000 -  100.0000
#  
#   Haydock|Accuracy (requested) [o/o]:0.1000E-2
#          |Accuracy (reached)   [o/o]:0.9208E-3
#          |Iteration                 :16
#
#  E/ev[1]    ALPHA-Im[2]ALPHA-Re[3]ALPHAo-Im[4ALPHAo-Re[5ALPHA`-Im[6ALPHA`-Re[7]
#
   0.00000    0.00000   12.80394    0.00000   20.54934    0.00000   12.80394
 0.1502E-1  0.2552E-3   12.80     0.9184E-3   20.55     0.2552E-3   12.80   
 0.3003E-1  0.5104E-3   12.80     0.1837E-2   20.55     0.5104E-3   12.80   
 0.4505E-1  0.7657E-3   12.80     0.2755E-2   20.55     0.7657E-3   12.80   
 0.6006E-1  0.1021E-2   12.80     0.3674E-2   20.55     0.1021E-2   12.80   
 0.7508E-1  0.1276E-2   12.80     0.4593E-2   20.55     0.1276E-2   12.80   
 0.9009E-1  0.1532E-2   12.80     0.5512E-2   20.55     0.1532E-2   12.80   
 0.1051     0.1787E-2   12.80     0.6431E-2   20.55     0.1787E-2   12.80   
 0.1201     0.2042E-2   12.81     0.7351E-2   20.55     0.2042E-2   12.81   
 0.1351     0.2298E-2   12.81     0.8270E-2   20.55     0.2298E-2   12.81   
 0.1502     0.2553E-2   12.81     0.9191E-2   20.56     0.2553E-2   12.81   
 0.1652     0.2809E-2   12.81     0.1011E-1   20.56     0.2809E-2   12.81   
 0.1802     0.3064E-2   12.81     0.1103E-1   20.56     0.3064E-2   12.81   
 0.1952     0.3320E-2   12.81     0.1195E-1   20.56     0.3320E-2   12.81   
 0.2102     0.3576E-2   12.81     0.1288E-1   20.56     0.3576E-2   12.81   
 0.2252     0.3831E-2   12.81     0.1380E-1   20.56     0.3831E-2   12.81   
 0.2402     0.4087E-2   12.81     0.1472E-1   20.57     0.4087E-2   12.81   
 0.2553     0.4343E-2   12.81     0.1564E-1   20.57     0.4343E-2   12.81   
 0.2703     0.4599E-2   12.81     0.1657E-1   20.57     0.4599E-2   12.81   
 0.2853     0.4855E-2   12.81     0.1749E-1   20.57     0.4855E-2   12.81   
 0.3003     0.5112E-2   12.81     0.1842E-1   20.58     0.5112E-2   12.81   
 0.3153     0.5368E-2   12.81     0.1935E-1   20.58     0.5368E-2   12.81   
 0.3303     0.5624E-2   12.81     0.2027E-1   20.58     0.5624E-2   12.81   
 0.3453     0.5881E-2   12.81     0.2120E-1   20.59     0.5881E-2   12.81   
 0.3604     0.6138E-2   12.81     0.2213E-1   20.59     0.6138E-2   12.81   
 0.3754     0.6395E-2   12.82     0.2306E-1   20.59     0.6395E-2   12.82   
 0.3904     0.6652E-2   12.82     0.2399E-1   20.60     0.6652E-2   12.82   
 0.4054     0.6909E-2   12.82     0.2492E-1   20.60     0.6909E-2   12.82   
 0.4204     0.7166E-2   12.82     0.2585E-1   20.60     0.7166E-2   12.82   
 0.4354     0.7423E-2   12.82     0.2679E-1   20.61     0.7423E-2   12.82   
 0.4505     0.7681E-2   12.82     0.2772E-1   20.61     0.7681E-2   12.82   
 0.4655     0.7939E-2   12.82     0.2866E-1   20.62     0.7939E-2   12.82   
 0.4805     0.8197E-2   12.82     0.2960E-1   20.62     0.8197E-2   12.82   
 0.4955     0.8455E-2   12.82     0.3053E-1   20.62     0.8455E-2   12.82   
 0.5105     0.8713E-2   12.83     0.3147E-1   20.63     0.8713E-2   12.83   
 0.5255     0.8971E-2   12.83     0.3241E-1   20.63     0.8971E-2   12.83   
 0.5405     0.9230E-2   12.83     0.3336E-1   20.64     0.9230E-2   12.83   
 0.5556     0.9489E-2   12.83     0.3430E-1   20.64     0.9489E-2   12.83   
 0.5706     0.9748E-2   12.83     0.3525E-1   20.65     0.9748E-2   12.83   
 0.5856     0.1001E-1   12.83     0.3619E-1   20.65     0.1001E-1   12.83   
 0.6006     0.1027E-1   12.83     0.3714E-1   20.66     0.1027E-1   12.83   
 0.6156     0.1053E-1   12.84     0.3809E-1   20.67     0.1053E-1   12.84   
 0.6306     0.1079E-1   12.84     0.3904E-1   20.67     0.1079E-1   12.84   
 0.6456     0.1105E-1   12.84     0.3999E-1   20.68     0.1105E-1   12.84   
 0.6607     0.1131E-1   12.84     0.4095E-1   20.68     0.1131E-1   12.84   
 0.6757     0.1157E-1   12.84     0.4190E-1   20.69     0.1157E-1   12.84   
 0.6907     0.1183E-1   12.84     0.4286E-1   20.70     0.1183E-1   12.84   
 0.7057     0.1209E-1   12.85     0.4382E-1   20.70     0.1209E-1   12.85   
 0.7207     0.1235E-1   12.85     0.4478E-1   20.71     0.1235E-1   12.85   
 0.7357     0.1261E-1   12.85     0.4575E-1   20.72     0.1261E-1   12.85   
 0.7508     0.1287E-1   12.85     0.4671E-1   20.72     0.1287E-1   12.85   
 0.7658     0.1314E-1   12.85     0.4768E-1   20.73     0.1314E-1   12.85   
 0.7808     0.1340E-1   12.86     0.4865E-1   20.74     0.1340E-1   12.86   
 0.7958     0.1366E-1   12.86     0.4962E-1   20.74     0.1366E-1   12.86   
 0.8108     0.1392E-1   12.86     0.5059E-1   20.75     0.1392E-1   12.86   
 0.8258     0.1419E-1   12.86     0.5157E-1   20.76     0.1419E-1   12.86   
 0.8408     0.1445E-1   12.86     0.5255E-1   20.77     0.1445E-1   12.86   
 0.8559     0.1472E-1   12.87     0.5353E-1   20.78     0.1472E-1   12.87   
 0.8709     0.1498E-1   12.87     0.5451E-1   20.78     0.1498E-1   12.87   
 0.8859     0.1524E-1   12.87     0.5549E-1   20.79     0.1524E-1   12.87   
 0.9009     0.1551E-1   12.87     0.5648E-1   20.80     0.1551E-1   12.87   
 0.9159     0.1577E-1   12.88     0.5747E-1   20.81     0.1577E-1   12.88   
 0.9309     0.1604E-1   12.88     0.5846E-1   20.82     0.1604E-1   12.88   
 0.9459     0.1631E-1   12.88     0.5946E-1   20.83     0.1631E-1   12.88   
 0.9610     0.1657E-1   12.88     0.6045E-1   20.84     0.1657E-1   12.88   
 0.9760     0.1684E-1   12.89     0.6145E-1   20.84     0.1684E-1   12.89   
 0.9910     0.1711E-1   12.89     0.6245E-1   20.85     0.1711E-1   12.89   
  1.006     0.1737E-1   12.89     0.6346E-1   20.86     0.1737E-1   12.89   
  1.021     0.1764E-1   12.89     0.6447E-1   20.87     0.1764E-1   12.89   
  1.036     0.1791E-1   12.90     0.6548E-1   20.88     0.1791E-1   12.90   
  1.051     0.1818E-1   12.90     0.6649E-1   20.89     0.1818E-1   12.90   
  1.066     0.1845E-1   12.90     0.6750E-1   20.90     0.1845E-1   12.90   
  1.081     0.1872E-1   12.90     0.6852E-1   20.91     0.1872E-1   12.90   
  1.096     0.1899E-1   12.91     0.6955E-1   20.92     0.1899E-1   12.91   
  1.111     0.1926E-1   12.91     0.7057E-1   20.93     0.1926E-1   12.91   
  1.126     0.1953E-1   12.91     0.7160E-1   20.94     0.1953E-1   12.91   
  1.141     0.1980E-1   12.92     0.7263E-1   20.96     0.1980E-1   12.92   
  1.156     0.2007E-1   12.92     0.7366E-1   20.97     0.2007E-1   12.92   
  1.171     0.2034E-1   12.92     0.7470E-1   20.98     0.2034E-1   12.92   
  1.186     0.2061E-1   12.92     0.7574E-1   20.99     0.2061E-1   12.92   
  1.201     0.2089E-1   12.93     0.7678E-1   21.00     0.2089E-1   12.93   
   1.21622    0.02116   12.93111    0.07783   21.01180    0.02116   12.93111
   1.23123    0.02143   12.93430    0.07888   21.02351    0.02143   12.93430
   1.24625    0.02171   12.93756    0.07993   21.03544    0.02171   12.93756
   1.26126    0.02198   12.94090    0.08099   21.04760    0.02198   12.94090
   1.27628    0.02226   12.94423    0.08205   21.05975    0.02226   12.94423
   1.29129    0.02253   12.94757    0.08312   21.07205    0.02253   12.94757
   1.30631    0.02281   12.95090    0.08419   21.08465    0.02281   12.95090
   1.32132    0.02309   12.95438    0.08526   21.09740    0.02309   12.95438
   1.33634    0.02336   12.95787    0.08633   21.11029    0.02336   12.95787
   1.35135    0.02364   12.96135    0.08741   21.12334    0.02364   12.96135
   1.36637    0.02392   12.96498    0.08850   21.13653    0.02392   12.96498
   1.38138    0.02420   12.96861    0.08958   21.14987    0.02420   12.96861
   1.39640    0.02448   12.97225    0.09067   21.16343    0.02448   12.97225
   1.41141    0.02476   12.97588    0.09177   21.17707    0.02476   12.97588
   1.42643    0.02504   12.97966    0.09287   21.19093    0.02504   12.97966
   1.44144    0.02532   12.98336    0.09397   21.20501    0.02532   12.98336
   1.45646    0.02560   12.98714    0.09508   21.21916    0.02560   12.98714
   1.47147    0.02588   12.99107    0.09619   21.23347    0.02588   12.99107
   1.48649    0.02617   12.99500    0.09731   21.24800    0.02617   12.99500
   1.50150    0.02645   12.99893    0.09843   21.26274    0.02645   12.99893
   1.51652    0.02673   13.00300    0.09956   21.27757    0.02673   13.00300
   1.53153    0.02702   13.00693    0.10069   21.29261    0.02702   13.00693
   1.54655    0.02730   13.01108    0.10182   21.30780    0.02730   13.01108
   1.56156    0.02759   13.01516    0.10296   21.32314    0.02759   13.01516
   1.57658    0.02787   13.01938    0.10410   21.33863    0.02787   13.01938
   1.59159    0.02816   13.02361    0.10525   21.35435    0.02816   13.02361
   1.60661    0.02845   13.02783    0.10640   21.37021    0.02845   13.02783
   1.62162    0.02874   13.03198    0.10756   21.38629    0.02874   13.03198
   1.63664    0.02903   13.03635    0.10873   21.40259    0.02903   13.03635
   1.65165    0.02932   13.04072    0.10989   21.41890    0.02932   13.04072
   1.66667    0.02961   13.04525    0.11107   21.43550    0.02961   13.04525
   1.68168    0.02990   13.04969    0.11225   21.45225    0.02990   13.04969
   1.69670    0.03019   13.05421    0.11343   21.46915    0.03019   13.05421
   1.71171    0.03048   13.05873    0.11462   21.48634    0.03048   13.05873
   1.72673    0.03077   13.06333    0.11581   21.50353    0.03077   13.06333
   1.74174    0.03107   13.06800    0.11701   21.52095    0.03107   13.06800
   1.75676    0.03136   13.07267    0.11822   21.53874    0.03136   13.07267
   1.77177    0.03166   13.07741    0.11943   21.55645    0.03166   13.07741
   1.78679    0.03195   13.08223    0.12065   21.57453    0.03195   13.08223
   1.80180    0.03225   13.08704    0.12187   21.59269    0.03225   13.08704
   1.81682    0.03255   13.09179    0.12310   21.61115    0.03255   13.09179
   1.83183    0.03284   13.09675    0.12433   21.62960    0.03284   13.09675
   1.84685    0.03314   13.10164    0.12557   21.64835    0.03314   13.10164
   1.86186    0.03344   13.10676    0.12682   21.66740    0.03344   13.10676
   1.87688    0.03374   13.11172    0.12807   21.68644    0.03374   13.11172
   1.89189    0.03404   13.11676    0.12933   21.70571    0.03404   13.11676
   1.90691    0.03435   13.12203    0.13059   21.72535    0.03435   13.12203
   1.92192    0.03465   13.12721    0.13186   21.74492    0.03465   13.12721
   1.93694    0.03495   13.13248    0.13314   21.76485    0.03495   13.13248
   1.95195    0.03526   13.13766    0.13442   21.78486    0.03526   13.13766
   1.96697    0.03556   13.14285    0.13571   21.80517    0.03556   13.14285
   1.98198    0.03587   13.14826    0.13701   21.82563    0.03587   13.14826
   1.99700    0.03618   13.15375    0.13831   21.84623    0.03618   13.15375
   2.01201    0.03648   13.15916    0.13962   21.86713    0.03648   13.15916
   2.02703    0.03679   13.16464    0.14094   21.88818    0.03679   13.16464
   2.04204    0.03710   13.17020    0.14226   21.90945    0.03710   13.17020
   2.05706    0.03741   13.17583    0.14359   21.93094    0.03741   13.17583
   2.07207    0.03772   13.18146    0.14493   21.95251    0.03772   13.18146
   2.08709    0.03804   13.18717    0.14628   21.97444    0.03804   13.18717
   2.10210    0.03835   13.19280    0.14763   21.99645    0.03835   13.19280
   2.11712    0.03866   13.19858    0.14899   22.01861    0.03866   13.19858
   2.13213    0.03898   13.20444    0.15036   22.04107    0.03898   13.20444
   2.14715    0.03929   13.21037    0.15173   22.06382    0.03929   13.21037
   2.16216    0.03961   13.21630    0.15311   22.08672    0.03961   13.21630
   2.17718    0.03993   13.22223    0.15450   22.10970    0.03993   13.22223
   2.19219    0.04025   13.22823    0.15590   22.13304    0.04025   13.22823
   2.20721    0.04057   13.23431    0.15731   22.15646    0.04057   13.23431
   2.22222    0.04089   13.24038    0.15872   22.18018    0.04089   13.24038
   2.23724    0.04121   13.24661    0.16015   22.20427    0.04121   13.24661
   2.25225    0.04153   13.25284    0.16158   22.22828    0.04153   13.25284
   2.26727    0.04186   13.25913    0.16302   22.25266    0.04186   13.25913
   2.28228    0.04218   13.26536    0.16446   22.27712    0.04218   13.26536
   2.29730    0.04251   13.27173    0.16592   22.30202    0.04251   13.27173
   2.31231    0.04283   13.27811    0.16739   22.32707    0.04283   13.27811
   2.32733    0.04316   13.28463    0.16886   22.35219    0.04316   13.28463
   2.34234    0.04349   13.29100    0.17034   22.37761    0.04349   13.29100
   2.35736    0.04382   13.29767    0.17183   22.40333    0.04382   13.29767
   2.37237    0.04415   13.30419    0.17333   22.42927    0.04415   13.30419
   2.38739    0.04448   13.31086    0.17484   22.45536    0.04448   13.31086
   2.40240    0.04482   13.31761    0.17636   22.48167    0.04482   13.31761
   2.41742    0.04515   13.32443    0.17789   22.50827    0.04515   13.32443
   2.43243    0.04549   13.33125    0.17943   22.53510    0.04549   13.33125
   2.44745    0.04582   13.33806    0.18098   22.56215    0.04582   13.33806
   2.46246    0.04616   13.34488    0.18253   22.58943    0.04616   13.34488
   2.47748    0.04650   13.35177    0.18410   22.61685    0.04650   13.35177
   2.49249    0.04684   13.35889    0.18568   22.64457    0.04684   13.35889
   2.50751    0.04718   13.36586    0.18727   22.67258    0.04718   13.36586
   2.52252    0.04752   13.37297    0.18886   22.70074    0.04752   13.37297
   2.53754    0.04787   13.38023    0.19047   22.72928    0.04787   13.38023
   2.55255    0.04821   13.38735    0.19209   22.75803    0.04821   13.38735
   2.56757    0.04856   13.39461    0.19372   22.78686    0.04856   13.39461
   2.58258    0.04891   13.40202    0.19536   22.81599    0.04891   13.40202
   2.59760    0.04925   13.40936    0.19701   22.84556    0.04925   13.40936
   2.61261    0.04960   13.41677    0.19867   22.87513    0.04960   13.41677
   2.62763    0.04996   13.42418    0.20035   22.90515    0.04996   13.42418
   2.64264    0.05031   13.43174    0.20203   22.93524    0.05031   13.43174
   2.65766    0.05066   13.43930    0.20373   22.96569    0.05066   13.43930
   2.67267    0.05102   13.44693    0.20544   22.99638    0.05102   13.44693
   2.68769    0.05137   13.45464    0.20715   23.02736    0.05137   13.45464
   2.70270    0.05173   13.46235    0.20889   23.05863    0.05173   13.46235
   2.71772    0.05209   13.47013    0.21063   23.09006    0.05209   13.47013
   2.73273    0.05245   13.47799    0.21238   23.12178    0.05245   13.47799
   2.74775    0.05281   13.48599    0.21415   23.15372    0.05281   13.48599
   2.76276    0.05318   13.49377    0.21593   23.18596    0.05318   13.49377
   2.77778    0.05354   13.50193    0.21772   23.21857    0.05354   13.50193
   2.79279    0.05391   13.50993    0.21953   23.25133    0.05391   13.50993
   2.80781    0.05427   13.51801    0.22135   23.28445    0.05427   13.51801
   2.82282    0.05464   13.52631    0.22318   23.31773    0.05464   13.52631
   2.83784    0.05501   13.53439    0.22503   23.35138    0.05501   13.53439
   2.85285    0.05539   13.54284    0.22688   23.38524    0.05539   13.54284
   2.86787    0.05576   13.55106    0.22875   23.41949    0.05576   13.55106
   2.88288    0.05613   13.55951    0.23064   23.45387    0.05613   13.55951
   2.89790    0.05651   13.56789    0.23254   23.48871    0.05651   13.56789
   2.91291    0.05689   13.57648    0.23445   23.52361    0.05689   13.57648
   2.92793    0.05727   13.58501    0.23638   23.55904    0.05727   13.58501
   2.94294    0.05765   13.59360    0.23832   23.59469    0.05765   13.59360
   2.95796    0.05803   13.60227    0.24028   23.63048    0.05803   13.60227
   2.97297    0.05841   13.61109    0.24225   23.66672    0.05841   13.61109
   2.98799    0.05880   13.61984    0.24424   23.70326    0.05880   13.61984
   3.00300    0.05919   13.62866    0.24624   23.74002    0.05919   13.62866
   3.01802    0.05958   13.63763    0.24826   23.77708    0.05958   13.63763
   3.03303    0.05997   13.64667    0.25029   23.81443    0.05997   13.64667
   3.04805    0.06036   13.65563    0.25234   23.85208    0.06036   13.65563
   3.06306    0.06075   13.66475    0.25440   23.89017    0.06075   13.66475
   3.07808    0.06115   13.67387    0.25649   23.92856    0.06115   13.67387
   3.09309    0.06154   13.68306    0.25858   23.96717    0.06154   13.68306
   3.10811    0.06194   13.69232    0.26070   24.00608    0.06194   13.69232
   3.12312    0.06234   13.70173    0.26283   24.04529    0.06234   13.70173
   3.13814    0.06275   13.71100    0.26498   24.08494    0.06275   13.71100
   3.15315    0.06315   13.72041    0.26714   24.12481    0.06315   13.72041
   3.16817    0.06356   13.72997    0.26932   24.16505    0.06356   13.72997
   3.18318    0.06396   13.73960    0.27152   24.20567    0.06396   13.73960
   3.19820    0.06437   13.74916    0.27374   24.24650    0.06437   13.74916
   3.21321    0.06478   13.75887    0.27598   24.28771    0.06478   13.75887
   3.22823    0.06520   13.76873    0.27823   24.32929    0.06520   13.76873
   3.24324    0.06561   13.77844    0.28051   24.37123    0.06561   13.77844
   3.25826    0.06603   13.78830    0.28280   24.41355    0.06603   13.78830
   3.27327    0.06645   13.79830    0.28511   24.45609    0.06645   13.79830
   3.28829    0.06687   13.80831    0.28744   24.49900    0.06687   13.80831
   3.30330    0.06729   13.81846    0.28979   24.54229    0.06729   13.81846
   3.31832    0.06772   13.82846    0.29216   24.58587    0.06772   13.82846
   3.33333    0.06814   13.83869    0.29455   24.62989    0.06814   13.83869
   3.34835    0.06857   13.84899    0.29696   24.67443    0.06857   13.84899
   3.36336    0.06900   13.85929    0.29939   24.71919    0.06900   13.85929
   3.37838    0.06943   13.86960    0.30185   24.76433    0.06943   13.86960
   3.39339    0.06987   13.88020    0.30432   24.80976    0.06987   13.88020
   3.40841    0.07031   13.89065    0.30682   24.85556    0.07031   13.89065
   3.42342    0.07074   13.90117    0.30933   24.90166    0.07074   13.90117
   3.43844    0.07119   13.91191    0.31187   24.94835    0.07119   13.91191
   3.45345    0.07163   13.92266    0.31443   24.99533    0.07163   13.92266
   3.46847    0.07207   13.93333    0.31702   25.04262    0.07207   13.93333
   3.48348    0.07252   13.94423    0.31962   25.09042    0.07252   13.94423
   3.49850    0.07297   13.95512    0.32226   25.13852    0.07297   13.95512
   3.51351    0.07342   13.96609    0.32491   25.18699    0.07342   13.96609
   3.52853    0.07388   13.97713    0.32759   25.23598    0.07388   13.97713
   3.54354    0.07433   13.98825    0.33029   25.28534    0.07433   13.98825
   3.55856    0.07479   13.99944    0.33302   25.33514    0.07479   13.99944
   3.57357    0.07525   14.01078    0.33577   25.38516    0.07525   14.01078
   3.58859    0.07571   14.02205    0.33855   25.43586    0.07571   14.02205
   3.60360    0.07618   14.03346    0.34135   25.48670    0.07618   14.03346
   3.61862    0.07665   14.04495    0.34418   25.53821    0.07665   14.04495
   3.63363    0.07712   14.05651    0.34704   25.58994    0.07712   14.05651
   3.64865    0.07759   14.06814    0.34992   25.64226    0.07759   14.06814
   3.66366    0.07806   14.07971    0.35283   25.69488    0.07806   14.07971
   3.67868    0.07854   14.09156    0.35576   25.74809    0.07854   14.09156
   3.69369    0.07902   14.10335    0.35873   25.80168    0.07902   14.10335
   3.70871    0.07950   14.11520    0.36172   25.85563    0.07950   14.11520
   3.72372    0.07999   14.12721    0.36474   25.91025    0.07999   14.12721
   3.73874    0.08048   14.13929    0.36780   25.96509    0.08048   14.13929
   3.75375    0.08097   14.15145    0.37088   26.02053    0.08097   14.15145
   3.76877    0.08146   14.16360    0.37399   26.07634    0.08146   14.16360
   3.78378    0.08195   14.17575    0.37713   26.13259    0.08195   14.17575
   3.79880    0.08245   14.18821    0.38030   26.18943    0.08245   14.18821
   3.81381    0.08295   14.20051    0.38350   26.24664    0.08295   14.20051
   3.82883    0.08345   14.21296    0.38674   26.30445    0.08345   14.21296
   3.84384    0.08396   14.22563    0.39000   26.36271    0.08396   14.22563
   3.85886    0.08447   14.23823    0.39330   26.42148    0.08447   14.23823
   3.87387    0.08498   14.25098    0.39663   26.48069    0.08498   14.25098
   3.88889    0.08549   14.26373    0.40000   26.54043    0.08549   14.26373
   3.90390    0.08601   14.27655    0.40340   26.60068    0.08601   14.27655
   3.91892    0.08653   14.28959    0.40683   26.66138    0.08653   14.28959
   3.93393    0.08705   14.30264    0.41030   26.72274    0.08705   14.30264
   3.94895    0.08758   14.31568    0.41381   26.78441    0.08758   14.31568
   3.96396    0.08811   14.32887    0.41735   26.84673    0.08811   14.32887
   3.97898    0.08864   14.34221    0.42093   26.90958    0.08864   14.34221
   3.99399    0.08917   14.35555    0.42454   26.97302    0.08917   14.35555
   4.00901    0.08971   14.36897    0.42819   27.03683    0.08971   14.36897
   4.02402    0.09025   14.38245    0.43188   27.10138    0.09025   14.38245
   4.03904    0.09080   14.39609    0.43561   27.16645    0.09080   14.39609
   4.05405    0.09134   14.40965    0.43938   27.23197    0.09134   14.40965
   4.06907    0.09189   14.42344    0.44319   27.29823    0.09189   14.42344
   4.08408    0.09244   14.43722    0.44704   27.36500    0.09244   14.43722
   4.09910    0.09300   14.45123    0.45093   27.43229    0.09300   14.45123
   4.11411    0.09356   14.46516    0.45487   27.50026    0.09356   14.46516
   4.12913    0.09412   14.47917    0.45884   27.56866    0.09412   14.47917
   4.14414    0.09469   14.49340    0.46286   27.63773    0.09469   14.49340
   4.15916    0.09526   14.50770    0.46693   27.70740    0.09526   14.50770
   4.17417    0.09583   14.52201    0.47103   27.77781    0.09583   14.52201
   4.18919    0.09641   14.53639    0.47519   27.84866    0.09641   14.53639
   4.20420    0.09699   14.55099    0.47939   27.92018    0.09699   14.55099
   4.21922    0.09757   14.56544    0.48363   27.99244    0.09757   14.56544
   4.23423    0.09816   14.58026    0.48792   28.06521    0.09816   14.58026
   4.24925    0.09875   14.59501    0.49227   28.13873    0.09875   14.59501
   4.26426    0.09934   14.60990    0.49666   28.21292    0.09934   14.60990
   4.27928    0.09994   14.62480    0.50110   28.28762    0.09994   14.62480
   4.29429    0.10054   14.63985    0.50559   28.36307    0.10054   14.63985
   4.30931    0.10114   14.65496    0.51013   28.43941    0.10114   14.65496
   4.32432    0.10175   14.67031    0.51472   28.51626    0.10175   14.67031
   4.33934    0.10236   14.68550    0.51937   28.59378    0.10236   14.68550
   4.35435    0.10298   14.70099    0.52407   28.67197    0.10298   14.70099
   4.36937    0.10360   14.71648    0.52883   28.75090    0.10360   14.71648
   4.38438    0.10422   14.73212    0.53364   28.83057    0.10422   14.73212
   4.39940    0.10485   14.74768    0.53851   28.91091    0.10485   14.74768
   4.41441    0.10548   14.76347    0.54344   28.99191    0.10548   14.76347
   4.42943    0.10612   14.77940    0.54842   29.07381    0.10612   14.77940
   4.44444    0.10676   14.79533    0.55347   29.15637    0.10676   14.79533
   4.45946    0.10740   14.81142    0.55857   29.23975    0.10740   14.81142
   4.47447    0.10805   14.82757    0.56374   29.32379    0.10805   14.82757
   4.48949    0.10870   14.84380    0.56897   29.40872    0.10870   14.84380
   4.50450    0.10936   14.86018    0.57426   29.49439    0.10936   14.86018
   4.51952    0.11002   14.87663    0.57962   29.58096    0.11002   14.87663
   4.53453    0.11068   14.89331    0.58504   29.66826    0.11068   14.89331
   4.54955    0.11135   14.90991    0.59053   29.75624    0.11135   14.90991
   4.56456    0.11202   14.92673    0.59609   29.84517    0.11202   14.92673
   4.57958    0.11270   14.94348    0.60171   29.93499    0.11270   14.94348
   4.59459    0.11339   14.96046    0.60741   30.02563    0.11339   14.96046
   4.60961    0.11407   14.97750    0.61318   30.11709    0.11407   14.97750
   4.62462    0.11476   14.99470    0.61902   30.20936    0.11476   14.99470
   4.63964    0.11546   15.01196    0.62494   30.30259    0.11546   15.01196
   4.65465    0.11616   15.02931    0.63093   30.39671    0.11616   15.02931
   4.66967    0.11687   15.04680    0.63700   30.49165    0.11687   15.04680
   4.68468    0.11758   15.06444    0.64315   30.58770    0.11758   15.06444
   4.69970    0.11829   15.08207    0.64937   30.68442    0.11829   15.08207
   4.71472    0.11901   15.09986    0.65568   30.78239    0.11901   15.09986
   4.72973    0.11974   15.11780    0.66207   30.88111    0.11974   15.11780
   4.74474    0.12047   15.13588    0.66854   30.98087    0.12047   15.13588
   4.75976    0.12120   15.15396    0.67510   31.08151    0.12120   15.15396
   4.77478    0.12194   15.17219    0.68175   31.18319    0.12194   15.17219
   4.78979    0.12269   15.19057    0.68849   31.28591    0.12269   15.19057
   4.80480    0.12344   15.20910    0.69531   31.38960    0.12344   15.20910
   4.81982    0.12420   15.22763    0.70223   31.49424    0.12420   15.22763
   4.83483    0.12496   15.24638    0.70924   31.59992    0.12496   15.24638
   4.84985    0.12573   15.26521    0.71635   31.70680    0.12573   15.26521
   4.86487    0.12650   15.28410    0.72355   31.81463    0.12650   15.28410
   4.87988    0.12728   15.30308    0.73085   31.92365    0.12728   15.30308
   4.89490    0.12806   15.32235    0.73826   32.03371    0.12806   15.32235
   4.90991    0.12885   15.34154    0.74576   32.14480    0.12885   15.34154
   4.92492    0.12964   15.36089    0.75338   32.25723    0.12964   15.36089
   4.93994    0.13044   15.38045    0.76109   32.37054    0.13044   15.38045
   4.95496    0.13125   15.40009    0.76892   32.48512    0.13125   15.40009
   4.96997    0.13206   15.41988    0.77686   32.60111    0.13206   15.41988
   4.98499    0.13288   15.43974    0.78491   32.71820    0.13288   15.43974
   5.00000    0.13371   15.45968    0.79308   32.83634    0.13371   15.45968
   5.01502    0.13454   15.47991    0.80136   32.95574    0.13454   15.47991
   5.03003    0.13537   15.50014    0.80977   33.07639    0.13537   15.50014
   5.04505    0.13622   15.52052    0.81829   33.19831    0.13622   15.52052
   5.06006    0.13707   15.54090    0.82694   33.32155    0.13707   15.54090
   5.07508    0.13792   15.56158    0.83572   33.44606    0.13792   15.56158
   5.09009    0.13878   15.58241    0.84463   33.57198    0.13878   15.58241
   5.10511    0.13965   15.60316    0.85367   33.69908    0.13965   15.60316
   5.12012    0.14053   15.62428    0.86285   33.82774    0.14053   15.62428
   5.13514    0.14141   15.64540    0.87216   33.95758    0.14141   15.64540
   5.15015    0.14230   15.66667    0.88162   34.08913    0.14230   15.66667
   5.16517    0.14320   15.68816    0.89122   34.22187    0.14320   15.68816
   5.18018    0.14410   15.70973    0.90096   34.35601    0.14410   15.70973
   5.19520    0.14501   15.73137    0.91086   34.49171    0.14501   15.73137
   5.21021    0.14593   15.75316    0.92090   34.62882    0.14593   15.75316
   5.22522    0.14685   15.77517    0.93111   34.76749    0.14685   15.77517
   5.24024    0.14778   15.79726    0.94147   34.90786    0.14778   15.79726
   5.25526    0.14872   15.81949    0.95200   35.04948    0.14872   15.81949
   5.27027    0.14967   15.84187    0.96269   35.19281    0.14967   15.84187
   5.28529    0.15062   15.86448    0.97355   35.33793    0.15062   15.86448
   5.30030    0.15158   15.88716    0.98459   35.48459    0.15158   15.88716
   5.31532    0.15255   15.90998    0.99580   35.63282    0.15255   15.90998
   5.33033    0.15353   15.93288    1.00720   35.78275    0.15353   15.93288
   5.34535    0.15452   15.95601    1.01877   35.93438    0.15452   15.95601
   5.36036    0.15551   15.97928    1.03054   36.08787    0.15551   15.97928
   5.37538    0.15651   16.00270    1.04251   36.24298    0.15651   16.00270
   5.39039    0.15752   16.02619    1.05467   36.40010    0.15752   16.02619
   5.40541    0.15854   16.04991    1.06703   36.55893    0.15854   16.04991
   5.42042    0.15957   16.07377    1.07960   36.71960    0.15957   16.07377
   5.43544    0.16060   16.09771    1.09238   36.88220    0.16060   16.09771
   5.45045    0.16165   16.12194    1.10537   37.04659    0.16165   16.12194
   5.46547    0.16270   16.14625    1.11859   37.21304    0.16270   16.14625
   5.48048    0.16376   16.17078    1.13204   37.38165    0.16376   16.17078
   5.49550    0.16483   16.19546    1.14571   37.55218    0.16483   16.19546
   5.51051    0.16591   16.22014    1.15963   37.72457    0.16591   16.22014
   5.52553    0.16700   16.24512    1.17378   37.89917    0.16700   16.24512
   5.54054    0.16810   16.27024    1.18819   38.07593    0.16810   16.27024
   5.55556    0.16921   16.29566    1.20285   38.25506    0.16921   16.29566
   5.57057    0.17032   16.32108    1.21776   38.43604    0.17032   16.32108
   5.58559    0.17145   16.34680    1.23295   38.61947    0.17145   16.34680
   5.60060    0.17259   16.37259    1.24841   38.80512    0.17259   16.37259
   5.61562    0.17374   16.39860    1.26415   38.99314    0.17374   16.39860
   5.63063    0.17489   16.42469    1.28018   39.18354    0.17489   16.42469
   5.64565    0.17606   16.45100    1.29650   39.37631    0.17606   16.45100
   5.66066    0.17724   16.47753    1.31312   39.57145    0.17724   16.47753
   5.67568    0.17843   16.50422    1.33005   39.76925    0.17843   16.50422
   5.69069    0.17963   16.53112    1.34729   39.96950    0.17963   16.53112
   5.70571    0.18084   16.55810    1.36486   40.17242    0.18084   16.55810
   5.72072    0.18206   16.58537    1.38277   40.37786    0.18206   16.58537
   5.73574    0.18329   16.61279    1.40101   40.58619    0.18329   16.61279
   5.75075    0.18453   16.64028    1.41961   40.79718    0.18453   16.64028
   5.76577    0.18579   16.66800    1.43856   41.01078    0.18579   16.66800
   5.78078    0.18705   16.69602    1.45788   41.22756    0.18705   16.69602
   5.79580    0.18833   16.72411    1.47759   41.44693    0.18833   16.72411
   5.81081    0.18962   16.75257    1.49767   41.66949    0.18962   16.75257
   5.82583    0.19092   16.78110    1.51816   41.89501    0.19092   16.78110
   5.84084    0.19224   16.80985    1.53906   42.12357    0.19224   16.80985
   5.85586    0.19356   16.83868    1.56038   42.35547    0.19356   16.83868
   5.87087    0.19490   16.86781    1.58213   42.59026    0.19490   16.86781
   5.88589    0.19626   16.89723    1.60432   42.82853    0.19626   16.89723
   5.90090    0.19762   16.92680    1.62697   43.06999    0.19762   16.92680
   5.91592    0.19900   16.95652    1.65009   43.31501    0.19900   16.95652
   5.93093    0.20039   16.98646    1.67369   43.56350    0.20039   16.98646
   5.94595    0.20179   17.01663    1.69778   43.81534    0.20179   17.01663
   5.96096    0.20321   17.04694    1.72238   44.07110    0.20321   17.04694
   5.97598    0.20465   17.07762    1.74751   44.33027    0.20465   17.07762
   5.99099    0.20609   17.10830    1.77318   44.59351    0.20609   17.10830
   6.00601    0.20755   17.13936    1.79940   44.86047    0.20755   17.13936
   6.02102    0.20903   17.17063    1.82619   45.13128    0.20903   17.17063
   6.03604    0.21052   17.20205    1.85357   45.40630    0.21052   17.20205
   6.05105    0.21202   17.23378    1.88156   45.68526    0.21202   17.23378
   6.06607    0.21354   17.26572    1.91016   45.96852    0.21354   17.26572
   6.08108    0.21508   17.29788    1.93941   46.25615    0.21508   17.29788
   6.09610    0.21663   17.33020    1.96932   46.54808    0.21663   17.33020
   6.11111    0.21820   17.36288    1.99992   46.84438    0.21820   17.36288
   6.12613    0.21978   17.39564    2.03121   47.14542    0.21978   17.39564
   6.14114    0.22138   17.42876    2.06323   47.45121    0.22138   17.42876
   6.15616    0.22299   17.46204    2.09599   47.76181    0.22299   17.46204
   6.17117    0.22463   17.49562    2.12953   48.07738    0.22463   17.49562
   6.18619    0.22628   17.52948    2.16386   48.39785    0.22628   17.52948
   6.20120    0.22794   17.56350    2.19901   48.72350    0.22794   17.56350
   6.21622    0.22963   17.59789    2.23500   49.05448    0.22963   17.59789
   6.23123    0.23133   17.63250    2.27187   49.39088    0.23133   17.63250
   6.24625    0.23305   17.66718    2.30964   49.73276    0.23305   17.66718
   6.26126    0.23479   17.70231    2.34835   50.08027    0.23479   17.70231
   6.27628    0.23655   17.73759    2.38802   50.43364    0.23655   17.73759
   6.29129    0.23833   17.77316    2.42868   50.79293    0.23833   17.77316
   6.30631    0.24012   17.80919    2.47038   51.15853    0.24012   17.80919
   6.32132    0.24194   17.84535    2.51314   51.53020    0.24194   17.84535
   6.33634    0.24377   17.88159    2.55699   51.90825    0.24377   17.88159
   6.35135    0.24563   17.91835    2.60200   52.29304    0.24563   17.91835
   6.36637    0.24751   17.95533    2.64817   52.68443    0.24751   17.95533
   6.38138    0.24940   17.99261    2.69558   53.08278    0.24940   17.99261
   6.39640    0.25132   18.03019    2.74424   53.48840    0.25132   18.03019
   6.41141    0.25326   18.06806    2.79422   53.90105    0.25326   18.06806
   6.42643    0.25523   18.10608    2.84555   54.32150    0.25523   18.10608
   6.44144    0.25721   18.14447    2.89830   54.74957    0.25721   18.14447
   6.45646    0.25922   18.18323    2.95250   55.18542    0.25922   18.18323
   6.47147    0.26125   18.22221    3.00822   55.62936    0.26125   18.22221
   6.48649    0.26330   18.26164    3.06551   56.08189    0.26330   18.26164
   6.50150    0.26538   18.30122    3.12443   56.54286    0.26538   18.30122
   6.51652    0.26748   18.34124    3.18505   57.01251    0.26748   18.34124
   6.53153    0.26961   18.38148    3.24742   57.49150    0.26961   18.38148
   6.54655    0.27176   18.42209    3.31163   57.97982    0.27176   18.42209
   6.56156    0.27394   18.46293    3.37773   58.47771    0.27394   18.46293
   6.57658    0.27614   18.50421    3.44582   58.98546    0.27614   18.50421
   6.59159    0.27837   18.54579    3.51596   59.50335    0.27837   18.54579
   6.60661    0.28063   18.58766    3.58824   60.03170    0.28063   18.58766
   6.62162    0.28291   18.62990    3.66275   60.57109    0.28291   18.62990
   6.63664    0.28522   18.67252    3.73958   61.12130    0.28522   18.67252
   6.65165    0.28756   18.71550    3.81883   61.68322    0.28756   18.71550
   6.66667    0.28993   18.75879    3.90060   62.25699    0.28993   18.75879
   6.68168    0.29233   18.80236    3.98500   62.84307    0.29233   18.80236
   6.69670    0.29476   18.84631    4.07215   63.44153    0.29476   18.84631
   6.71171    0.29722   18.89093    4.16216   64.05325    0.29722   18.89093
   6.72673    0.29971   18.93562    4.25516   64.67817    0.29971   18.93562
   6.74174    0.30223   18.98075    4.35129   65.31724    0.30223   18.98075
   6.75676    0.30478   19.02633    4.45069   65.97061    0.30478   19.02633
   6.77177    0.30737   19.07213    4.55351   66.63866    0.30737   19.07213
   6.78679    0.30999   19.11845    4.65990   67.32212    0.30999   19.11845
   6.80180    0.31264   19.16514    4.77003   68.02145    0.31264   19.16514
   6.81682    0.31533   19.21213    4.88409   68.73730    0.31533   19.21213
   6.83183    0.31806   19.25964    5.00226   69.46989    0.31806   19.25964
   6.84685    0.32081   19.30751    5.12473   70.22036    0.32081   19.30751
   6.86186    0.32361   19.35576    5.25173   70.98891    0.32361   19.35576
   6.87688    0.32644   19.40445    5.38348   71.77634    0.32644   19.40445
   6.89189    0.32932   19.45374    5.52021   72.58344    0.32932   19.45374
   6.90691    0.33223   19.50324    5.66218   73.41082    0.33223   19.50324
   6.92192    0.33517   19.55327    5.80967   74.25933    0.33517   19.55327
   6.93694    0.33816   19.60366    5.96296   75.12971    0.33816   19.60366
   6.95195    0.34120   19.65466    6.12236   76.02291    0.34120   19.65466
   6.96697    0.34427   19.70601    6.28820   76.93968    0.34427   19.70601
   6.98198    0.34738   19.75782    6.46082   77.88113    0.34738   19.75782
   6.99700    0.35054   19.81007    6.64062   78.84799    0.35054   19.81007
   7.01201    0.35375   19.86291    6.82798   79.84170    0.35375   19.86291
   7.02703    0.35700   19.91620    7.02334   80.86296    0.35700   19.91620
   7.04204    0.36029   19.96985    7.22716   81.91320    0.36029   19.96985
   7.05706    0.36364   20.02411    7.43992   82.99346    0.36364   20.02411
   7.07207    0.36703   20.07887    7.66217   84.10522    0.36703   20.07887
   7.08709    0.37047   20.13409    7.89448   85.24960    0.37047   20.13409
   7.10210    0.37396   20.18989    8.13745   86.42835    0.37396   20.18989
   7.11712    0.37750   20.24615    8.39175   87.64297    0.37750   20.24615
   7.13213    0.38110   20.30299    8.65810   88.89473    0.38110   20.30299
   7.14715    0.38474   20.36035    8.93726   90.18569    0.38474   20.36035
   7.16216    0.38845   20.41823    9.23007   91.51772    0.38845   20.41823
   7.17718    0.39221   20.47678    9.53742   92.89257    0.39221   20.47678
   7.19219    0.39602   20.53585    9.86030   94.31242    0.39602   20.53585
   7.20721    0.39990   20.59544   10.19977   95.77954    0.39990   20.59544
   7.22222    0.40383   20.65569   10.55697   97.29618    0.40383   20.65569
   7.23724    0.40783   20.71646   10.93317   98.86491    0.40783   20.71646
    7.2523     0.4119    20.7778    11.3297   100.4883     0.4119    20.7778
    7.2673     0.4160    20.8399    11.7481   102.1691     0.4160    20.8399
    7.2823     0.4202    20.9025    12.1900   103.9109     0.4202    20.9025
    7.2973     0.4244    20.9658    12.6571   105.7168     0.4244    20.9658
    7.3123     0.4288    21.0297    13.1514   107.5899     0.4288    21.0297
    7.3273     0.4332    21.0941    13.6751   109.5341     0.4332    21.0941
    7.3423     0.4376    21.1594    14.2305   111.5537     0.4376    21.1594
    7.3574     0.4422    21.2253    14.8201   113.6531     0.4422    21.2253
    7.3724     0.4468    21.2918    15.4470   115.8368     0.4468    21.2918
    7.3874     0.4515    21.3591    16.1141   118.1096     0.4515    21.3591
    7.4024     0.4562    21.4270    16.8251   120.4778     0.4562    21.4270
    7.4174     0.4611    21.4958    17.5839   122.9462     0.4611    21.4958
    7.4324     0.4660    21.5652    18.3947   125.5221     0.4660    21.5652
    7.4474     0.4710    21.6353    19.2624   128.2118     0.4710    21.6353
    7.4625     0.4761    21.7062    20.1925   131.0233     0.4761    21.7062
    7.4775     0.4813    21.7779    21.1910   133.9644     0.4813    21.7779
    7.4925     0.4866    21.8504    22.2646   137.0439     0.4866    21.8504
    7.5075     0.4920    21.9237    23.4211   140.2715     0.4920    21.9237
    7.5225     0.4974    21.9976    24.6691   143.6580     0.4974    21.9976
    7.5375     0.5030    22.0726    26.0184   147.2147     0.5030    22.0726
    7.5526     0.5087    22.1482    27.4801   150.9538     0.5087    22.1482
    7.5676     0.5144    22.2249    29.0670   154.8896     0.5144    22.2249
    7.5826     0.5203    22.3025    30.7934   159.0365     0.5203    22.3025
    7.5976     0.5263    22.3808    32.6761   163.4113     0.5263    22.3808
    7.6126     0.5324    22.4600    34.7340   168.0321     0.5324    22.4600
    7.6276     0.5386    22.5401    36.9893   172.9184     0.5386    22.5401
    7.6426     0.5449    22.6211    39.4677   178.0921     0.5449    22.6211
    7.6577     0.5514    22.7032    42.1987   183.5773     0.5514    22.7032
    7.6727     0.5580    22.7861    45.2173   189.3997     0.5580    22.7861
    7.6877     0.5647    22.8702    48.5642   195.5884     0.5647    22.8702
    7.7027     0.5715    22.9551    52.2876   202.1745     0.5715    22.9551
    7.7177     0.5785    23.0412    56.4445   209.1922     0.5785    23.0412
    7.7327     0.5856    23.1283    61.1027   216.6787     0.5856    23.1283
    7.7477     0.5928    23.2164    66.3432   224.6734     0.5928    23.2164
    7.7628     0.6002    23.3056    72.2636   233.2184     0.6002    23.3056
    7.7778     0.6078    23.3959    78.9815   242.3576     0.6078    23.3959
    7.7928     0.6155    23.4874    86.6398   252.1349     0.6155    23.4874
    7.8078     0.6233    23.5802    95.4128   262.5929     0.6233    23.5802
    7.8228     0.6314    23.6738   105.5146   273.7690     0.6314    23.6738
    7.8378     0.6396    23.7690   117.2070   285.6874     0.6396    23.7690
    7.8529     0.6479    23.8652   130.8149   298.3531     0.6479    23.8652
    7.8679     0.6565    23.9627   146.7395   311.7350     0.6565    23.9627
    7.8829     0.6652    24.0617   165.4768   325.7430     0.6652    24.0617
    7.8979     0.6742    24.1617   187.6370   340.1919     0.6742    24.1617
    7.9129     0.6833    24.2632   213.9634   354.7457     0.6833    24.2632
    7.9279     0.6926    24.3660   245.3433   368.8339     0.6926    24.3660
    7.9429     0.7022    24.4702   282.7955   381.5272     0.7022    24.4702
    7.9580     0.7119    24.5759   327.4057   391.3628     0.7119    24.5759
    7.9730     0.7219    24.6830   380.1559   396.1197     0.7219    24.6830
    7.9880     0.7322    24.7917   441.5624   392.5811     0.7322    24.7917
    8.0030     0.7426    24.9018   511.0173   376.4095     0.7426    24.9018
    8.0180     0.7533    25.0136   585.7923   342.4206     0.7533    25.0136
    8.0330     0.7643    25.1268   659.9275   285.7079     0.7643    25.1268
    8.0480     0.7755    25.2418   723.8146   203.9560     0.7755    25.2418
    8.0631     0.7870    25.3587   765.7873   100.3708     0.7870    25.3587
    8.0781     0.7988    25.4771   776.3079   -14.8969     0.7988    25.4771
    8.0931     0.8109    25.5972   752.7386  -127.2121     0.8109    25.5972
    8.1081     0.8233    25.7192   700.8497  -223.1085     0.8233    25.7192
    8.1231     0.8360    25.8430   631.6250  -295.1052     0.8360    25.8430
    8.1381     0.8490    25.9688   556.2936  -342.4666     0.8490    25.9688
    8.1532     0.8624    26.0965   483.0886  -368.8637     0.8624    26.0965
    8.1682     0.8761    26.2262   416.5953  -379.5199     0.8761    26.2262
    8.1832     0.8902    26.3580   358.5780  -379.3639     0.8902    26.3580
    8.1982     0.9047    26.4919   309.1050  -372.2988     0.9047    26.4919
    8.2132     0.9195    26.6279   267.4192  -361.1270     0.9195    26.6279
    8.2282     0.9348    26.7661   232.4675  -347.7448     0.9348    26.7661
    8.2432     0.9505    26.9068   203.1774  -333.3823     0.9505    26.9068
    8.2583     0.9666    27.0496   178.5774  -318.8114     0.9666    27.0496
    8.2733     0.9833    27.1950   157.8369  -304.4984     0.9833    27.1950
    8.2883     1.0003    27.3428   140.2662  -290.7123     1.0003    27.3428
    8.3033     1.0179    27.4931   125.3022  -277.5960     1.0179    27.4931
    8.3183     1.0360    27.6462   112.4883  -265.2132     1.0360    27.6462
    8.3333     1.0547    27.8017   101.4550  -253.5786     1.0547    27.8017
    8.3483     1.0739    27.9604    91.9038  -242.6783     1.0739    27.9604
    8.3634     1.0937    28.1218    83.5918  -232.4812     1.0937    28.1218
    8.3784     1.1141    28.2861    76.3228  -222.9483     1.1141    28.2861
    8.3934     1.1352    28.4534    69.9352  -214.0365     1.1352    28.4534
    8.4084     1.1569    28.6240    64.2964  -205.7004     1.1569    28.6240
    8.4234     1.1794    28.7977    59.2974  -197.8981     1.1794    28.7977
    8.4384     1.2025    28.9748    54.8474  -190.5873     1.2025    28.9748
    8.4535     1.2265    29.1555    50.8709  -183.7300     1.2265    29.1555
    8.4685     1.2512    29.3396    47.3045  -177.2901     1.2512    29.3396
    8.4835     1.2769    29.5275    44.0949  -171.2344     1.2769    29.5275
    8.4985     1.3034    29.7193    41.1970  -165.5328     1.3034    29.7193
    8.5135     1.3308    29.9147    38.5724  -160.1575     1.3308    29.9147
    8.5285     1.3592    30.1145    36.1886  -155.0835     1.3592    30.1145
    8.5435     1.3886    30.3183    34.0173  -150.2876     1.3886    30.3183
    8.5586     1.4192    30.5266    32.0345  -145.7487     1.4192    30.5266
    8.5736     1.4508    30.7394    30.2193  -141.4478     1.4508    30.7394
    8.5886     1.4837    30.9571    28.5537  -137.3674     1.4837    30.9571
    8.6036     1.5178    31.1793    27.0219  -133.4918     1.5178    31.1793
    8.6186     1.5533    31.4069    25.6100  -129.8062     1.5533    31.4069
    8.6336     1.5902    31.6397    24.3063  -126.2977     1.5902    31.6397
    8.6486     1.6286    31.8778    23.1000  -122.9539     1.6286    31.8778
    8.6637     1.6686    32.1216    21.9818  -119.7640     1.6686    32.1216
    8.6787     1.7102    32.3714    20.9435  -116.7177     1.7102    32.3714
    8.6937     1.7536    32.6273    19.9778  -113.8054     1.7536    32.6273
    8.7087     1.7989    32.8896    19.0782  -111.0190     1.7989    32.8896
    8.7237     1.8461    33.1586    18.2388  -108.3502     1.8461    33.1586
    8.7387     1.8955    33.4346    17.4546  -105.7919     1.8955    33.4346
    8.7538     1.9472    33.7178    16.7208  -103.3373     1.9472    33.7178
    8.7688     2.0012    34.0086    16.0334  -100.9802     2.0012    34.0086
   8.78378    2.05786   34.30725   15.38864  -98.71506    2.05786   34.30725
   8.79880    2.11720   34.61430   14.78309  -96.53601    2.11720   34.61430
   8.81381    2.17947   34.93009   14.21377  -94.43893    2.17947   34.93009
   8.82883    2.24487   35.25485   13.67792  -92.41847    2.24487   35.25485
   8.84384    2.31362   35.58917   13.17305  -90.47066    2.31362   35.58917
   8.85886    2.38596   35.93357   12.69690  -88.59161    2.38596   35.93357
   8.87387    2.46216   36.28835   12.24742  -86.77764    2.46216   36.28835
   8.88889    2.54252   36.65424   11.82273  -85.02489    2.54252   36.65424
   8.90390    2.62734   37.03184   11.42117  -83.33067    2.62734   37.03184
   8.91892    2.71700   37.42152   11.04115  -81.69160    2.71700   37.42152
   8.93393    2.81187   37.82425   10.68126  -80.10501    2.81187   37.82425
   8.94895    2.91239   38.24061   10.34020  -78.56837    2.91239   38.24061
   8.96396    3.01903   38.67113   10.01678  -77.07871    3.01903   38.67113
   8.97898    3.13232   39.11706    9.70989  -75.63412    3.13232   39.11706
   8.99399    3.25285   39.57908    9.41856  -74.23221    3.25285   39.57908
   9.00901    3.38127   40.05806    9.14184  -72.87106    3.38127   40.05806
   9.02402    3.51831   40.55529    8.87890  -71.54845    3.51831   40.55529
   9.03904    3.66478   41.07177    8.62897  -70.26260    3.66478   41.07177
   9.05405    3.82161   41.60872    8.39131  -69.01189    3.82161   41.60872
   9.06907    3.98981   42.16745    8.16529  -67.79451    3.98981   42.16745
   9.08408    4.17056   42.74945    7.95030  -66.60902    4.17056   42.74945
   9.09910    4.36517   43.35629    7.74577  -65.45361    4.36517   43.35629
   9.11411    4.57513   43.98972    7.55122  -64.32725    4.57513   43.98972
   9.12913    4.80214   44.65162    7.36617  -63.22846    4.80214   44.65162
   9.14414    5.04814   45.34398    7.19019  -62.15561    5.04814   45.34398
   9.15916    5.31537   46.06909    7.02288  -61.10766    5.31537   46.06909
   9.17417    5.60635   46.82941    6.86393  -60.08358    5.60635   46.82941
   9.18919    5.92406   47.62775    6.71300  -59.08217    5.92406   47.62775
   9.20420    6.27191   48.46685    6.56981  -58.10226    6.27191   48.46685
   9.21922    6.65388   49.35012    6.43411  -57.14251    6.65388   49.35012
   9.23423    7.07463   50.28112    6.30568  -56.20232    7.07463   50.28112
   9.24925    7.53959   51.26377    6.18433  -55.28051    7.53959   51.26377
   9.26426    8.05524   52.30193    6.06989  -54.37605    8.05524   52.30193
   9.27928    8.62914   53.40072    5.96226  -53.48803    8.62914   53.40072
   9.29429    9.27038   54.56458    5.86133  -52.61558    9.27038   54.56458
   9.30931    9.98981   55.79937    5.76703  -51.75751    9.98981   55.79937
   9.32432   10.80044   57.11049    5.67936  -50.91322   10.80044   57.11049
   9.33934   11.71804   58.50380    5.59830  -50.08168   11.71804   58.50380
   9.35435   12.76171   59.98501    5.52393  -49.26200   12.76171   59.98501
   9.36937   13.95475   61.55975    5.45633  -48.45328   13.95475   61.55975
   9.38438   15.32582   63.23298    5.39564  -47.65465   15.32582   63.23298
   9.39940   16.91008   65.00767    5.34206  -46.86521   16.91007   65.00767
   9.41442   18.75110   66.88404    5.29585  -46.08377   18.75110   66.88404
   9.42943   20.90241   68.85729    5.25733  -45.30974   20.90241   68.85729
   9.44444   23.43051   70.91420    5.22691  -44.54193   23.43051   70.91420
   9.45946   26.41690   73.02863    5.20507  -43.77946   26.41690   73.02863
   9.47447   29.96074   75.15327    5.19242  -43.02130   29.96074   75.15327
   9.48949   34.17957   77.20818    5.18968  -42.26624   34.17957   77.20818
   9.50451   39.20728   79.06403    5.19773  -41.51311   39.20728   79.06403
   9.51952   45.18374   80.51819    5.21762  -40.76087   45.18374   80.51819
   9.53453   52.22979   81.26472    5.25060  -40.00819   52.22979   81.26472
   9.54955   60.39469   80.86526    5.29819  -39.25387   60.39469   80.86526
   9.56456   69.56373   78.73757    5.36221  -38.49630   69.56373   78.73757
   9.57958   79.32420   74.20567    5.44487  -37.73427   79.32420   74.20567
   9.59459   88.82669   66.66927    5.54884  -36.96603   88.82669   66.66927
   9.60961   96.76354   55.92566    5.67737  -36.19022   96.76354   55.92566
    9.6246   101.6321    42.5392     5.8344   -35.4054   101.6321    42.5392
    9.6396   102.3167    27.9556     6.0248   -34.6098   102.3167    27.9556
   9.65465   98.66640   14.09334    6.25450  -33.80232   98.66640   14.09334
   9.66967   91.58191    2.58837    6.53087  -32.98190   91.58191    2.58837
   9.68469   82.52807   -5.75008    6.86302  -32.14814   82.52807   -5.75008
   9.69970   72.90796  -10.94891    7.26217  -31.30162   72.90796  -10.94891
   9.71472   63.70132  -13.53943    7.74226  -30.44474   63.70132  -13.53943
   9.72973   55.42772  -14.19962    8.32046  -29.58266   55.42772  -14.19962
   9.74475   48.26836  -13.54506    9.01765  -28.72444   48.26836  -13.54506
   9.75976   42.20820  -12.05273    9.85879  -27.88594   42.20820  -12.05273
   9.77478   37.14003  -10.06074   10.87252  -27.09338   37.14003  -10.06074
   9.78979   32.92701   -7.79543   12.08932  -26.38783   32.92701   -7.79543
   9.80480   29.43342   -5.40219   13.53668  -25.83169   29.43342   -5.40219
   9.81982   26.53827   -2.97131   15.22880  -25.51553   26.53827   -2.97131
   9.83484   24.13905   -0.55599   17.14802  -25.56177   24.13905   -0.55599
   9.84985   22.15143    1.81442   19.21662  -26.11569   22.15145    1.81427
   9.86487   20.50724    4.12531   21.26580  -27.31468   20.50724    4.12531
   9.87988   19.15178    6.37225   23.02429  -29.22203   19.15178    6.37225
   9.89489   18.04163    8.55612   24.16412  -31.74511   18.04163    8.55612
   9.90991   17.14247   10.68203   24.41901  -34.59606   17.14246   10.68203
   9.92492   16.42741   12.75695   23.71799  -37.36238   16.42741   12.75695
   9.93994   15.87572   14.78940   22.22583  -39.66757   15.87572   14.78940
   9.95496   15.47176   16.78851   20.25207  -41.30338   15.47176   16.78851
   9.96997   15.20426   18.76353   18.11188  -42.25097   15.20425   18.76353
   9.98499   15.06569   20.72402   16.03516  -42.61457   15.06569   20.72402
  10.00000   15.05199   22.67999   14.14958  -42.54105   15.05199   22.67999
  10.01502   15.16233   24.64115   12.50392  -42.16812   15.16233   24.64115
  10.03003   15.39907   26.61743   11.09969  -41.60487   15.39906   26.61743
  10.04505   15.76787   28.61839    9.91546  -40.92970   15.76787   28.61839
  10.06006   16.27797   30.65396    8.92164  -40.19524   16.27796   30.65396
  10.07508   16.94259   32.73347    8.08814  -39.43560   16.94259   32.73347
  10.09009   17.77961   34.86613    7.38778  -38.67224   17.77961   34.86613
  10.10511   18.81239   37.05985    6.79732  -37.91778   18.81238   37.05985
  10.12012   20.07093   39.32154    6.29750  -37.17962   20.07091   39.32154
  10.13514   21.59336   41.65541    5.87262  -36.46132   21.59333   41.65541
  10.15015   23.42777   44.06116    5.50997  -35.76467   23.42776   44.06116
  10.16516   25.63450   46.53156    5.19931  -35.08950   25.63450   46.53156
  10.18018   28.28859   49.04826    4.93238  -34.43554   28.28859   49.04826
  10.19520   31.48246   51.57526    4.70253  -33.80114   31.48245   51.57526
  10.21021   35.32789   54.04906    4.50437  -33.18512   35.32788   54.04906
  10.22523   39.95494   56.36285    4.33358  -32.58584   39.95491   56.36292
  10.24024   45.50698   58.34735    4.18663  -32.00184   45.50692   58.34735
  10.25526   52.12259   59.74044    4.06069  -31.43132   52.12257   59.74059
  10.27027   59.89642   60.15658    3.95345  -30.87296   59.89634   60.15658
  10.28529   68.80444   59.06120    3.86311  -30.32512   68.80441   59.06120
  10.30030   78.58356   55.78595    3.78820  -29.78647   78.58358   55.78595
  10.31532   88.58044   49.63834    3.72761  -29.25538   88.58038   49.63834
  10.33033   97.65015   40.16175    3.68051  -28.73052   97.65009   40.16190
   10.3453   104.2692    27.5236     3.6463   -28.2107   104.2692    27.5237
   10.3604   106.9990    12.8080     3.6247   -27.6943   106.9990    12.8082
   10.3754   105.1535    -2.1384     3.6155   -27.1802   105.1536    -2.1383
  10.39039   99.18113  -15.37875    3.61889  -26.66723   99.18124  -15.37875
  10.40541   90.41041  -25.62759    3.63510  -26.15364   90.41052  -25.62759
  10.42042   80.39759  -32.53070    3.66471  -25.63856   80.39773  -32.53070
  10.43544   70.39103  -36.44250    3.70851  -25.12021   70.39111  -36.44250
  10.45045   61.14734  -38.03251    3.76755  -24.59728   61.14744  -38.03251
  10.46547   53.00161  -37.98877    3.84322  -24.06826   53.00172  -37.98877
  10.48048   46.01735  -36.87872    3.93728  -23.53154   46.01741  -36.87887
  10.49550   40.11796  -35.12078    4.05189  -22.98578   40.11800  -35.12078
  10.51051   35.16883  -33.00146    4.18977  -22.42905   35.16889  -33.00161
  10.52553   31.02470  -30.70932    4.35423  -21.85987   31.02473  -30.70932
  10.54054   27.55031  -28.36307    4.54940  -21.27645   27.55035  -28.36322
  10.55556   24.62851  -26.03565    4.78034  -20.67718   24.62851  -26.03580
  10.57057   22.16134  -23.76915    5.05330  -20.06042   22.16136  -23.76929
  10.58559   20.06853  -21.58684    5.37603  -19.42528   20.06856  -21.58698
  10.60060   18.28492  -19.49924    5.75811  -18.77086   18.28493  -19.49939
  10.61562   16.75779  -17.50947    6.21146  -18.09793   16.75780  -17.50947
  10.63063   15.44458  -15.61605    6.75082  -17.40838   15.44458  -15.61605
  10.64565   14.31082  -13.81483    7.39440  -16.70669   14.31083  -13.81498
  10.66066   13.32859  -12.10031    8.16449  -16.00233   13.32858  -12.10031
  10.67568   12.47511  -10.46599    9.08791  -15.31056   12.47511  -10.46614
  10.69069   11.73178   -8.90563   10.19582  -14.65749   11.73178   -8.90563
  10.70571   11.08335   -7.41242   11.52234  -14.08386   11.08335   -7.41256
  10.72072   10.51726   -5.98027   13.10013  -13.65297   10.51725   -5.98042
  10.73574   10.02315   -4.60311   14.95092  -13.45746   10.02314   -4.60311
  10.75075    9.59242   -3.27502   17.06753  -13.62510    9.59241   -3.27517
  10.76577    9.21804   -1.99095   19.38446  -14.31523    9.21803   -1.99110
  10.78078    8.89413   -0.74601   21.74284  -15.69031    8.89411   -0.74616
  10.79580    8.61586    0.46483   23.86740  -17.85424    8.61583    0.46468
  10.81081    8.37926    1.64581   25.39627  -20.75885    8.37924    1.64581
  10.82583    8.18115    2.80152   25.99414  -24.13882    8.18112    2.80152
  10.84084    8.01898    3.93544   25.50970  -27.55302    8.01894    3.93544
  10.85586    7.89079    5.05194   24.06019  -30.54761    7.89075    5.05179
  10.87087    7.79516    6.15436   21.96521  -32.82789    7.79511    6.15436
  10.88589    7.73116    7.24648   19.59138  -34.31903    7.73111    7.24633
  10.90090    7.69833    8.33170   17.22897  -35.11025    7.69828    8.33170
  10.91592    7.69670    9.41382   15.05183  -35.36105    7.69664    9.41367
  10.93093    7.72675   10.49593   13.13566  -35.23283    7.72668   10.49578
  10.94595    7.78948   11.58205   11.49359  -34.85857    7.78940   11.58190
  10.96096    7.88641   12.67520   10.10648  -34.33533    7.88631   12.67505
  10.97598    8.01967   13.77940    8.94239  -33.72984    8.01956   13.77933
  10.99099    8.19205   14.89835    7.96708  -33.08566    8.19193   14.89820
  11.00601    8.40715   16.03590    7.14877  -32.43036    8.40700   16.03575
  11.02102    8.66943   17.19598    6.46011  -31.78068    8.66927   17.19583
  11.03604    8.98449   18.38296    5.87818  -31.14628    8.98430   18.38281
  11.05105    9.35924   19.60077    5.38423  -30.53278    9.35901   19.60063
  11.06607    9.80216   20.85431    4.96306  -29.94211    9.80189   20.85401
  11.08108   10.32373   22.14750    4.60242  -29.37515   10.32343   22.14735
  11.09610   10.93688   23.48470    4.29242  -28.83146   10.93651   23.48441
  11.11111   11.65755   24.86964    4.02509  -28.31001   11.65712   24.86934
  11.12613   12.50548   26.30534    3.79398  -27.80916   12.50496   26.30505
  11.14114   13.50513   27.79285    3.59388  -27.32772   13.50450   27.79255
  11.15616   14.68685   29.33120    3.42057  -26.86378   14.68609   29.33090
  11.17117   16.08823   30.91439    3.27065  -26.41584   16.08731   30.91409
  11.18619   17.75566   32.52996    3.14133  -25.98229   17.75455   32.52981
  11.20120   19.74579   34.15391    3.03043  -25.56177   19.74446   34.15376
  11.21622   22.12657   35.74510    2.93618  -25.15253   22.12490   35.74510
  11.23123   24.97647   37.23550    2.85723  -24.75321   24.97448   37.23565
  11.24625   28.38028   38.51720    2.79256  -24.36264   28.37789   38.51764
  11.26126   32.41702   39.42566    2.74148  -23.97933   32.41419   39.42663
  11.27628   37.13417   39.72004    2.70357  -23.60210   37.13094   39.72189
  11.29129   42.49848   39.07230    2.67872  -23.22976   42.49503   39.07534
  11.30631   48.32246   37.08245    2.66709  -22.86127   48.31911   37.08676
  11.32132   54.17525   33.35609    2.66916  -22.49530   54.17263   33.36217
  11.33634   59.33795   27.67412    2.68574  -22.13097   59.33697   27.68190
  11.35135   62.90332   20.22332    2.71801  -21.76708   62.90482   20.23221
  11.36637   64.08133   11.73376    2.76763  -21.40274   64.08583   11.74243
  11.38138   62.58347    3.32964    2.83675  -21.03707   62.59068    3.33676
  11.39640   58.78587   -3.89801    2.92819  -20.66948   58.79488   -3.89327
  11.41141   53.51884   -9.29324    3.04554  -20.29965   53.52859   -9.29116
  11.42643   47.67783  -12.73827    3.19338  -19.92776   47.68724  -12.73857
  11.44144   41.94333  -14.48984    3.37741  -19.55482   41.95195  -14.49192
  11.45646   36.70832  -14.95038    3.60476  -19.18308   36.71581  -14.95393
  11.47147   32.13396  -14.51311    3.88409  -18.81696   32.14030  -14.51756
  11.48649   28.23830  -13.49377    4.22570  -18.46345   28.24362  -13.49866
  11.50150   24.96776  -12.12107    4.64122  -18.13469   24.97212  -12.12625
  11.51652   22.24168  -10.55063    5.14253  -17.84965   22.24523  -10.55581
  11.53153   19.97593   -8.88325    5.73930  -17.63635   19.97881   -8.88858
  11.54655   18.09393   -7.18237    6.43374  -17.53512   18.09622   -7.18785
  11.56156   16.52964   -5.48609    7.21209  -17.59796   16.53144   -5.49142
  11.57658   15.22841   -3.81575    8.03237  -17.88404   15.22977   -3.82108
  11.59159   14.14569   -2.18246    8.81328  -18.44106   14.14666   -2.18779
  11.60661   13.24556   -0.59067    9.43571  -19.27661   13.24620   -0.59601
  11.62162   12.49929    0.95946    9.77113  -20.32767   12.49962    0.95412
  11.63664   11.88389    2.47016    9.73498  -21.45714   11.88393    2.46468
  11.65165   11.38110    3.94507    9.33178  -22.49827   11.38086    3.93959
  11.66667   10.97643    5.38922    8.65254  -23.31973   10.97592    5.38381
  11.68168   10.65853    6.80781    7.82683  -23.86579   10.65774    6.80210
  11.69670   10.41855    8.20601    6.97082  -24.14964   10.41748    8.20030
  11.71171   10.24980    9.58939    6.16175  -24.22108   10.24844    9.58361
  11.72673   10.14741   10.96373    5.43830  -24.13897   10.14574   10.95772
  11.74174   10.10809   12.33444    4.81215  -23.95473   10.10608   12.32814
  11.75676   10.12998   13.70707    4.27990  -23.70734   10.12759   13.70055
  11.77177   10.21257   15.08741    3.83139  -23.42423   10.20976   15.08081
  11.78679   10.35666   16.48117    3.45455  -23.12333   10.35338   16.47405
  11.80180   10.56438   17.89404    3.13767  -22.81666   10.56056   17.88663
  11.81682   10.83923   19.33190    2.87046  -22.51102   10.83479   19.32419
  11.83183   11.18628   20.80087    2.64419  -22.21071   11.18111   20.79258
  11.84685   11.61230   22.30691    2.45168  -21.91827   11.60629   22.29846
  11.86186   12.12610   23.85667    2.28711  -21.63457   12.11908   23.84756
  11.87688   12.73884   25.45646    2.14575  -21.36020   12.73064   25.44675
  11.89189   13.46459   27.11213    2.02379  -21.09503   13.45496   27.10198
  11.90691   14.32088   28.83027    1.91817  -20.83860   14.30954   28.81953
  11.92192   15.32959   30.61601    1.82641  -20.59062   15.31619   30.60445
  11.93694   16.51795   32.47349    1.74648  -20.35035   16.50204   32.46148
  11.95195   17.91986   34.40463    1.67678  -20.11719   17.90088   34.39218
  11.96697   19.57747   36.40767    1.61598  -19.89085   19.55473   36.39484
  11.98198   21.54307   38.47436    1.56301  -19.67029   21.51571   38.46154
  11.99700   23.88126   40.58664    1.51700  -19.45522   23.84822   40.57426
  12.01201   26.67092   42.71062    1.47728  -19.24489   26.63091   42.69987
  12.02703   30.00646   44.78791    1.44329  -19.03900   29.95802   44.78028
  12.04204   33.99676   46.72232    1.41462  -18.83668   33.93826   46.71987
  12.05706   38.75869   48.36146    1.39097  -18.63791   38.68860   48.36776
  12.07207   44.39992   49.47300    1.37212  -18.44181   44.31734   49.49323
  12.08709   50.98034   49.71868    1.35798  -18.24823   50.88599   49.76003
  12.10210   58.44536   48.63960    1.34854  -18.05627   58.34319   48.71112
  12.11712   66.51906   45.68185    1.34388  -17.86595   66.41859   45.79310
  12.13213   74.58425   40.30982    1.34419  -17.67667   74.50223   40.46731
  12.14715   81.62871   32.24848    1.34978  -17.48798   81.58825   32.45014
  12.16216   86.39897   21.79932    1.36108  -17.29959   86.42326   22.02803
  12.17718   87.83727   10.01279    1.37869  -17.11075   87.93834   10.23869
  12.19219   85.60336   -1.54643    1.40337  -16.92147   85.77441   -1.35685
  12.20721   80.26812  -11.40084    1.43612  -16.73115   80.48578  -11.27144
  12.22222   72.99657  -18.69512    1.47819  -16.53979   73.23199  -18.63242
  12.23724   65.01110  -23.30802    1.53118  -16.34724   65.24054  -23.30565
  12.25225   57.22440  -25.61380    1.59708  -16.15322   57.43320  -25.65812
  12.26727   50.15459  -26.16964    1.67841  -15.95860   50.33634  -26.24717
  12.28228   44.00845  -25.51064    1.77825  -15.76398   44.16228  -25.60995
  12.29730   38.80327  -24.06278    1.90038  -15.57129   38.93099  -24.17528
  12.31231   34.46272  -22.13260    2.04932  -15.38364   34.56736  -22.25281
  12.32733   30.87617  -19.92761    2.23018  -15.20592   30.96088  -20.05167
  12.34234   27.93052  -17.58181    2.44826  -15.04628   27.99812  -17.70750
  12.35736   25.52276  -15.17805    2.70811  -14.91629   25.57572  -15.30419
  12.37237   23.56566  -12.76525    3.01137  -14.83313   23.60595  -12.89124
  12.38739   21.98780  -10.37009    3.35317  -14.81949   22.01692  -10.49608
  12.40240   20.73214   -8.00561    3.71690  -14.90117   20.75124   -8.13130
  12.41742   19.75398   -5.67463    4.06899  -15.10097   19.76388   -5.80062
  12.43243   19.01916   -3.37537    4.35843  -15.42544   19.02036   -3.50181
  12.44745   18.50233   -1.10175    4.52753  -15.85128   18.49507   -1.22908
  12.46246   18.18571    1.15437    4.53474  -16.32131   18.16996    1.02564
  12.47748   18.05812    3.40250    4.37628  -16.76183   18.03362    3.27176
  12.49249   18.11442    5.65284    4.08834  -17.11090   18.08063    5.51944
  12.50751   18.35523    7.91564    3.72765  -17.33887   18.31132    7.77920
  12.52252   18.78686   10.20178    3.34748  -17.44855   18.73167   10.06178
  12.53754   19.42170   12.52105    2.98462  -17.46041   19.35374   12.37712
  12.55255   20.27880   14.88301    2.65825  -17.40083   20.19608   14.73441
  12.56757   21.38482   17.29455    2.37483  -17.29321   21.28482   17.14136
  12.58258   22.77538   19.76041    2.13349  -17.15566   22.65491   19.60263
  12.59760   24.49692   22.28045    1.92998  -17.00062   24.35195   22.11859
  12.61261   26.60842   24.84644    1.75898  -16.83713   26.43394   24.68169
  12.62763   29.18437   27.43845    1.61525  -16.67023   28.97418   27.27340
  12.64264   32.31685   30.01696    1.49411  -16.50348   32.06337   29.85592
  12.65766   36.11686   32.51299    1.39161  -16.33895   35.81121   32.36284
  12.67267   40.71316   34.81188    1.30448  -16.17768   40.34539   34.68404
  12.68769   46.24427   36.73176    1.23005  -16.02026   45.80446   36.64363
  12.70270   52.83768   37.99374    1.16616  -15.86700   52.31829   37.97173
  12.71772   60.56475   38.19266    1.11107  -15.71773   59.96546   38.27344
  12.73273   69.35852   36.77726    1.06339  -15.57248   68.69447   37.00879
  12.74775   78.88696   33.08158    1.02197  -15.43092   78.20006   33.51669
  12.76276   88.40797   26.46239    0.98589  -15.29292   87.77703   27.14192
  12.77778   96.70460   16.58678    0.95440  -15.15789   96.24305   17.51177
   12.7928   102.2693     3.8153     0.9269   -15.0258   102.0962     4.9174
   12.8078   103.8277   -10.5920     0.9029   -14.8966   104.0156    -9.4498
   12.8228   100.9668   -24.7557     0.8819   -14.7697   101.4997   -23.7343
  12.83784   94.36907  -36.89948    0.86369  -14.64489   95.14933  -36.11907
  12.85285   85.43259  -45.99320    0.84794  -14.52201   86.33028  -45.49828
  12.86787   75.62511  -51.89061    0.83443  -14.40091   76.52861  -51.66027
  12.88288   66.04474  -55.04068    0.82300  -14.28114   66.88235  -55.02082
  12.89790   57.31286  -56.11546    0.81351  -14.16271   58.05100  -56.24634
  12.91291   49.67719  -55.75942    0.80584  -14.04532   50.30744  -55.99006
  12.92793   43.15667  -54.48647    0.79994  -13.92896   43.68454  -54.77921
  12.94294   37.65747  -52.66820    0.79575  -13.81320   38.09425  -52.99651
  12.95796   33.04430  -50.55585    0.79326  -13.69788   33.40257  -50.90284
  12.97297   29.17767  -48.31292    0.79248  -13.58300   29.46922  -48.66776
  12.98799   25.93072  -46.04197    0.79345  -13.46813   26.16563  -46.39845
  13.00300   23.19460  -43.80526    0.79623  -13.35340   23.38116  -44.15952
  13.01802   20.87898  -41.63807    0.80092  -13.23823   21.02366  -41.98862
  13.03303   18.91007  -39.55951    0.80765  -13.12292   19.01776  -39.90547
  13.04805   17.22811  -37.57790    0.81660  -13.00686   17.30230  -37.91926
  13.06306   15.78491  -35.69515    0.82797  -12.89035   15.82782  -36.03221
  13.07808   14.54162  -33.90919    0.84201  -12.77296   14.55436  -34.24240
  13.09309   13.46688  -32.21617    0.85900  -12.65467   13.44950  -32.54567
  13.10811   12.53535  -30.61105    0.87924  -12.53565   12.48695  -30.93625
  13.12312   11.72641  -29.08848    0.90300  -12.41588   11.64518  -29.40820
  13.13814   11.02322  -27.64374    0.93046  -12.29538   10.90669  -27.95545
  13.15315   10.41151  -26.27221    0.96161  -12.17443   10.25698  -26.57178
  13.16817    9.87878  -24.97036    0.99626  -12.05318    9.68408  -25.25110
  13.18318    9.41326  -23.73520    1.03406  -11.93089    9.17813  -23.98807
  13.19820    9.00315  -22.56319    1.07490  -11.80653    8.73087  -22.77708
  13.21321    8.63656  -21.44899    1.11929  -11.67876    8.33546  -21.61352
  13.22823    8.30272  -20.38518    1.16868  -11.54610    7.98617  -20.49264
  13.24324    7.99411  -19.36095    1.22528  -11.40736    7.67824  -19.41016
  13.25826    7.70782  -18.36592    1.29176  -11.26210    7.40768  -18.36221
  13.27327    7.44490  -17.39119    1.37097  -11.11062    7.17121  -17.34480
  13.28829    7.20807  -16.43203    1.46596  -10.95335    6.96612  -16.35466
  13.30330    6.99970  -15.48576    1.58017  -10.79134    6.79022  -15.38823
  13.31832    6.82092  -14.55136    1.71758  -10.62607    6.64176  -14.44256
  13.33333    6.67176  -13.62866    1.88299  -10.45962    6.51942  -13.51438
  13.34835    6.55162  -12.71634    2.08213  -10.29568    6.42224  -12.60087
  13.36336    6.45971  -11.81335    2.32161  -10.14049    6.34965  -11.69937
  13.37838    6.39539  -10.91793    2.60865  -10.00294    6.30142  -10.80661
  13.39339    6.35828  -10.02769    2.95001   -9.89710    6.27766   -9.92023
  13.40841    6.34846   -9.14086    3.34980   -9.84359    6.27889   -9.03740
  13.42342    6.36640   -8.25448    3.80548   -9.87027    6.30598   -8.15532
  13.43844    6.41310   -7.36632    4.30142  -10.01138    6.36026   -7.27116
  13.45345    6.49010   -6.47326    4.80136  -10.30116    6.44353   -6.38196
  13.46847    6.59957   -5.57265    5.24429  -10.75918    6.55815   -5.48505
  13.48348    6.74433   -4.66122    5.55247  -11.37060    6.70712   -4.57718
  13.49850    6.92804   -3.73630    5.65721  -12.07438    6.89420   -3.65537
  13.51351    7.15530   -2.79418    5.53195  -12.77459    7.12410   -2.71622
  13.52853    7.43189   -1.83191    5.20728  -13.37697    7.40260   -1.75661
  13.54354    7.76493   -0.84621    4.75377  -13.82343    7.73689   -0.77314
  13.55856    8.16330    0.16631    4.24856  -14.10283    8.13580    0.23709
  13.57357    8.63800    1.20833    3.75082  -14.23623    8.61029    1.27725
  13.58859    9.20266    2.28229    3.29503  -14.25846    9.17393    2.34995
  13.60360    9.87422    3.38953    2.89552  -14.20333    9.84351    3.45615
  13.61862   10.67373    4.52967    2.55410  -14.09809   10.63993    4.59600
  13.63363   11.62732    5.69968    2.26626  -13.96261   11.58913    5.76631
  13.64865   12.76717    6.89111    2.02512  -13.81068   12.72298    6.95951
  13.66366   14.13308    8.08943    1.82337  -13.65104   14.08100    8.16125
  13.67868   15.77250    9.26752    1.65442  -13.48933   15.71039    9.34549
  13.69369   17.74164   10.38128    1.51250  -13.32865   17.66715   10.46925
  13.70871   20.10162   11.35927    1.39287  -13.17124   20.01267   11.46347
  13.72372   22.91322   12.09216    1.29162  -13.01797   22.80872   12.22134
  13.73874   26.21864   12.41796    1.20562  -12.86930   26.10017   12.58412
  13.75375   30.01311   12.11121    1.13230  -12.72552   29.88770   12.32991
  13.76877   34.19157   10.88784    1.06963  -12.58619   34.07573   11.17628
  13.78378   38.48729    8.44806    1.01595  -12.45116   38.41084    8.81951
  13.79880   42.42188    4.58481    0.96992  -12.32043   42.42811    5.03726
  13.81381   45.34721   -0.65189    0.93049  -12.19325   45.48299   -0.14674
  13.82883   46.63543   -6.82441    0.89676  -12.06948   46.93075   -6.32400
  13.84384   45.96348  -13.15226    0.86804  -11.94868   46.41152  -12.72819
  13.85886   43.49266  -18.79770    0.84377  -11.83055   44.04844  -18.50569
  13.87387   39.77730  -23.18277    0.82349  -11.71478   40.37780  -23.04507
  13.88889   35.48695  -26.13214    0.80686  -11.60080   36.07558  -26.13778
  13.90390   31.17105  -27.78277    0.79360  -11.48889   31.71069  -27.90283
  13.91892   27.16696  -28.41806    0.78351  -11.37831   27.64015  -28.62009
  13.93393   23.62929  -28.33565    0.77646  -11.26892   24.03237  -28.59148
  13.94895   20.59036  -27.78322    0.77237  -11.16057   20.92726  -28.07181
  13.96396   18.02034  -26.94427    0.77118  -11.05311   18.29816  -27.25094
  13.97898   15.86193  -25.94523    0.77284  -10.94639   16.08842  -26.26065
  13.99399   14.05326  -24.86957    0.77729  -10.84041   14.23557  -25.18781
  14.00901   12.53555  -23.76944    0.78436  -10.73502   12.67976  -24.08753
  14.02402   11.25838  -22.67777    0.79377  -10.63052   11.36940  -22.99393
  14.03904   10.17906  -21.61307    0.80512  -10.52632   10.26058  -21.92657
  14.05406    9.26295  -20.58602    0.81804  -10.42182    9.31768  -20.89700
  14.06907    8.48197  -19.60151    0.83239  -10.31628    8.51162  -19.91027
  14.08409    7.81326  -18.66118    0.84848  -10.20867    7.81867  -18.96800
  14.09910    7.23875  -17.76487    0.86704  -10.09795    7.21993  -18.07036
  14.11411    6.74369  -16.91124    0.88903   -9.98396    6.69983  -17.21555
  14.12913    6.31646  -16.09852    0.91540   -9.86583    6.24594  -16.40135
  14.14415    5.94749  -15.32479    0.94709   -9.74384    5.84794  -15.62510
  14.15916    5.62913  -14.58856    0.98497   -9.61785    5.49751  -14.88427
  14.17418    5.35478  -13.88894    1.02999   -9.48726    5.18769  -14.17605
  14.18919    5.11851  -13.22564    1.08323   -9.35223    4.91283  -13.49792
  14.20420    4.91412  -12.59835    1.14599   -9.21231    4.66812  -12.84766
  14.21922    4.73466  -12.00738    1.21988   -9.06705    4.44963  -12.22275
  14.23423    4.57196  -11.45168    1.30689   -8.91645    4.25399  -11.62096
  14.24925    4.41764  -10.92712    1.40950   -8.76022    4.07842  -11.04080
  14.26427    4.26503  -10.42656    1.53083   -8.59866    3.92051  -10.47977
  14.27928    4.11142   -9.94142    1.67468   -8.43220    3.77825   -9.93712
  14.29429    3.95832   -9.46370    1.84585   -8.26189    3.64989   -9.41048
  14.30931    3.80980   -8.98908    2.05016   -8.09039    3.53398   -8.89881
  14.32432    3.66987   -8.51610    2.29466   -7.92157    3.42920   -8.40093
  14.33934    3.54125   -8.04548    2.58759   -7.76208    3.33447   -7.91549
  14.35435    3.42503   -7.57902    2.93793   -7.62230    3.24886   -7.44147
  14.36937    3.32109   -7.11774    3.35459   -7.51869    3.17150   -6.97797
  14.38438    3.22872   -6.66270    3.84365   -7.47541    3.10171   -6.52366
  14.39940    3.14688   -6.21417    4.40412   -7.52566    3.03884   -6.07810
  14.41441    3.07454   -5.77231    5.02009   -7.71138    2.98237   -5.64024
  14.42943    3.01070   -5.33697    5.65164   -8.07631    2.93181   -5.20935
  14.44444    2.95451   -4.90786    6.22770   -8.65039    2.88675   -4.78484
  14.45946    2.90521   -4.48439    6.65293   -9.42486    2.84683   -4.36581
  14.47447    2.86217   -4.06610    6.83568  -10.33392    2.81174   -3.95167
  14.48949    2.82486   -3.65225    6.73032  -11.26255    2.78121   -3.54197
  14.50450    2.79283   -3.24271    6.36247  -12.08757    2.75501   -3.13599
  14.51952    2.76571   -2.83657    5.81434  -12.72627    2.73294   -2.73311
  14.53453    2.74320   -2.43340    5.18430  -13.15419    2.71483   -2.33306
  14.54955    2.72504   -2.03275    4.55197  -13.39239    2.70053   -1.93507
  14.56456    2.71102   -1.63403    3.96629  -13.48281    2.68994   -1.53872
  14.57958    2.70097   -1.23664    3.44911  -13.46887    2.68296   -1.14355
  14.59460    2.69477   -0.84014    3.00500  -13.38675    2.67952   -0.74883
  14.60961    2.69231   -0.44423    2.62934  -13.26328    2.67958   -0.35440
  14.62463    2.69352   -0.04817    2.31368  -13.11684    2.68310    0.04032
  14.63964    2.69835    0.34840    2.04892  -12.95928    2.69008    0.43578
  14.65466    2.70678    0.74601    1.82645  -12.79845    2.70053    0.83273
  14.66967    2.71882    1.14503    1.63888  -12.63896    2.71448    1.23115
  14.68469    2.73449    1.54613    1.47996  -12.48362    2.73197    1.63203
  14.69970    2.75384    1.94967    1.34463  -12.33392    2.75309    2.03535
  14.71472    2.77693    2.35633    1.22870  -12.19058    2.77792    2.44207
  14.72973    2.80387    2.76639    1.12885  -12.05377    2.80657    2.85251
  14.74475    2.83476    3.18060    1.04235  -11.92363    2.83918    3.26717
  14.75976    2.86974    3.59926    0.96701  -11.79957    2.87590    3.68664
  14.77478    2.90899    4.02326    0.90104  -11.68173    2.91693    4.11160
  14.78979    2.95269    4.45296    0.84299  -11.56937    2.96246    4.54227
  14.80481    3.00107    4.88889    0.79165  -11.46236    3.01275    4.97990
  14.81982    3.05438    5.33193    0.74605  -11.36008    3.06806    5.42450
  14.83484    3.11292    5.78261    0.70536  -11.26255    3.12872    5.87703
  14.84985    3.17702    6.24181    0.66892  -11.16902    3.19507    6.33838
  14.86487    3.24703    6.71005    0.63614  -11.07934    3.26751    6.80914
  14.87988    3.32340    7.18830    0.60656  -10.99322    3.34650    7.29013
  14.89490    3.40658    7.67714    0.57977  -10.91052    3.43253    7.78216
  14.90991    3.49713    8.17792    0.55542  -10.83077    3.52619    8.28635
  14.92492    3.59563    8.69130    0.53322  -10.75384    3.62811    8.80343
  14.93994    3.70277    9.21846    0.51293  -10.67958    3.73904    9.33496
  14.95496    3.81932    9.76044    0.49433  -10.60769    3.85978    9.88154
  14.96997    3.94617   10.31858    0.47724  -10.53817    3.99130   10.44479
  14.98499    4.08428   10.89384    0.46148  -10.47058    4.13463   11.02576
  15.00000    4.23481   11.48815    0.44694  -10.40522    4.29104   11.62637
# 
# 03/01/2017 at 15:53 YAMBO @ anomaly [start]
# 03/01/2017 at 15:53                 [end]
#  
# Timing   [Min/Max/Average]: 05s/05s/05s
#
# .-Input file : yambo.in
# | optics                       # [R OPT] Optics
# | bse                          # [R BSE] Bethe Salpeter Equation.
# | bsk                          # [R BSK] Bethe Salpeter Equation kernel
# | bss                          # [R BSS] Bethe Salpeter Equation solver
# | BoseTemp= 0.000000     eV    # Bosonic Temperature
# | FFTGvecs=  9939        RL    # [FFT] Plane-waves
# | X_Threads= 1                 # [OPENMP/X] Number of threads for response functions
# | DIP_Threads= 1               # [OPENMP/X] Number of threads for dipoles
# | NonPDirs= "XYZ"              # [X/BSS] Non periodic chartesian directions (X,Y,Z,XY...)
# | BSEmod= "retarded"           # [BSE] resonant/retarded/coupling
# | BSKmod= "Hartree"            # [BSE] IP/Hartree/HF/ALDA/SEX/BSfxc
# | BSSmod= "hd"                 # [BSS] (h)aydock/(d)iagonalization/(i)nversion/(t)ddft`
# | BSENGexx=  9045        RL    # [BSK] Exchange components
# | % BEnRange
# |   0.00000 | 15.00000 | eV    # [BSS] Energy range
# | %
# | % BDmRange
# |   0.10000 |  0.10000 | eV    # [BSS] Damping range
# | %
# | BEnSteps= 1000               # [BSS] Energy steps
# | % BLongDir
# | 0.1000E-4 | 0.000    | 0.000    |        # [BSS] [cc] Electric Field
# | %
# | % BSEBands
# |    1 | 200 |                 # [BSK] Bands range
# | %
# | BSHayTrs=0.1000E-2           # [BSS] Relative [o/o] Haydock treshold. Strict(>0)/Average(<0)
