#                                                           
#                                                           
# Y88b    /   e           e    e      888~~\    ,88~-_      
#  Y88b  /   d8b         d8b  d8b     888   |  d888   \     
#   Y88b/   /Y88b       d888bdY88b    888 _/  88888    |    
#    Y8Y   /  Y88b     / Y88Y Y888b   888  \  88888    |    
#     Y   /____Y88b   /   YY   Y888b  888   |  Y888   /     
#    /   /      Y88b /          Y888b 888__/    `88_-~      
#                                                           
#                                                           
#       Version 4.2.0 Revision 14319 Hash 8432f48           
#                  MPI+SLK+OpenMP Build                     
#               http://www.yambo-code.org                   
#
# Polarizability ( -<<X>> ) [volume @ Q(1) [q->0 direction]0.1000E-4  0.000     0.000   
#
#
# - Energies      are Teter 93(XC)
# - Wavefunctions are Teter 93(XC)
#
# - The Green`s function is Retarded -
# - Using the Length Gauge -
# - [r,Vnl] *is* included -
#
#   BSK|Identifier              :5287
#      |Dimension               :69
#      |Bands                   :1 - 70
#      |Exchange           [res]: yes
#      |Correlation        [res]: no
#      |Kernel`s coupling       : no
#      |Exchange           [cpl]: no
#      |Correlation        [cpl]: no
#      |W interaction is bare   : no
#      |ALDA kernel in R-space  : no
#      |RL vectors    [exchange]:123
#      |E/h energy range    [ev]:-1.000000 - -1.000000
#      |Coupling range     [o/o]: 100.0000 -  100.0000
#
#  E/ev[1]    ALPHA-Im[2]ALPHA-Re[3]ALPHAo-Im[4ALPHAo-Re[5]
#
   0.00000    0.00000   17.12661    0.00000   20.42928
 0.7538E-1  0.2731E-2   17.13     0.4604E-2   20.43   
 0.1508     0.5464E-2   17.13     0.9214E-2   20.44   
 0.2261     0.8201E-2   17.14     0.1383E-1   20.44   
 0.3015     0.1094E-1   17.14     0.1847E-1   20.46   
 0.3769     0.1370E-1   17.15     0.2312E-1   20.47   
 0.4523     0.1646E-1   17.16     0.2779E-1   20.49   
 0.5276     0.1923E-1   17.18     0.3250E-1   20.51   
   0.60302    0.02202   17.19264    0.03724   20.54082
   0.67839    0.02482   17.21043    0.04202   20.57068
   0.75377    0.02765   17.23014    0.04684   20.60418
   0.82915    0.03049   17.25208    0.05171   20.64131
   0.90452    0.03336   17.27602    0.05664   20.68207
   0.97990    0.03625   17.30226    0.06162   20.72661
   1.05528    0.03917   17.33079    0.06668   20.77494
   1.13065    0.04212   17.36132    0.07180   20.82711
   1.20603    0.04510   17.39416    0.07701   20.88314
   1.28141    0.04812   17.42936    0.08230   20.94317
   1.35678    0.05118   17.46664    0.08768   21.00720
   1.43216    0.05427   17.50644    0.09316   21.07524
   1.50754    0.05741   17.54846    0.09874   21.14757
   1.58291    0.06059   17.59285    0.10444   21.22406
   1.65829    0.06383   17.63984    0.11026   21.30499
   1.73367    0.06711   17.68905    0.11620   21.39014
   1.80905    0.07045   17.74093    0.12229   21.48004
   1.88442    0.07385   17.79525    0.12852   21.57439
   1.95980    0.07731   17.85224    0.13491   21.67369
   2.03518    0.08083   17.91176    0.14146   21.77775
   2.11055    0.08443   17.97408    0.14819   21.88677
   2.18593    0.08809   18.03901    0.15511   22.00105
   2.26131    0.09183   18.10682    0.16223   22.12045
   2.33668    0.09566   18.17745    0.16956   22.24540
   2.41206    0.09956   18.25097    0.17712   22.37591
   2.48744    0.10356   18.32738    0.18491   22.51228
   2.56281    0.10765   18.40697    0.19296   22.65457
   2.63819    0.11185   18.48968    0.20128   22.80302
   2.71357    0.11614   18.57558    0.20989   22.95784
   2.78894    0.12055   18.66474    0.21880   23.11918
   2.86432    0.12507   18.75723    0.22804   23.28749
   2.93970    0.12972   18.85306    0.23762   23.46269
   3.01508    0.13449   18.95274    0.24757   23.64545
   3.09045    0.13940   19.05575    0.25792   23.83570
   3.16583    0.14446   19.16270    0.26868   24.03388
   3.24121    0.14966   19.27342    0.27988   24.24043
   3.31658    0.15502   19.38822    0.29156   24.45557
   3.39196    0.16056   19.50717    0.30375   24.67984
   3.46734    0.16626   19.63020    0.31649   24.91322
   3.54271    0.17216   19.75760    0.32980   25.15660
   3.61809    0.17825   19.88959    0.34373   25.41007
   3.69347    0.18455   20.02625    0.35832   25.67428
   3.76884    0.19107   20.16766    0.37363   25.94975
   3.84422    0.19782   20.31411    0.38971   26.23701
   3.91960    0.20481   20.46574    0.40661   26.53680
   3.99497    0.21207   20.62271    0.42439   26.84940
   4.07035    0.21960   20.78524    0.44312   27.17587
   4.14573    0.22742   20.95362    0.46288   27.51678
   4.22111    0.23555   21.12793    0.48376   27.87289
   4.29648    0.24401   21.30840    0.50583   28.24531
   4.37186    0.25282   21.49553    0.52920   28.63477
   4.44724    0.26199   21.68926    0.55398   29.04224
   4.52261    0.27156   21.89018    0.58029   29.46890
   4.59799    0.28155   22.09843    0.60826   29.91595
   4.67337    0.29198   22.31432    0.63805   30.38471
   4.74874    0.30288   22.53844    0.66982   30.87674
   4.82412    0.31430   22.77071    0.70376   31.39308
   4.89950    0.32625   23.01194    0.74008   31.93603
   4.97487    0.33878   23.26222    0.77900   32.50721
   5.05025    0.35194   23.52221    0.82080   33.10855
   5.12563    0.36575   23.79234    0.86577   33.74244
   5.20100    0.38028   24.07308    0.91424   34.41153
   5.27638    0.39557   24.36508    0.96660   35.11840
   5.35176    0.41169   24.66887    1.02329   35.86590
   5.42714    0.42869   24.98525    1.08479   36.65787
   5.50251    0.44665   25.31461    1.15169   37.49793
   5.57789    0.46564   25.65782    1.22464   38.39024
   5.65327    0.48575   26.01579    1.30441   39.33977
   5.72864    0.50707   26.38939    1.39187   40.35192
   5.80402    0.52970   26.77944    1.48806   41.43240
   5.87940    0.55376   27.18706    1.59421   42.58870
   5.95477    0.57937   27.61335    1.71173   43.82860
   6.03015    0.60669   28.05943    1.84233   45.16107
   6.10553    0.63586   28.52671    1.98803   46.59625
   6.18090    0.66706   29.01667    2.15128   48.14668
   6.25628    0.70050   29.53093    2.33503   49.82629
   6.33166    0.73640   30.07106    2.54286   51.65152
   6.40704    0.77500   30.63943    2.77921   53.64151
   6.48241    0.81662   31.23759    3.04955   55.81953
   6.55779    0.86156   31.86821    3.36074   58.21269
   6.63317    0.91021   32.53404    3.72147   60.85405
   6.70854    0.96299   33.23774    4.14287   63.78385
   6.78392    1.02040   33.98286    4.63935   67.05125
   6.85930    1.08301   34.77282    5.22988   70.71713
   6.93467    1.15148   35.61185    5.93980   74.85816
   7.01005    1.22659   36.50446    6.80358   79.57162
   7.08543    1.30924   37.45613    7.86905   84.98331
   7.16080    1.40050   38.47281    9.20406   91.25802
   7.23618    1.50163   39.56099   10.90753   98.61619
    7.3116     1.6142    40.7292    13.1279   107.3586
    7.3869     1.7399    41.9861    16.0961   117.9061
    7.4623     1.8810    43.3422    20.1864   130.8629
    7.5377     2.0402    44.8102    26.0375   147.1228
    7.6131     2.2207    46.4042    34.8059   168.0508
    7.6884     2.4267    48.1418    48.7518   195.7906
    7.7638     2.6633    50.0431    72.7238   233.7308
    7.8392     2.9368    52.1330   118.3772   286.7026
    7.9146     3.2557    54.4413   217.2086   356.2571
    7.9899     3.6308    57.0048   450.2969   391.2315
    8.0653     4.0762    59.8694   769.7493    83.3178
    8.1407     4.6111    63.0919   543.6600  -348.5781
    8.2161     5.2617    66.7456   260.3498  -358.9828
    8.2915     6.0643    70.9249   136.9529  -288.1533
    8.3668     7.0712    75.7538    81.8509  -230.4722
    8.4422     8.3589    81.3995    53.8218  -189.0630
    8.5176    10.0439    88.0909    37.9130  -158.9839
    8.5930    12.3099    96.1505    28.1007  -136.4437
    8.6683    15.4596   106.0456    21.6547  -119.0229
    8.7437    20.0210   118.4740    17.2088  -105.1868
    8.8191    26.9772   134.5118    14.0235   -93.9381
    8.8945    38.3163   155.8580    11.6720   -84.6057
    8.9698    58.4927   185.1470     9.8951   -76.7242
    9.0452    98.7598   225.5507     8.5297   -69.9598
    9.1206   190.3071   272.2082     7.4698   -64.0658
    9.1960   392.4079   241.5439     6.6467   -58.8536
    9.2714   486.9740   -70.5018     6.0173   -54.1724
    9.3467   265.3819  -219.4397     5.5597   -49.8952
    9.4221   131.9164  -184.1344     5.2739   -45.9057
    9.4975    76.0184  -136.9712     5.1912   -42.0854
    9.5729    50.6600  -100.2824     5.4041   -38.2974
   9.64824   38.57787  -71.74855    6.14998  -34.37150
   9.72362   33.85713  -47.79205    8.07145  -30.15763
   9.79900   35.31645  -25.54502   12.94905  -26.24909
   9.87437   45.88431   -3.03253   22.43800  -28.67034
   9.94975   76.48177   16.11461   20.97396  -41.05243
   10.0251   135.2243    -7.8965    11.5332   -42.0436
   10.1005   120.4841   -89.6290     6.9664   -38.3882
  10.17588   62.51971  -98.48294    5.00252  -34.86317
  10.25126   35.07991  -81.15977    4.08960  -31.82664
  10.32663   23.19222  -65.03576    3.68790  -29.10597
  10.40201   17.54602  -51.97495    3.62715  -26.51901
  10.47739   14.85065  -40.94022    3.91314  -23.89440
  10.55276   13.95897  -30.91920    4.73144  -21.04389
  10.62814   14.64742  -21.04596    6.65238  -17.78013
  10.70352   17.42916  -10.44598   11.31357  -14.41929
  10.77890   24.12375    1.83220   21.45618  -15.73893
  10.85427   40.05482   15.80971   24.25479  -30.53605
  10.92965   78.05969   20.60018   13.28824  -35.53566
   11.0050   116.8263   -32.6887     7.1949   -32.7572
  11.08040   74.25324  -81.39368    4.61312  -29.68776
  11.15578   37.85172  -75.27586    3.41939  -27.16660
  11.23116   22.59591  -61.92778    2.85183  -25.05084
  11.30653   16.12869  -50.60032    2.66088  -23.15594
  11.38191   13.65866  -41.04413    2.83321  -21.32907
  11.45729   13.94112  -32.22803    3.61245  -19.47271
  11.53266   17.82353  -23.37857    5.78269  -17.93977
  11.60804   29.34622  -15.89190    9.47791  -19.69238
  11.68342   51.31112  -24.92485    7.72218  -24.24361
  11.75879   45.23663  -55.12413    4.20668  -24.01001
  11.83417   23.58819  -57.89045    2.60307  -22.51087
  11.90955   13.37274  -51.13733    1.89108  -21.14794
  11.98493    8.92306  -44.89841    1.54264  -19.98912
  12.06030    6.80300  -39.83654    1.37490  -18.96519
  12.13568    5.82447  -35.55685    1.33266  -18.01107
  12.21106    5.64570  -31.67204    1.43284  -17.07088
  12.28643    6.43292  -27.87793    1.79582  -16.10920
  12.36181    9.14852  -24.21723    2.77942  -15.29574
  12.43719   15.75846  -23.48915    4.41338  -15.97431
  12.51256   18.68754  -32.58495    3.58364  -17.82564
  12.58794   10.90351  -36.18414    2.03839  -17.55335
  12.66332    6.19749  -33.64713    1.33664  -16.74404
  12.73869    4.16446  -30.81678    1.02377  -15.99847
  12.81407    3.19354  -28.42918    0.86914  -15.34362
  12.88945    2.68843  -26.38946    0.79161  -14.74879
  12.96482    2.43368  -24.56496    0.76299  -14.18613
  13.04020    2.35612  -22.85015    0.77886  -13.63177
  13.11558    2.45840  -21.16232    0.85429  -13.06600
  13.19096    2.77880  -19.45626    1.01440  -12.48540
  13.26633    3.35867  -17.57054    1.28743  -11.83203
  13.34171    4.67762  -15.27588    1.93906  -11.05414
  13.41709    7.88264  -12.74820    3.55103  -10.57508
  13.49246   15.26382  -12.78393    5.58000  -12.56441
  13.56784   19.84050  -23.67043    3.86110  -15.03709
  13.64322   11.43338  -29.75698    2.01417  -14.76806
  13.71859    5.91593  -28.07833    1.21088  -14.04680
  13.79397    3.56496  -25.80887    0.84432  -13.43063
  13.86935    2.46639  -23.99104    0.65384  -12.93052
  13.94472    1.90992  -22.56631    0.54686  -12.51327
  14.02010    1.64836  -21.46929    0.48821  -12.16198
  14.09548    1.41704  -20.68682    0.43714  -11.87057
  14.17085    1.14012  -19.92405    0.38283  -11.59205
  14.24623    0.96004  -19.19434    0.34513  -11.32762
  14.32161    0.84102  -18.54008    0.31804  -11.08201
  14.39699    0.75422  -17.95178    0.29693  -10.85271
  14.47236    0.68673  -17.41669    0.27962  -10.63704
  14.54774    0.63208  -16.92517    0.26497  -10.43294
  14.62312    0.58654  -16.46983    0.25227  -10.23891
  14.69849    0.54779  -16.04531    0.24108  -10.05363
  14.77387    0.51426  -15.64733    0.23108   -9.87620
  14.84925    0.48487  -15.27276    0.22205   -9.70589
  14.92462    0.45880  -14.91866    0.21382   -9.54196
  15.00000    0.43547  -14.58278    0.20625   -9.38395
# 
# 03/01/2017 at 15:53 YAMBO @ anomaly [start]
# 03/01/2017 at 15:53                 [end]
#
# .-Input file : yambo.in
# | optics                       # [R OPT] Optics
# | bse                          # [R BSE] Bethe Salpeter Equation.
# | bsk                          # [R BSK] Bethe Salpeter Equation kernel
# | bss                          # [R BSS] Bethe Salpeter Equation solver
# | BoseTemp= 0.000000     eV    # Bosonic Temperature
# | FFTGvecs=  9939        RL    # [FFT] Plane-waves
# | X_Threads= 1                 # [OPENMP/X] Number of threads for response functions
# | DIP_Threads= 1               # [OPENMP/X] Number of threads for dipoles
# | NonPDirs= "XYZ"              # [X/BSS] Non periodic chartesian directions (X,Y,Z,XY...)
# | BSEmod= "retarded"           # [BSE] resonant/retarded/coupling
# | BSKmod= "Hartree"            # [BSE] IP/Hartree/HF/ALDA/SEX/BSfxc
# | BSSmod= "d"                  # [BSS] (h)aydock/(d)iagonalization/(i)nversion/(t)ddft`
# | BSENGexx= 123          RL    # [BSK] Exchange components
# | % BEnRange
# |   0.00000 | 15.00000 | eV    # [BSS] Energy range
# | %
# | % BDmRange
# |   0.10000 |  0.10000 | eV    # [BSS] Damping range
# | %
# | BEnSteps= 200                # [BSS] Energy steps
# | % BLongDir
# | 0.1000E-4 | 0.000    | 0.000    |        # [BSS] [cc] Electric Field
# | %
# | % BSEBands
# |    1 |  70 |                 # [BSK] Bands range
# | %
