#                                                           
#  **    **    **     ****     ****  ******     *******     
# //**  **    ****   /**/**   **/** /*////**   **/////**    
#  //****    **//**  /**//** ** /** /*   /**  **     //**   
#   //**    **  //** /** //***  /** /******  /**      /**   
#    /**   **********/**  //*   /** /*//// **/**      /**   
#    /**  /**//////**/**   /    /** /*    /**//**     **    
#    /**  /**     /**/**        /** /*******  //*******     
#    //   //      // //         //  ///////    ///////      
#                                                           
#        Version 4.2.0 Revision 14319 Hash 8432f48          
#                  MPI+SLK+OpenMP Build                     
#                http://www.yambo-code.org                  
#
# Absorption @ Q(1) [q->0 direction] :0.1000E-4  0.000     0.000   
#
#
# - Energies      are Teter 93(XC)
# - Wavefunctions are Teter 93(XC)
#
# - The Green`s function is Retarded -
# - Using the Length Gauge -
# - [r,Vnl] *is* included -
#
#   BSK|Identifier              :6493
#      |Dimension               :199
#      |Bands                   :1 - 200
#      |Exchange           [res]: yes
#      |Correlation        [res]: no
#      |Kernel`s coupling       : no
#      |Exchange           [cpl]: no
#      |Correlation        [cpl]: no
#      |W interaction is bare   : no
#      |ALDA kernel in R-space  : no
#      |RL vectors    [exchange]:9045
#      |E/h energy range    [ev]:-1.000000 - -1.000000
#      |Coupling range     [o/o]: 100.0000 -  100.0000
#
#  E/ev[1]    EPS-Im[2]  EPS-Re[3]  EPSo-Im[4] EPSo-Re[5]
#
  0.000000   0.000000   1.010405   0.000000   1.016804
 0.1502E-1  0.2096E-6   1.010     0.7637E-6   1.017   
 0.3003E-1  0.4191E-6   1.010     0.1527E-5   1.017   
 0.4505E-1  0.6287E-6   1.010     0.2291E-5   1.017   
 0.6006E-1  0.8383E-6   1.010     0.3055E-5   1.017   
 0.7508E-1  0.1048E-5   1.010     0.3819E-5   1.017   
 0.9009E-1  0.1257E-5   1.010     0.4583E-5   1.017   
 0.1051     0.1467E-5   1.010     0.5348E-5   1.017   
 0.1201     0.1677E-5   1.010     0.6112E-5   1.017   
 0.1351     0.1887E-5   1.010     0.6877E-5   1.017   
 0.1502     0.2096E-5   1.010     0.7642E-5   1.017   
 0.1652     0.2306E-5   1.010     0.8408E-5   1.017   
 0.1802     0.2516E-5   1.010     0.9173E-5   1.017   
 0.1952     0.2726E-5   1.010     0.9939E-5   1.017   
 0.2102     0.2936E-5   1.010     0.1071E-4   1.017   
 0.2252     0.3146E-5   1.010     0.1147E-4   1.017   
 0.2402     0.3356E-5   1.010     0.1224E-4   1.017   
 0.2553     0.3566E-5   1.010     0.1301E-4   1.017   
 0.2703     0.3776E-5   1.010     0.1378E-4   1.017   
 0.2853     0.3987E-5   1.010     0.1455E-4   1.017   
 0.3003     0.4197E-5   1.010     0.1532E-4   1.017   
 0.3153     0.4408E-5   1.010     0.1609E-4   1.017   
 0.3303     0.4618E-5   1.010     0.1686E-4   1.017   
 0.3453     0.4829E-5   1.010     0.1763E-4   1.017   
 0.3604     0.5040E-5   1.010     0.1840E-4   1.017   
 0.3754     0.5250E-5   1.010     0.1917E-4   1.017   
 0.3904     0.5461E-5   1.010     0.1995E-4   1.017   
 0.4054     0.5673E-5   1.010     0.2072E-4   1.017   
 0.4204     0.5884E-5   1.010     0.2150E-4   1.017   
 0.4354     0.6095E-5   1.010     0.2228E-4   1.017   
 0.4505     0.6307E-5   1.010     0.2305E-4   1.017   
 0.4655     0.6518E-5   1.010     0.2383E-4   1.017   
 0.4805     0.6730E-5   1.010     0.2461E-4   1.017   
 0.4955     0.6942E-5   1.010     0.2539E-4   1.017   
 0.5105     0.7154E-5   1.010     0.2617E-4   1.017   
 0.5255     0.7366E-5   1.010     0.2696E-4   1.017   
 0.5405     0.7579E-5   1.010     0.2774E-4   1.017   
 0.5556     0.7791E-5   1.010     0.2853E-4   1.017   
 0.5706     0.8004E-5   1.010     0.2931E-4   1.017   
 0.5856     0.8217E-5   1.010     0.3010E-4   1.017   
 0.6006     0.8430E-5   1.010     0.3089E-4   1.017   
 0.6156     0.8643E-5   1.010     0.3168E-4   1.017   
 0.6306     0.8857E-5   1.010     0.3247E-4   1.017   
 0.6456     0.9070E-5   1.010     0.3326E-4   1.017   
 0.6607     0.9284E-5   1.010     0.3406E-4   1.017   
 0.6757     0.9498E-5   1.010     0.3485E-4   1.017   
 0.6907     0.9712E-5   1.010     0.3565E-4   1.017   
 0.7057     0.9927E-5   1.010     0.3645E-4   1.017   
 0.7207     0.1014E-4   1.010     0.3725E-4   1.017   
 0.7357     0.1036E-4   1.010     0.3805E-4   1.017   
 0.7508     0.1057E-4   1.010     0.3885E-4   1.017   
 0.7658     0.1079E-4   1.010     0.3966E-4   1.017   
 0.7808     0.1100E-4   1.010     0.4046E-4   1.017   
 0.7958     0.1122E-4   1.010     0.4127E-4   1.017   
 0.8108     0.1143E-4   1.010     0.4208E-4   1.017   
 0.8258     0.1165E-4   1.010     0.4290E-4   1.017   
 0.8408     0.1187E-4   1.010     0.4371E-4   1.017   
 0.8559     0.1208E-4   1.010     0.4453E-4   1.017   
 0.8709     0.1230E-4   1.010     0.4534E-4   1.017   
 0.8859     0.1252E-4   1.010     0.4616E-4   1.017   
 0.9009     0.1274E-4   1.010     0.4698E-4   1.017   
 0.9159     0.1295E-4   1.010     0.4781E-4   1.017   
 0.9309     0.1317E-4   1.010     0.4863E-4   1.017   
 0.9459     0.1339E-4   1.010     0.4946E-4   1.017   
 0.9610     0.1361E-4   1.010     0.5029E-4   1.017   
 0.9760     0.1383E-4   1.010     0.5112E-4   1.017   
 0.9910     0.1405E-4   1.010     0.5196E-4   1.017   
  1.006     0.1427E-4   1.010     0.5279E-4   1.017   
  1.021     0.1449E-4   1.010     0.5363E-4   1.017   
  1.036     0.1471E-4   1.010     0.5447E-4   1.017   
  1.051     0.1493E-4   1.010     0.5532E-4   1.017   
  1.066     0.1515E-4   1.010     0.5616E-4   1.017   
  1.081     0.1537E-4   1.010     0.5701E-4   1.017   
  1.096     0.1559E-4   1.010     0.5786E-4   1.017   
  1.111     0.1581E-4   1.010     0.5872E-4   1.017   
  1.126     0.1604E-4   1.010     0.5957E-4   1.017   
  1.141     0.1626E-4   1.010     0.6043E-4   1.017   
  1.156     0.1648E-4   1.010     0.6129E-4   1.017   
  1.171     0.1671E-4   1.011     0.6216E-4   1.017   
  1.186     0.1693E-4   1.011     0.6302E-4   1.017   
  1.201     0.1715E-4   1.011     0.6389E-4   1.017   
  1.216     0.1738E-4   1.011     0.6477E-4   1.017   
  1.231     0.1760E-4   1.011     0.6564E-4   1.017   
  1.246     0.1783E-4   1.011     0.6652E-4   1.017   
  1.261     0.1805E-4   1.011     0.6740E-4   1.017   
  1.276     0.1828E-4   1.011     0.6828E-4   1.017   
  1.291     0.1851E-4   1.011     0.6917E-4   1.017   
  1.306     0.1873E-4   1.011     0.7006E-4   1.017   
  1.321     0.1896E-4   1.011     0.7096E-4   1.017   
  1.336     0.1919E-4   1.011     0.7185E-4   1.017   
  1.351     0.1942E-4   1.011     0.7275E-4   1.017   
  1.366     0.1964E-4   1.011     0.7366E-4   1.017   
  1.381     0.1987E-4   1.011     0.7456E-4   1.017   
  1.396     0.2010E-4   1.011     0.7547E-4   1.017   
  1.411     0.2033E-4   1.011     0.7639E-4   1.017   
  1.426     0.2056E-4   1.011     0.7730E-4   1.017   
  1.441     0.2079E-4   1.011     0.7822E-4   1.017   
  1.456     0.2103E-4   1.011     0.7915E-4   1.017   
  1.471     0.2126E-4   1.011     0.8007E-4   1.017   
  1.486     0.2149E-4   1.011     0.8101E-4   1.017   
  1.502     0.2172E-4   1.011     0.8194E-4   1.017   
  1.517     0.2196E-4   1.011     0.8288E-4   1.017   
  1.532     0.2219E-4   1.011     0.8382E-4   1.017   
  1.547     0.2242E-4   1.011     0.8477E-4   1.017   
  1.562     0.2266E-4   1.011     0.8572E-4   1.017   
  1.577     0.2289E-4   1.011     0.8667E-4   1.017   
  1.592     0.2313E-4   1.011     0.8763E-4   1.017   
  1.607     0.2337E-4   1.011     0.8859E-4   1.017   
  1.622     0.2360E-4   1.011     0.8956E-4   1.018   
  1.637     0.2384E-4   1.011     0.9053E-4   1.018   
  1.652     0.2408E-4   1.011     0.9151E-4   1.018   
  1.667     0.2432E-4   1.011     0.9249E-4   1.018   
  1.682     0.2456E-4   1.011     0.9347E-4   1.018   
  1.697     0.2480E-4   1.011     0.9446E-4   1.018   
  1.712     0.2504E-4   1.011     0.9545E-4   1.018   
  1.727     0.2528E-4   1.011     0.9645E-4   1.018   
  1.742     0.2552E-4   1.011     0.9745E-4   1.018   
  1.757     0.2576E-4   1.011     0.9846E-4   1.018   
  1.772     0.2600E-4   1.011     0.9947E-4   1.018   
  1.787     0.2625E-4   1.011     0.1005E-3   1.018   
  1.802     0.2649E-4   1.011     0.1015E-3   1.018   
  1.817     0.2674E-4   1.011     0.1025E-3   1.018   
  1.832     0.2698E-4   1.011     0.1036E-3   1.018   
  1.847     0.2723E-4   1.011     0.1046E-3   1.018   
  1.862     0.2747E-4   1.011     0.1056E-3   1.018   
  1.877     0.2772E-4   1.011     0.1067E-3   1.018   
  1.892     0.2797E-4   1.011     0.1077E-3   1.018   
  1.907     0.2822E-4   1.011     0.1088E-3   1.018   
  1.922     0.2846E-4   1.011     0.1099E-3   1.018   
  1.937     0.2871E-4   1.011     0.1109E-3   1.018   
  1.952     0.2896E-4   1.011     0.1120E-3   1.018   
  1.967     0.2922E-4   1.011     0.1131E-3   1.018   
  1.982     0.2947E-4   1.011     0.1142E-3   1.018   
  1.997     0.2972E-4   1.011     0.1152E-3   1.018   
  2.012     0.2997E-4   1.011     0.1163E-3   1.018   
  2.027     0.3023E-4   1.011     0.1174E-3   1.018   
  2.042     0.3048E-4   1.011     0.1186E-3   1.018   
  2.057     0.3074E-4   1.011     0.1197E-3   1.018   
  2.072     0.3099E-4   1.011     0.1208E-3   1.018   
  2.087     0.3125E-4   1.011     0.1219E-3   1.018   
  2.102     0.3151E-4   1.011     0.1230E-3   1.018   
  2.117     0.3177E-4   1.011     0.1242E-3   1.018   
  2.132     0.3202E-4   1.011     0.1253E-3   1.018   
  2.147     0.3228E-4   1.011     0.1265E-3   1.018   
  2.162     0.3254E-4   1.011     0.1276E-3   1.018   
  2.177     0.3281E-4   1.011     0.1288E-3   1.018   
  2.192     0.3307E-4   1.011     0.1300E-3   1.018   
  2.207     0.3333E-4   1.011     0.1311E-3   1.018   
  2.222     0.3360E-4   1.011     0.1323E-3   1.018   
  2.237     0.3386E-4   1.011     0.1335E-3   1.018   
  2.252     0.3413E-4   1.011     0.1347E-3   1.018   
  2.267     0.3439E-4   1.011     0.1359E-3   1.018   
  2.282     0.3466E-4   1.011     0.1371E-3   1.018   
  2.297     0.3493E-4   1.011     0.1384E-3   1.018   
  2.312     0.3520E-4   1.011     0.1396E-3   1.018   
  2.327     0.3547E-4   1.011     0.1408E-3   1.018   
  2.342     0.3574E-4   1.011     0.1421E-3   1.018   
  2.357     0.3601E-4   1.011     0.1433E-3   1.018   
  2.372     0.3628E-4   1.011     0.1446E-3   1.018   
  2.387     0.3655E-4   1.011     0.1458E-3   1.018   
  2.402     0.3683E-4   1.011     0.1471E-3   1.018   
  2.417     0.3710E-4   1.011     0.1484E-3   1.018   
  2.432     0.3738E-4   1.011     0.1497E-3   1.018   
  2.447     0.3766E-4   1.011     0.1510E-3   1.018   
  2.462     0.3793E-4   1.011     0.1523E-3   1.019   
  2.477     0.3821E-4   1.011     0.1536E-3   1.019   
  2.492     0.3849E-4   1.011     0.1549E-3   1.019   
  2.508     0.3877E-4   1.011     0.1563E-3   1.019   
  2.523     0.3906E-4   1.011     0.1576E-3   1.019   
  2.538     0.3934E-4   1.011     0.1589E-3   1.019   
  2.553     0.3962E-4   1.011     0.1603E-3   1.019   
  2.568     0.3991E-4   1.011     0.1617E-3   1.019   
  2.583     0.4019E-4   1.011     0.1630E-3   1.019   
  2.598     0.4048E-4   1.011     0.1644E-3   1.019   
  2.613     0.4077E-4   1.011     0.1658E-3   1.019   
  2.628     0.4106E-4   1.011     0.1672E-3   1.019   
  2.643     0.4135E-4   1.011     0.1686E-3   1.019   
  2.658     0.4164E-4   1.011     0.1701E-3   1.019   
  2.673     0.4193E-4   1.011     0.1715E-3   1.019   
  2.688     0.4223E-4   1.011     0.1730E-3   1.019   
  2.703     0.4252E-4   1.011     0.1744E-3   1.019   
  2.718     0.4282E-4   1.011     0.1759E-3   1.019   
  2.733     0.4311E-4   1.011     0.1773E-3   1.019   
  2.748     0.4341E-4   1.011     0.1788E-3   1.019   
  2.763     0.4371E-4   1.011     0.1803E-3   1.019   
  2.778     0.4401E-4   1.011     0.1818E-3   1.019   
  2.793     0.4431E-4   1.011     0.1833E-3   1.019   
  2.808     0.4461E-4   1.011     0.1849E-3   1.019   
  2.823     0.4492E-4   1.011     0.1864E-3   1.019   
  2.838     0.4522E-4   1.011     0.1880E-3   1.019   
  2.853     0.4553E-4   1.011     0.1895E-3   1.019   
  2.868     0.4584E-4   1.011     0.1911E-3   1.019   
  2.883     0.4615E-4   1.011     0.1927E-3   1.019   
  2.898     0.4646E-4   1.011     0.1943E-3   1.019   
  2.913     0.4677E-4   1.011     0.1959E-3   1.019   
  2.928     0.4708E-4   1.011     0.1975E-3   1.019   
  2.943     0.4739E-4   1.011     0.1992E-3   1.019   
  2.958     0.4771E-4   1.011     0.2008E-3   1.019   
  2.973     0.4802E-4   1.011     0.2025E-3   1.019   
  2.988     0.4834E-4   1.011     0.2041E-3   1.019   
  3.003     0.4866E-4   1.011     0.2058E-3   1.019   
  3.018     0.4898E-4   1.011     0.2075E-3   1.019   
  3.033     0.4930E-4   1.011     0.2092E-3   1.020   
  3.048     0.4963E-4   1.011     0.2110E-3   1.020   
  3.063     0.4995E-4   1.011     0.2127E-3   1.020   
  3.078     0.5028E-4   1.011     0.2145E-3   1.020   
  3.093     0.5060E-4   1.011     0.2162E-3   1.020   
  3.108     0.5093E-4   1.011     0.2180E-3   1.020   
  3.123     0.5126E-4   1.011     0.2198E-3   1.020   
  3.138     0.5160E-4   1.011     0.2216E-3   1.020   
  3.153     0.5193E-4   1.011     0.2234E-3   1.020   
  3.168     0.5226E-4   1.011     0.2253E-3   1.020   
  3.183     0.5260E-4   1.011     0.2271E-3   1.020   
  3.198     0.5294E-4   1.011     0.2290E-3   1.020   
  3.213     0.5328E-4   1.011     0.2309E-3   1.020   
  3.228     0.5362E-4   1.011     0.2328E-3   1.020   
  3.243     0.5396E-4   1.011     0.2347E-3   1.020   
  3.258     0.5430E-4   1.011     0.2366E-3   1.020   
  3.273     0.5465E-4   1.011     0.2386E-3   1.020   
  3.288     0.5499E-4   1.011     0.2406E-3   1.020   
  3.303     0.5534E-4   1.011     0.2425E-3   1.020   
  3.318     0.5569E-4   1.011     0.2445E-3   1.020   
  3.333     0.5604E-4   1.011     0.2466E-3   1.020   
  3.348     0.5640E-4   1.011     0.2486E-3   1.020   
  3.363     0.5675E-4   1.011     0.2507E-3   1.020   
  3.378     0.5711E-4   1.011     0.2527E-3   1.020   
  3.393     0.5747E-4   1.011     0.2548E-3   1.020   
  3.408     0.5783E-4   1.011     0.2569E-3   1.020   
  3.423     0.5819E-4   1.011     0.2591E-3   1.020   
  3.438     0.5855E-4   1.011     0.2612E-3   1.020   
  3.453     0.5892E-4   1.011     0.2634E-3   1.021   
  3.468     0.5929E-4   1.011     0.2655E-3   1.021   
  3.483     0.5966E-4   1.011     0.2678E-3   1.021   
  3.498     0.6003E-4   1.011     0.2700E-3   1.021   
  3.514     0.6040E-4   1.011     0.2722E-3   1.021   
  3.529     0.6077E-4   1.011     0.2745E-3   1.021   
  3.544     0.6115E-4   1.011     0.2768E-3   1.021   
  3.559     0.6153E-4   1.011     0.2791E-3   1.021   
  3.574     0.6191E-4   1.011     0.2814E-3   1.021   
  3.589     0.6229E-4   1.011     0.2838E-3   1.021   
  3.604     0.6267E-4   1.011     0.2861E-3   1.021   
  3.619     0.6306E-4   1.011     0.2885E-3   1.021   
  3.634     0.6345E-4   1.011     0.2910E-3   1.021   
  3.649     0.6384E-4   1.011     0.2934E-3   1.021   
  3.664     0.6423E-4   1.011     0.2959E-3   1.021   
  3.679     0.6462E-4   1.011     0.2984E-3   1.021   
  3.694     0.6502E-4   1.011     0.3009E-3   1.021   
  3.709     0.6542E-4   1.011     0.3034E-3   1.021   
  3.724     0.6582E-4   1.011     0.3060E-3   1.021   
  3.739     0.6622E-4   1.012     0.3086E-3   1.021   
  3.754     0.6662E-4   1.012     0.3112E-3   1.021   
  3.769     0.6703E-4   1.012     0.3138E-3   1.021   
  3.784     0.6744E-4   1.012     0.3165E-3   1.021   
  3.799     0.6785E-4   1.012     0.3192E-3   1.022   
  3.814     0.6826E-4   1.012     0.3219E-3   1.022   
  3.829     0.6868E-4   1.012     0.3246E-3   1.022   
  3.844     0.6910E-4   1.012     0.3274E-3   1.022   
  3.859     0.6952E-4   1.012     0.3302E-3   1.022   
  3.874     0.6994E-4   1.012     0.3330E-3   1.022   
  3.889     0.7036E-4   1.012     0.3359E-3   1.022   
  3.904     0.7079E-4   1.012     0.3388E-3   1.022   
  3.919     0.7122E-4   1.012     0.3417E-3   1.022   
  3.934     0.7165E-4   1.012     0.3446E-3   1.022   
  3.949     0.7209E-4   1.012     0.3476E-3   1.022   
  3.964     0.7252E-4   1.012     0.3506E-3   1.022   
  3.979     0.7296E-4   1.012     0.3537E-3   1.022   
  3.994     0.7340E-4   1.012     0.3567E-3   1.022   
  4.009     0.7385E-4   1.012     0.3599E-3   1.022   
  4.024     0.7429E-4   1.012     0.3630E-3   1.022   
  4.039     0.7474E-4   1.012     0.3662E-3   1.022   
  4.054     0.7519E-4   1.012     0.3694E-3   1.022   
  4.069     0.7565E-4   1.012     0.3726E-3   1.022   
  4.084     0.7611E-4   1.012     0.3759E-3   1.023   
  4.099     0.7657E-4   1.012     0.3792E-3   1.023   
  4.114     0.7703E-4   1.012     0.3826E-3   1.023   
  4.129     0.7749E-4   1.012     0.3859E-3   1.023   
  4.144     0.7796E-4   1.012     0.3894E-3   1.023   
  4.159     0.7843E-4   1.012     0.3928E-3   1.023   
  4.174     0.7890E-4   1.012     0.3963E-3   1.023   
  4.189     0.7938E-4   1.012     0.3999E-3   1.023   
  4.204     0.7986E-4   1.012     0.4035E-3   1.023   
  4.219     0.8034E-4   1.012     0.4071E-3   1.023   
  4.234     0.8083E-4   1.012     0.4107E-3   1.023   
  4.249     0.8131E-4   1.012     0.4144E-3   1.023   
  4.264     0.8181E-4   1.012     0.4182E-3   1.023   
  4.279     0.8230E-4   1.012     0.4220E-3   1.023   
  4.294     0.8280E-4   1.012     0.4258E-3   1.023   
  4.309     0.8330E-4   1.012     0.4297E-3   1.023   
  4.324     0.8380E-4   1.012     0.4336E-3   1.023   
  4.339     0.8431E-4   1.012     0.4376E-3   1.024   
  4.354     0.8481E-4   1.012     0.4416E-3   1.024   
  4.369     0.8533E-4   1.012     0.4457E-3   1.024   
  4.384     0.8584E-4   1.012     0.4498E-3   1.024   
  4.399     0.8636E-4   1.012     0.4540E-3   1.024   
  4.414     0.8688E-4   1.012     0.4582E-3   1.024   
  4.429     0.8741E-4   1.012     0.4624E-3   1.024   
  4.444     0.8794E-4   1.012     0.4668E-3   1.024   
  4.459     0.8847E-4   1.012     0.4711E-3   1.024   
  4.474     0.8901E-4   1.012     0.4756E-3   1.024   
  4.489     0.8955E-4   1.012     0.4800E-3   1.024   
  4.505     0.9009E-4   1.012     0.4846E-3   1.024   
  4.520     0.9064E-4   1.012     0.4892E-3   1.024   
  4.535     0.9119E-4   1.012     0.4938E-3   1.024   
  4.550     0.9174E-4   1.012     0.4985E-3   1.025   
  4.565     0.9230E-4   1.012     0.5033E-3   1.025   
  4.580     0.9286E-4   1.012     0.5081E-3   1.025   
  4.595     0.9342E-4   1.012     0.5130E-3   1.025   
  4.610     0.9399E-4   1.012     0.5179E-3   1.025   
  4.625     0.9457E-4   1.012     0.5229E-3   1.025   
  4.640     0.9514E-4   1.012     0.5280E-3   1.025   
  4.655     0.9572E-4   1.012     0.5332E-3   1.025   
  4.670     0.9631E-4   1.012     0.5384E-3   1.025   
  4.685     0.9689E-4   1.012     0.5437E-3   1.025   
  4.700     0.9749E-4   1.012     0.5490E-3   1.025   
  4.715     0.9808E-4   1.012     0.5544E-3   1.025   
  4.730     0.9868E-4   1.012     0.5599E-3   1.025   
  4.745     0.9929E-4   1.012     0.5655E-3   1.026   
  4.760     0.9990E-4   1.012     0.5711E-3   1.026   
  4.775     0.1005E-3   1.012     0.5769E-3   1.026   
  4.790     0.1011E-3   1.012     0.5827E-3   1.026   
  4.805     0.1018E-3   1.012     0.5885E-3   1.026   
  4.820     0.1024E-3   1.012     0.5945E-3   1.026   
  4.835     0.1030E-3   1.012     0.6005E-3   1.026   
  4.850     0.1036E-3   1.012     0.6067E-3   1.026   
  4.865     0.1043E-3   1.012     0.6129E-3   1.026   
  4.880     0.1049E-3   1.012     0.6192E-3   1.026   
  4.895     0.1056E-3   1.012     0.6256E-3   1.026   
  4.910     0.1062E-3   1.012     0.6320E-3   1.027   
  4.925     0.1069E-3   1.013     0.6386E-3   1.027   
  4.940     0.1076E-3   1.013     0.6453E-3   1.027   
  4.955     0.1082E-3   1.013     0.6520E-3   1.027   
  4.970     0.1089E-3   1.013     0.6589E-3   1.027   
  4.985     0.1096E-3   1.013     0.6658E-3   1.027   
  5.000     0.1103E-3   1.013     0.6729E-3   1.027   
  5.015     0.1109E-3   1.013     0.6801E-3   1.027   
  5.030     0.1116E-3   1.013     0.6873E-3   1.027   
  5.045     0.1123E-3   1.013     0.6947E-3   1.027   
  5.060     0.1130E-3   1.013     0.7022E-3   1.028   
  5.075     0.1138E-3   1.013     0.7098E-3   1.028   
  5.090     0.1145E-3   1.013     0.7175E-3   1.028   
  5.105     0.1152E-3   1.013     0.7253E-3   1.028   
  5.120     0.1159E-3   1.013     0.7333E-3   1.028   
  5.135     0.1166E-3   1.013     0.7414E-3   1.028   
  5.150     0.1174E-3   1.013     0.7496E-3   1.028   
  5.165     0.1181E-3   1.013     0.7579E-3   1.028   
  5.180     0.1189E-3   1.013     0.7664E-3   1.028   
  5.195     0.1196E-3   1.013     0.7750E-3   1.029   
  5.210     0.1204E-3   1.013     0.7837E-3   1.029   
  5.225     0.1212E-3   1.013     0.7925E-3   1.029   
  5.240     0.1219E-3   1.013     0.8016E-3   1.029   
  5.255     0.1227E-3   1.013     0.8107E-3   1.029   
  5.270     0.1235E-3   1.013     0.8200E-3   1.029   
  5.285     0.1243E-3   1.013     0.8295E-3   1.029   
  5.300     0.1251E-3   1.013     0.8391E-3   1.029   
  5.315     0.1259E-3   1.013     0.8488E-3   1.030   
  5.330     0.1267E-3   1.013     0.8587E-3   1.030   
  5.345     0.1275E-3   1.013     0.8688E-3   1.030   
  5.360     0.1283E-3   1.013     0.8791E-3   1.030   
  5.375     0.1292E-3   1.013     0.8895E-3   1.030   
  5.390     0.1300E-3   1.013     0.9001E-3   1.030   
  5.405     0.1309E-3   1.013     0.9109E-3   1.030   
  5.420     0.1317E-3   1.013     0.9219E-3   1.030   
  5.435     0.1326E-3   1.013     0.9331E-3   1.031   
  5.450     0.1334E-3   1.013     0.9444E-3   1.031   
  5.465     0.1343E-3   1.013     0.9560E-3   1.031   
  5.480     0.1352E-3   1.013     0.9678E-3   1.031   
  5.495     0.1361E-3   1.013     0.9797E-3   1.031   
  5.511     0.1370E-3   1.013     0.9919E-3   1.031   
  5.526     0.1379E-3   1.013     0.1004E-2   1.031   
  5.541     0.1388E-3   1.013     0.1017E-2   1.032   
  5.556     0.1397E-3   1.013     0.1030E-2   1.032   
  5.571     0.1407E-3   1.013     0.1043E-2   1.032   
  5.586     0.1416E-3   1.013     0.1056E-2   1.032   
  5.601     0.1425E-3   1.013     0.1070E-2   1.032   
  5.616     0.1435E-3   1.013     0.1084E-2   1.032   
  5.631     0.1444E-3   1.013     0.1098E-2   1.033   
  5.646     0.1454E-3   1.013     0.1112E-2   1.033   
  5.661     0.1464E-3   1.013     0.1127E-2   1.033   
  5.676     0.1474E-3   1.013     0.1142E-2   1.033   
  5.691     0.1484E-3   1.013     0.1157E-2   1.033   
  5.706     0.1494E-3   1.013     0.1172E-2   1.033   
  5.721     0.1504E-3   1.014     0.1188E-2   1.034   
  5.736     0.1514E-3   1.014     0.1204E-2   1.034   
  5.751     0.1525E-3   1.014     0.1220E-2   1.034   
  5.766     0.1535E-3   1.014     0.1237E-2   1.034   
  5.781     0.1546E-3   1.014     0.1254E-2   1.034   
  5.796     0.1556E-3   1.014     0.1272E-2   1.034   
  5.811     0.1567E-3   1.014     0.1289E-2   1.035   
  5.826     0.1578E-3   1.014     0.1308E-2   1.035   
  5.841     0.1589E-3   1.014     0.1326E-2   1.035   
  5.856     0.1600E-3   1.014     0.1345E-2   1.035   
  5.871     0.1611E-3   1.014     0.1364E-2   1.035   
  5.886     0.1622E-3   1.014     0.1384E-2   1.036   
  5.901     0.1634E-3   1.014     0.1404E-2   1.036   
  5.916     0.1645E-3   1.014     0.1425E-2   1.036   
  5.931     0.1657E-3   1.014     0.1446E-2   1.036   
  5.946     0.1668E-3   1.014     0.1467E-2   1.037   
  5.961     0.1680E-3   1.014     0.1489E-2   1.037   
  5.976     0.1692E-3   1.014     0.1511E-2   1.037   
  5.991     0.1704E-3   1.014     0.1534E-2   1.037   
  6.006     0.1716E-3   1.014     0.1558E-2   1.037   
  6.021     0.1729E-3   1.014     0.1581E-2   1.038   
  6.036     0.1741E-3   1.014     0.1606E-2   1.038   
  6.051     0.1753E-3   1.014     0.1631E-2   1.038   
  6.066     0.1766E-3   1.014     0.1656E-2   1.038   
  6.081     0.1779E-3   1.014     0.1683E-2   1.039   
  6.096     0.1792E-3   1.014     0.1709E-2   1.039   
  6.111     0.1805E-3   1.014     0.1737E-2   1.039   
  6.126     0.1818E-3   1.014     0.1765E-2   1.039   
  6.141     0.1831E-3   1.014     0.1794E-2   1.040   
  6.156     0.1845E-3   1.014     0.1823E-2   1.040   
  6.171     0.1858E-3   1.014     0.1853E-2   1.040   
  6.186     0.1872E-3   1.014     0.1884E-2   1.040   
  6.201     0.1886E-3   1.014     0.1916E-2   1.041   
  6.216     0.1900E-3   1.014     0.1948E-2   1.041   
  6.231     0.1914E-3   1.014     0.1981E-2   1.041   
  6.246     0.1929E-3   1.014     0.2016E-2   1.042   
  6.261     0.1943E-3   1.014     0.2050E-2   1.042   
  6.276     0.1958E-3   1.014     0.2086E-2   1.042   
  6.291     0.1973E-3   1.015     0.2123E-2   1.043   
  6.306     0.1988E-3   1.015     0.2161E-2   1.043   
  6.321     0.2003E-3   1.015     0.2200E-2   1.043   
  6.336     0.2018E-3   1.015     0.2240E-2   1.044   
  6.351     0.2034E-3   1.015     0.2280E-2   1.044   
  6.366     0.2049E-3   1.015     0.2322E-2   1.044   
  6.381     0.2065E-3   1.015     0.2366E-2   1.045   
  6.396     0.2081E-3   1.015     0.2410E-2   1.045   
  6.411     0.2097E-3   1.015     0.2456E-2   1.045   
  6.426     0.2114E-3   1.015     0.2502E-2   1.046   
  6.441     0.2130E-3   1.015     0.2551E-2   1.046   
  6.456     0.2147E-3   1.015     0.2600E-2   1.046   
  6.471     0.2164E-3   1.015     0.2651E-2   1.047   
  6.486     0.2181E-3   1.015     0.2704E-2   1.047   
  6.502     0.2199E-3   1.015     0.2758E-2   1.048   
  6.517     0.2216E-3   1.015     0.2814E-2   1.048   
  6.532     0.2234E-3   1.015     0.2871E-2   1.048   
  6.547     0.2252E-3   1.015     0.2930E-2   1.049   
  6.562     0.2270E-3   1.015     0.2991E-2   1.049   
  6.577     0.2288E-3   1.015     0.3054E-2   1.050   
  6.592     0.2307E-3   1.015     0.3119E-2   1.050   
  6.607     0.2326E-3   1.015     0.3186E-2   1.051   
  6.622     0.2345E-3   1.015     0.3255E-2   1.051   
  6.637     0.2364E-3   1.015     0.3327E-2   1.052   
  6.652     0.2384E-3   1.015     0.3400E-2   1.052   
  6.667     0.2404E-3   1.015     0.3476E-2   1.053   
  6.682     0.2424E-3   1.015     0.3555E-2   1.053   
  6.697     0.2444E-3   1.015     0.3637E-2   1.054   
  6.712     0.2465E-3   1.015     0.3721E-2   1.054   
  6.727     0.2486E-3   1.015     0.3808E-2   1.055   
  6.742     0.2507E-3   1.016     0.3898E-2   1.055   
  6.757     0.2528E-3   1.016     0.3992E-2   1.056   
  6.772     0.2550E-3   1.016     0.4089E-2   1.057   
  6.787     0.2572E-3   1.016     0.4189E-2   1.057   
  6.802     0.2594E-3   1.016     0.4293E-2   1.058   
  6.817     0.2616E-3   1.016     0.4401E-2   1.058   
  6.832     0.2639E-3   1.016     0.4513E-2   1.059   
  6.847     0.2662E-3   1.016     0.4630E-2   1.060   
  6.862     0.2686E-3   1.016     0.4751E-2   1.061   
  6.877     0.2709E-3   1.016     0.4876E-2   1.061   
  6.892     0.2733E-3   1.016     0.5007E-2   1.062   
  6.907     0.2758E-3   1.016     0.5143E-2   1.063   
  6.922     0.2782E-3   1.016     0.5285E-2   1.063   
  6.937     0.2808E-3   1.016     0.5432E-2   1.064   
  6.952     0.2833E-3   1.016     0.5586E-2   1.065   
  6.967     0.2859E-3   1.016     0.5746E-2   1.066   
  6.982     0.2885E-3   1.016     0.5914E-2   1.067   
  6.997     0.2911E-3   1.016     0.6088E-2   1.068   
  7.012     0.2938E-3   1.016     0.6271E-2   1.069   
  7.027     0.2965E-3   1.016     0.6461E-2   1.070   
  7.042     0.2993E-3   1.016     0.6661E-2   1.070   
  7.057     0.3021E-3   1.016     0.6870E-2   1.071   
  7.072     0.3049E-3   1.016     0.7089E-2   1.073   
  7.087     0.3078E-3   1.016     0.7318E-2   1.074   
  7.102     0.3108E-3   1.017     0.7558E-2   1.075   
  7.117     0.3137E-3   1.017     0.7811E-2   1.076   
  7.132     0.3168E-3   1.017     0.8076E-2   1.077   
  7.147     0.3198E-3   1.017     0.8355E-2   1.078   
  7.162     0.3229E-3   1.017     0.8649E-2   1.079   
  7.177     0.3261E-3   1.017     0.8958E-2   1.081   
  7.192     0.3293E-3   1.017     0.9285E-2   1.082   
  7.207     0.3325E-3   1.017     0.9629E-2   1.083   
  7.222     0.3358E-3   1.017     0.9992E-2   1.085   
  7.237     0.3392E-3   1.017     0.1038E-1   1.086   
  7.252     0.3426E-3   1.017     0.1078E-1   1.088   
  7.267     0.3461E-3   1.017     0.1121E-1   1.089   
  7.282     0.3496E-3   1.017     0.1167E-1   1.091   
  7.297     0.3532E-3   1.017     0.1216E-1   1.093   
  7.312     0.3568E-3   1.017     0.1267E-1   1.095   
  7.327     0.3605E-3   1.017     0.1322E-1   1.096   
  7.342     0.3643E-3   1.017     0.1381E-1   1.098   
  7.357     0.3681E-3   1.017     0.1444E-1   1.100   
  7.372     0.3719E-3   1.017     0.1510E-1   1.103   
  7.387     0.3759E-3   1.017     0.1582E-1   1.105   
  7.402     0.3799E-3   1.018     0.1659E-1   1.107   
  7.417     0.3840E-3   1.018     0.1741E-1   1.109   
  7.432     0.3881E-3   1.018     0.1830E-1   1.112   
  7.447     0.3924E-3   1.018     0.1925E-1   1.115   
  7.462     0.3967E-3   1.018     0.2028E-1   1.117   
  7.477     0.4010E-3   1.018     0.2140E-1   1.120   
  7.492     0.4055E-3   1.018     0.2261E-1   1.123   
  7.508     0.4100E-3   1.018     0.2392E-1   1.127   
  7.523     0.4146E-3   1.018     0.2535E-1   1.130   
  7.538     0.4193E-3   1.018     0.2691E-1   1.134   
  7.553     0.4241E-3   1.018     0.2861E-1   1.137   
  7.568     0.4289E-3   1.018     0.3048E-1   1.141   
  7.583     0.4339E-3   1.018     0.3254E-1   1.146   
  7.598     0.4389E-3   1.018     0.3480E-1   1.150   
  7.613     0.4441E-3   1.018     0.3731E-1   1.155   
  7.628     0.4493E-3   1.018     0.4009E-1   1.160   
  7.643     0.4547E-3   1.019     0.4318E-1   1.166   
  7.658     0.4601E-3   1.019     0.4664E-1   1.171   
  7.673     0.4657E-3   1.019     0.5052E-1   1.178   
  7.688     0.4713E-3   1.019     0.5488E-1   1.184   
  7.703     0.4771E-3   1.019     0.5982E-1   1.191   
  7.718     0.4830E-3   1.019     0.6542E-1   1.199   
  7.733     0.4890E-3   1.019     0.7182E-1   1.207   
  7.748     0.4951E-3   1.019     0.7915E-1   1.215   
  7.763     0.5014E-3   1.019     0.8760E-1   1.225   
  7.778     0.5077E-3   1.019     0.9740E-1   1.234   
  7.793     0.5142E-3   1.019     0.1088      1.245   
  7.808     0.5209E-3   1.019     0.1222      1.256   
  7.823     0.5277E-3   1.019     0.1379      1.267   
  7.838     0.5346E-3   1.019     0.1565      1.279   
  7.853     0.5417E-3   1.020     0.1787      1.291   
  7.868     0.5489E-3   1.020     0.2051      1.302   
  7.883     0.5563E-3   1.020     0.2366      1.312   
  7.898     0.5639E-3   1.020     0.2742      1.320   
  7.913     0.5716E-3   1.020     0.3184      1.323   
  7.928     0.5795E-3   1.020     0.3697      1.318   
  7.943     0.5876E-3   1.020     0.4274      1.302   
  7.958     0.5959E-3   1.020     0.4886      1.272   
  7.973     0.6044E-3   1.020     0.5481      1.222   
  7.988     0.6130E-3   1.020     0.5975      1.151   
  8.003     0.6219E-3   1.020     0.6274      1.064   
  8.018     0.6310E-3   1.021     0.6307     0.9700   
  8.033     0.6403E-3   1.021     0.6066     0.8803   
  8.048     0.6498E-3   1.021     0.5610     0.8056   
  8.063     0.6596E-3   1.021     0.5030     0.7508   
  8.078     0.6696E-3   1.021     0.4416     0.7157   
  8.093     0.6799E-3   1.021     0.3828     0.6970   
  8.108     0.6904E-3   1.021     0.3299     0.6902   
  8.123     0.7012E-3   1.021     0.2839     0.6916   
  8.138     0.7123E-3   1.021     0.2449     0.6981   
  8.153     0.7236E-3   1.021     0.2120     0.7077   
  8.168     0.7353E-3   1.022     0.1845     0.7188   
  8.183     0.7473E-3   1.022     0.1614     0.7306   
  8.198     0.7596E-3   1.022     0.1420     0.7424   
  8.213     0.7722E-3   1.022     0.1257     0.7540   
  8.228     0.7853E-3   1.022     0.1118     0.7651   
  8.243     0.7986E-3   1.022     0.9995E-1  0.7757   
  8.258     0.8124E-3   1.022     0.8981E-1  0.7857   
  8.273     0.8265E-3   1.022     0.8107E-1  0.7950   
  8.288     0.8411E-3   1.022     0.7349E-1  0.8038   
  8.303     0.8561E-3   1.023     0.6689E-1  0.8120   
  8.318     0.8715E-3   1.023     0.6112E-1  0.8196   
  8.333     0.8875E-3   1.023     0.5604E-1  0.8268   
  8.348     0.9039E-3   1.023     0.5155E-1  0.8335   
  8.363     0.9208E-3   1.023     0.4756E-1  0.8398   
  8.378     0.9382E-3   1.023     0.4402E-1  0.8457   
  8.393     0.9562E-3   1.023     0.4084E-1  0.8512   
  8.408     0.9748E-3   1.024     0.3800E-1  0.8564   
  8.423     0.9940E-3   1.024     0.3543E-1  0.8612   
  8.438     0.1014E-2   1.024     0.3312E-1  0.8658   
  8.453     0.1034E-2   1.024     0.3102E-1  0.8702   
  8.468     0.1056E-2   1.024     0.2911E-1  0.8742   
  8.483     0.1077E-2   1.024     0.2737E-1  0.8781   
  8.498     0.1100E-2   1.024     0.2578E-1  0.8818   
  8.514     0.1124E-2   1.025     0.2433E-1  0.8852   
  8.529     0.1148E-2   1.025     0.2299E-1  0.8885   
  8.544     0.1173E-2   1.025     0.2176E-1  0.8916   
  8.559     0.1200E-2   1.025     0.2063E-1  0.8946   
  8.574     0.1227E-2   1.025     0.1958E-1  0.8974   
  8.589     0.1255E-2   1.026     0.1861E-1  0.9001   
  8.604     0.1284E-2   1.026     0.1772E-1  0.9027   
  8.619     0.1315E-2   1.026     0.1688E-1  0.9052   
  8.634     0.1347E-2   1.026     0.1610E-1  0.9075   
  8.649     0.1380E-2   1.026     0.1538E-1  0.9098   
  8.664     0.1414E-2   1.027     0.1471E-1  0.9119   
  8.679     0.1450E-2   1.027     0.1407E-1  0.9140   
  8.694     0.1487E-2   1.027     0.1348E-1  0.9159   
  8.709     0.1526E-2   1.027     0.1293E-1  0.9178   
  8.724     0.1567E-2   1.027     0.1241E-1  0.9197   
  8.739     0.1610E-2   1.028     0.1192E-1  0.9214   
  8.754     0.1655E-2   1.028     0.1146E-1  0.9231   
  8.769     0.1701E-2   1.028     0.1103E-1  0.9248   
  8.784     0.1750E-2   1.028     0.1062E-1  0.9263   
  8.799     0.1802E-2   1.029     0.1024E-1  0.9278   
  8.814     0.1856E-2   1.029     0.9873E-2  0.9293   
  8.829     0.1912E-2   1.029     0.9530E-2  0.9307   
  8.844     0.1972E-2   1.029     0.9205E-2  0.9321   
  8.859     0.2035E-2   1.030     0.8897E-2  0.9334   
  8.874     0.2101E-2   1.030     0.8606E-2  0.9347   
  8.889     0.2171E-2   1.030     0.8330E-2  0.9359   
  8.904     0.2245E-2   1.031     0.8067E-2  0.9371   
  8.919     0.2323E-2   1.031     0.7818E-2  0.9383   
  8.934     0.2406E-2   1.031     0.7581E-2  0.9394   
  8.949     0.2493E-2   1.032     0.7357E-2  0.9405   
  8.964     0.2586E-2   1.032     0.7143E-2  0.9416   
  8.979     0.2685E-2   1.032     0.6939E-2  0.9426   
  8.994     0.2791E-2   1.033     0.6745E-2  0.9436   
  9.009     0.2903E-2   1.033     0.6560E-2  0.9446   
  9.024     0.3024E-2   1.034     0.6385E-2  0.9455   
  9.039     0.3152E-2   1.034     0.6217E-2  0.9465   
  9.054     0.3290E-2   1.035     0.6057E-2  0.9474   
  9.069     0.3438E-2   1.035     0.5905E-2  0.9483   
  9.084     0.3597E-2   1.036     0.5760E-2  0.9491   
  9.099     0.3769E-2   1.036     0.5622E-2  0.9500   
  9.114     0.3954E-2   1.037     0.5490E-2  0.9508   
  9.129     0.4155E-2   1.037     0.5365E-2  0.9516   
  9.144     0.4373E-2   1.038     0.5245E-2  0.9524   
  9.159     0.4610E-2   1.038     0.5131E-2  0.9531   
  9.174     0.4869E-2   1.039     0.5023E-2  0.9539   
  9.189     0.5151E-2   1.040     0.4920E-2  0.9546   
  9.204     0.5461E-2   1.041     0.4822E-2  0.9553   
  9.219     0.5803E-2   1.041     0.4730E-2  0.9560   
  9.234     0.6179E-2   1.042     0.4642E-2  0.9567   
  9.249     0.6596E-2   1.043     0.4559E-2  0.9574   
  9.264     0.7059E-2   1.044     0.4481E-2  0.9581   
  9.279     0.7576E-2   1.045     0.4408E-2  0.9587   
  9.294     0.8155E-2   1.046     0.4339E-2  0.9594   
  9.309     0.8806E-2   1.047     0.4275E-2  0.9600   
  9.324     0.9542E-2   1.048     0.4215E-2  0.9606   
  9.339     0.1038E-1   1.049     0.4160E-2  0.9613   
  9.354     0.1133E-1   1.051     0.4110E-2  0.9619   
  9.369     0.1242E-1   1.052     0.4065E-2  0.9625   
  9.384     0.1368E-1   1.053     0.4025E-2  0.9631   
  9.399     0.1514E-1   1.055     0.3990E-2  0.9637   
  9.414     0.1684E-1   1.057     0.3960E-2  0.9642   
  9.429     0.1883E-1   1.058     0.3936E-2  0.9648   
  9.444     0.2118E-1   1.060     0.3918E-2  0.9654   
  9.459     0.2397E-1   1.062     0.3906E-2  0.9660   
  9.474     0.2728E-1   1.064     0.3901E-2  0.9665   
  9.489     0.3122E-1   1.065     0.3904E-2  0.9671   
  9.505     0.3592E-1   1.067     0.3914E-2  0.9677   
  9.520     0.4148E-1   1.068     0.3934E-2  0.9682   
  9.535     0.4799E-1   1.068     0.3964E-2  0.9688   
  9.550     0.5541E-1   1.067     0.4004E-2  0.9694   
  9.565     0.6354E-1   1.064     0.4057E-2  0.9700   
  9.580     0.7182E-1   1.059     0.4125E-2  0.9705   
  9.595     0.7931E-1   1.051     0.4209E-2  0.9711   
  9.610     0.8476E-1   1.040     0.4311E-2  0.9717   
  9.625     0.8701E-1   1.028     0.4436E-2  0.9723   
  9.640     0.8551E-1   1.016     0.4586E-2  0.9729   
  9.655     0.8066E-1   1.005     0.4767E-2  0.9735   
  9.670     0.7356E-1  0.9967     0.4984E-2  0.9741   
  9.685     0.6548E-1  0.9911     0.5245E-2  0.9748   
  9.700     0.5743E-1  0.9879     0.5557E-2  0.9754   
  9.715     0.5001E-1  0.9867     0.5932E-2  0.9761   
  9.730     0.4349E-1  0.9868     0.6384E-2  0.9767   
  9.745     0.3793E-1  0.9878     0.6928E-2  0.9774   
  9.760     0.3326E-1  0.9893     0.7584E-2  0.9780   
  9.775     0.2937E-1  0.9911     0.8375E-2  0.9786   
  9.790     0.2614E-1  0.9931     0.9322E-2  0.9791   
   9.80480    0.02346    0.99512    0.01045    0.97954
   9.81982    0.02123    0.99716    0.01176    0.97975
   9.83484    0.01939    0.99918    0.01324    0.97968
   9.84985    0.01786    1.00114    0.01482    0.97920
   9.86487    0.01660    1.00305    0.01637    0.97823
   9.87988    0.01556    1.00491    0.01767    0.97672
   9.89489    0.01471    1.00671    0.01847    0.97475
   9.90991    0.01402    1.00847    0.01858    0.97257
   9.92492    0.01348    1.01019    0.01797    0.97050
   9.93994    0.01308    1.01187    0.01678    0.96879
   9.95496    0.01278    1.01353    0.01525    0.96761
   9.96997    0.01260    1.01516    0.01362    0.96694
   9.98499    0.01253    1.01680    0.01205    0.96671
  10.00000    0.01256    1.01842    0.01064    0.96680
  10.02     0.1269E-1   1.020     0.9406E-2  0.9671   
  10.03     0.1293E-1   1.022     0.8358E-2  0.9676   
  10.05     0.1328E-1   1.023     0.7474E-2  0.9681   
  10.06     0.1376E-1   1.025     0.6733E-2  0.9686   
  10.08     0.1437E-1   1.027     0.6111E-2  0.9692   
  10.09     0.1513E-1   1.029     0.5588E-2  0.9698   
  10.11     0.1607E-1   1.030     0.5148E-2  0.9704   
  10.12     0.1721E-1   1.032     0.4775E-2  0.9709   
  10.14     0.1859E-1   1.034     0.4458E-2  0.9715   
  10.15     0.2024E-1   1.036     0.4187E-2  0.9720   
  10.17     0.2224E-1   1.038     0.3955E-2  0.9725   
  10.18     0.2464E-1   1.040     0.3756E-2  0.9730   
  10.20     0.2754E-1   1.043     0.3584E-2  0.9735   
  10.21     0.3103E-1   1.045     0.3437E-2  0.9740   
  10.23     0.3522E-1   1.046     0.3309E-2  0.9745   
  10.24     0.4023E-1   1.048     0.3200E-2  0.9749   
  10.26     0.4617E-1   1.048     0.3107E-2  0.9753   
  10.27     0.5306E-1   1.048     0.3027E-2  0.9758   
  10.29     0.6079E-1   1.046     0.2961E-2  0.9762   
  10.30     0.6897E-1   1.042     0.2906E-2  0.9766   
  10.32     0.7686E-1   1.036     0.2862E-2  0.9770   
  10.33     0.8332E-1   1.027     0.2828E-2  0.9774   
  10.35     0.8706E-1   1.015     0.2804E-2  0.9778   
  10.36     0.8720E-1   1.003     0.2789E-2  0.9782   
  10.38     0.8368E-1  0.9912     0.2785E-2  0.9786   
  10.39     0.7735E-1  0.9817     0.2790E-2  0.9790   
  10.41     0.6945E-1  0.9749     0.2804E-2  0.9794   
  10.42     0.6116E-1  0.9707     0.2829E-2  0.9798   
  10.44     0.5327E-1  0.9686     0.2866E-2  0.9802   
  10.45     0.4620E-1  0.9681     0.2914E-2  0.9806   
  10.47     0.4007E-1  0.9687     0.2975E-2  0.9810   
  10.48     0.3486E-1  0.9699     0.3050E-2  0.9814   
  10.50     0.3049E-1  0.9716     0.3141E-2  0.9818   
  10.51     0.2682E-1  0.9734     0.3251E-2  0.9823   
  10.53     0.2375E-1  0.9753     0.3382E-2  0.9827   
  10.54     0.2117E-1  0.9772     0.3537E-2  0.9832   
  10.56     0.1900E-1  0.9791     0.3720E-2  0.9836   
  10.57     0.1716E-1  0.9809     0.3936E-2  0.9841   
  10.59     0.1559E-1  0.9827     0.4192E-2  0.9846   
  10.60     0.1425E-1  0.9844     0.4494E-2  0.9851   
  10.62     0.1310E-1  0.9859     0.4853E-2  0.9856   
  10.63     0.1211E-1  0.9874     0.5280E-2  0.9862   
  10.65     0.1126E-1  0.9889     0.5790E-2  0.9867   
  10.66     0.1051E-1  0.9903     0.6400E-2  0.9873   
  10.68     0.9865E-2  0.9916     0.7132E-2  0.9878   
  10.69     0.9301E-2  0.9928     0.8009E-2  0.9883   
  10.71     0.8808E-2  0.9940     0.9060E-2  0.9887   
  10.72     0.8377E-2  0.9951     0.1031E-1  0.9890   
  10.74     0.8001E-2  0.9962     0.1177E-1  0.9892   
  10.75     0.7674E-2  0.9973     0.1343E-1  0.9890   
  10.77     0.7390E-2  0.9983     0.1523E-1  0.9884   
  10.78     0.7144E-2  0.9993     0.1705E-1  0.9872   
  10.80     0.6934E-2   1.000     0.1865E-1  0.9855   
  10.81     0.6757E-2   1.001     0.1975E-1  0.9832   
  10.83     0.6609E-2   1.002     0.2011E-1  0.9805   
  10.84     0.6490E-2   1.003     0.1963E-1  0.9779   
  10.86     0.6398E-2   1.004     0.1843E-1  0.9757   
  10.87     0.6332E-2   1.005     0.1676E-1  0.9740   
  10.89     0.6291E-2   1.006     0.1492E-1  0.9729   
  10.90     0.6275E-2   1.007     0.1310E-1  0.9724   
  10.92     0.6285E-2   1.008     0.1144E-1  0.9722   
  10.93     0.6320E-2   1.008     0.9989E-2  0.9723   
  10.95     0.6383E-2   1.009     0.8746E-2  0.9727   
  10.96     0.6474E-2   1.010     0.7697E-2  0.9731   
  10.98     0.6595E-2   1.011     0.6817E-2  0.9735   
  10.99     0.6749E-2   1.012     0.6079E-2  0.9740   
  11.01     0.6939E-2   1.013     0.5461E-2  0.9746   
  11.02     0.7169E-2   1.014     0.4940E-2  0.9751   
  11.04     0.7444E-2   1.015     0.4499E-2  0.9755   
  11.05     0.7770E-2   1.016     0.4125E-2  0.9760   
  11.07     0.8154E-2   1.017     0.3806E-2  0.9765   
  11.08     0.8606E-2   1.018     0.3533E-2  0.9769   
  11.10     0.9137E-2   1.019     0.3297E-2  0.9773   
  11.11     0.9761E-2   1.020     0.3095E-2  0.9777   
  11.13     0.1050E-1   1.022     0.2919E-2  0.9781   
  11.14     0.1136E-1   1.023     0.2767E-2  0.9785   
  11.16     0.1239E-1   1.024     0.2636E-2  0.9788   
  11.17     0.1360E-1   1.025     0.2522E-2  0.9792   
  11.19     0.1505E-1   1.027     0.2424E-2  0.9795   
  11.20     0.1679E-1   1.028     0.2340E-2  0.9799   
  11.22     0.1886E-1   1.029     0.2269E-2  0.9802   
  11.23     0.2134E-1   1.030     0.2209E-2  0.9805   
  11.25     0.2429E-1   1.031     0.2160E-2  0.9808   
  11.26     0.2779E-1   1.032     0.2122E-2  0.9811   
  11.28     0.3184E-1   1.032     0.2094E-2  0.9814   
  11.29     0.3639E-1   1.031     0.2076E-2  0.9817   
  11.31     0.4122E-1   1.029     0.2068E-2  0.9819   
  11.32     0.4591E-1   1.026     0.2071E-2  0.9822   
  11.34     0.4980E-1   1.020     0.2085E-2  0.9825   
  11.35     0.5214E-1   1.014     0.2111E-2  0.9828   
  11.37     0.5238E-1   1.007     0.2151E-2  0.9831   
  11.38     0.5047E-1   1.000     0.2206E-2  0.9834   
  11.40     0.4688E-1  0.9947     0.2279E-2  0.9836   
  11.41     0.4233E-1  0.9908     0.2371E-2  0.9839   
  11.43     0.3752E-1  0.9884     0.2488E-2  0.9842   
  11.44     0.3292E-1  0.9874     0.2633E-2  0.9845   
  11.46     0.2880E-1  0.9873     0.2812E-2  0.9848   
  11.47     0.2523E-1  0.9878     0.3031E-2  0.9851   
  11.49     0.2221E-1  0.9888     0.3300E-2  0.9854   
  11.50     0.1969E-1  0.9900     0.3626E-2  0.9856   
  11.52     0.1758E-1  0.9913     0.4020E-2  0.9858   
  11.53     0.1583E-1  0.9927     0.4488E-2  0.9860   
  11.55     0.1438E-1  0.9940     0.5031E-2  0.9861   
  11.56     0.1318E-1  0.9954     0.5639E-2  0.9860   
  11.58     0.1217E-1  0.9968     0.6278E-2  0.9858   
  11.59     0.1134E-1  0.9981     0.6882E-2  0.9853   
  11.61     0.1064E-1  0.9994     0.7358E-2  0.9847   
  11.62     0.1007E-1   1.001     0.7607E-2  0.9839   
  11.64     0.9595E-2   1.002     0.7566E-2  0.9830   
  11.65     0.9211E-2   1.003     0.7240E-2  0.9822   
  11.67     0.8904E-2   1.004     0.6705E-2  0.9815   
  11.68     0.8666E-2   1.005     0.6060E-2  0.9811   
  11.70     0.8490E-2   1.007     0.5395E-2  0.9809   
  11.71     0.8371E-2   1.008     0.4768E-2  0.9809   
  11.73     0.8306E-2   1.009     0.4209E-2  0.9809   
  11.74     0.8292E-2   1.010     0.3725E-2  0.9811   
  11.76     0.8329E-2   1.011     0.3314E-2  0.9813   
  11.77     0.8416E-2   1.012     0.2968E-2  0.9815   
  11.79     0.8554E-2   1.013     0.2678E-2  0.9817   
  11.80     0.8745E-2   1.015     0.2433E-2  0.9820   
  11.82     0.8994E-2   1.016     0.2227E-2  0.9822   
  11.83     0.9304E-2   1.017     0.2053E-2  0.9824   
  11.85     0.9682E-2   1.018     0.1904E-2  0.9827   
  11.86     0.1014E-1   1.019     0.1777E-2  0.9829   
  11.88     0.1068E-1   1.021     0.1668E-2  0.9831   
  11.89     0.1132E-1   1.022     0.1574E-2  0.9833   
  11.91     0.1207E-1   1.024     0.1492E-2  0.9835   
  11.92     0.1296E-1   1.025     0.1421E-2  0.9837   
  11.94     0.1400E-1   1.027     0.1360E-2  0.9839   
  11.95     0.1524E-1   1.028     0.1306E-2  0.9841   
  11.97     0.1670E-1   1.030     0.1259E-2  0.9843   
  11.98     0.1844E-1   1.032     0.1218E-2  0.9844   
  12.00     0.2051E-1   1.033     0.1183E-2  0.9846   
  12.01     0.2299E-1   1.035     0.1152E-2  0.9848   
  12.03     0.2595E-1   1.037     0.1126E-2  0.9849   
  12.04     0.2949E-1   1.038     0.1104E-2  0.9851   
  12.06     0.3371E-1   1.039     0.1086E-2  0.9852   
  12.07     0.3867E-1   1.040     0.1072E-2  0.9854   
  12.09     0.4440E-1   1.040     0.1061E-2  0.9855   
  12.10     0.5078E-1   1.038     0.1054E-2  0.9857   
  12.12     0.5747E-1   1.035     0.1050E-2  0.9858   
  12.13     0.6382E-1   1.030     0.1051E-2  0.9860   
  12.15     0.6888E-1   1.022     0.1056E-2  0.9861   
  12.16     0.7163E-1   1.013     0.1065E-2  0.9863   
  12.18     0.7144E-1   1.003     0.1079E-2  0.9864   
  12.19     0.6836E-1  0.9941     0.1099E-2  0.9866   
  12.21     0.6314E-1  0.9869     0.1125E-2  0.9867   
  12.22     0.5680E-1  0.9819     0.1158E-2  0.9869   
  12.24     0.5026E-1  0.9790     0.1200E-2  0.9870   
  12.25     0.4410E-1  0.9778     0.1252E-2  0.9872   
  12.27     0.3864E-1  0.9779     0.1316E-2  0.9873   
  12.28     0.3395E-1  0.9787     0.1395E-2  0.9875   
  12.30     0.3001E-1  0.9801     0.1491E-2  0.9876   
  12.31     0.2674E-1  0.9818     0.1608E-2  0.9878   
  12.33     0.2404E-1  0.9836     0.1751E-2  0.9879   
  12.34     0.2183E-1  0.9856     0.1922E-2  0.9880   
  12.36     0.2003E-1  0.9875     0.2127E-2  0.9881   
  12.37     0.1856E-1  0.9895     0.2365E-2  0.9882   
  12.39     0.1739E-1  0.9914     0.2634E-2  0.9882   
  12.40     0.1646E-1  0.9933     0.2919E-2  0.9881   
  12.42     0.1574E-1  0.9952     0.3194E-2  0.9880   
  12.43     0.1521E-1  0.9971     0.3420E-2  0.9877   
  12.45     0.1485E-1  0.9989     0.3550E-2  0.9874   
  12.46     0.1465E-1   1.001     0.3553E-2  0.9870   
  12.48     0.1460E-1   1.003     0.3427E-2  0.9867   
  12.49     0.1470E-1   1.004     0.3199E-2  0.9864   
  12.51     0.1495E-1   1.006     0.2916E-2  0.9862   
  12.52     0.1535E-1   1.008     0.2618E-2  0.9862   
  12.54     0.1593E-1   1.010     0.2334E-2  0.9861   
  12.55     0.1670E-1   1.012     0.2079E-2  0.9862   
  12.57     0.1768E-1   1.014     0.1858E-2  0.9863   
  12.58     0.1890E-1   1.016     0.1669E-2  0.9864   
  12.60     0.2041E-1   1.018     0.1511E-2  0.9865   
  12.61     0.2226E-1   1.020     0.1377E-2  0.9866   
  12.63     0.2451E-1   1.022     0.1265E-2  0.9868   
  12.64     0.2726E-1   1.024     0.1170E-2  0.9869   
  12.66     0.3058E-1   1.026     0.1090E-2  0.9870   
  12.67     0.3459E-1   1.028     0.1022E-2  0.9872   
  12.69     0.3940E-1   1.029     0.9643E-3  0.9873   
  12.70     0.4509E-1   1.030     0.9144E-3  0.9874   
  12.72     0.5168E-1   1.029     0.8714E-3  0.9875   
  12.73     0.5900E-1   1.027     0.8342E-3  0.9876   
  12.75     0.6664E-1   1.023     0.8019E-3  0.9877   
  12.76     0.7381E-1   1.016     0.7738E-3  0.9878   
  12.78     0.7939E-1   1.007     0.7492E-3  0.9880   
  12.79     0.8221E-1  0.9964     0.7278E-3  0.9881   
  12.81     0.8158E-1  0.9849     0.7090E-3  0.9882   
  12.82     0.7763E-1  0.9744     0.6927E-3  0.9883   
  12.84     0.7127E-1  0.9660     0.6785E-3  0.9884   
  12.85     0.6369E-1  0.9601     0.6663E-3  0.9885   
  12.87     0.5593E-1  0.9567     0.6558E-3  0.9886   
  12.88     0.4865E-1  0.9551     0.6470E-3  0.9886   
  12.90     0.4217E-1  0.9549     0.6396E-3  0.9887   
  12.91     0.3659E-1  0.9557     0.6337E-3  0.9888   
  12.93     0.3186E-1  0.9569     0.6292E-3  0.9889   
  12.94     0.2788E-1  0.9585     0.6260E-3  0.9890   
  12.96     0.2455E-1  0.9603     0.6242E-3  0.9891   
  12.97     0.2175E-1  0.9621     0.6237E-3  0.9892   
  12.99     0.1940E-1  0.9639     0.6245E-3  0.9893   
  13.00     0.1741E-1  0.9656     0.6268E-3  0.9894   
  13.02     0.1573E-1  0.9673     0.6306E-3  0.9895   
  13.03     0.1429E-1  0.9689     0.6361E-3  0.9896   
  13.05     0.1306E-1  0.9705     0.6432E-3  0.9896   
  13.06     0.1200E-1  0.9719     0.6523E-3  0.9897   
  13.08     0.1108E-1  0.9733     0.6635E-3  0.9898   
  13.09     0.1029E-1  0.9746     0.6770E-3  0.9899   
  13.11     0.9602E-2  0.9758     0.6931E-3  0.9900   
  13.12     0.9001E-2  0.9770     0.7119E-3  0.9901   
  13.14     0.8477E-2  0.9781     0.7337E-3  0.9902   
  13.15     0.8017E-2  0.9792     0.7585E-3  0.9903   
  13.17     0.7612E-2  0.9802     0.7859E-3  0.9904   
  13.18     0.7252E-2  0.9811     0.8159E-3  0.9905   
  13.20     0.6927E-2  0.9821     0.8483E-3  0.9906   
  13.21     0.6633E-2  0.9829     0.8835E-3  0.9907   
  13.23     0.6366E-2  0.9838     0.9227E-3  0.9908   
  13.24     0.6124E-2  0.9846     0.9676E-3  0.9909   
  13.26     0.5908E-2  0.9854     0.1020E-2  0.9910   
  13.27     0.5717E-2  0.9862     0.1083E-2  0.9911   
  13.29     0.5551E-2  0.9870     0.1158E-2  0.9913   
  13.30     0.5409E-2  0.9877     0.1249E-2  0.9914   
  13.32     0.5290E-2  0.9885     0.1358E-2  0.9915   
  13.33     0.5193E-2  0.9892     0.1489E-2  0.9917   
  13.35     0.5117E-2  0.9899     0.1647E-2  0.9918   
  13.36     0.5061E-2  0.9906     0.1837E-2  0.9919   
  13.38     0.5027E-2  0.9913     0.2065E-2  0.9920   
  13.39     0.5012E-2  0.9921     0.2335E-2  0.9921   
  13.41     0.5018E-2  0.9928     0.2652E-2  0.9921   
  13.42     0.5046E-2  0.9935     0.3013E-2  0.9921   
  13.44     0.5096E-2  0.9942     0.3404E-2  0.9920   
  13.45     0.5170E-2  0.9949     0.3798E-2  0.9918   
  13.47     0.5271E-2  0.9956     0.4146E-2  0.9914   
  13.48     0.5400E-2  0.9963     0.4385E-2  0.9909   
  13.50     0.5561E-2  0.9971     0.4463E-2  0.9904   
  13.51     0.5758E-2  0.9978     0.4359E-2  0.9898   
  13.53     0.5996E-2  0.9986     0.4099E-2  0.9893   
  13.54     0.6282E-2  0.9994     0.3740E-2  0.9890   
  13.56     0.6623E-2   1.000     0.3341E-2  0.9888   
  13.57     0.7028E-2   1.001     0.2949E-2  0.9887   
  13.59     0.7510E-2   1.002     0.2590E-2  0.9887   
  13.60     0.8083E-2   1.003     0.2276E-2  0.9887   
  13.62     0.8765E-2   1.004     0.2008E-2  0.9888   
  13.63     0.9580E-2   1.005     0.1782E-2  0.9889   
  13.65     0.1055E-1   1.006     0.1593E-2  0.9890   
  13.66     0.1172E-1   1.007     0.1435E-2  0.9891   
  13.68     0.1313E-1   1.007     0.1302E-2  0.9893   
  13.69     0.1481E-1   1.008     0.1191E-2  0.9894   
  13.71     0.1683E-1   1.009     0.1097E-2  0.9895   
  13.72     0.1921E-1   1.009     0.1017E-2  0.9896   
  13.74     0.2199E-1   1.009     0.9499E-3  0.9898   
  13.75     0.2513E-1   1.009     0.8923E-3  0.9899   
  13.77     0.2848E-1   1.008     0.8431E-3  0.9900   
  13.78     0.3176E-1   1.005     0.8010E-3  0.9901   
  13.80     0.3452E-1   1.002     0.7648E-3  0.9902   
  13.81     0.3624E-1  0.9971     0.7339E-3  0.9903   
  13.83     0.3652E-1  0.9921     0.7074E-3  0.9904   
  13.84     0.3528E-1  0.9874     0.6849E-3  0.9905   
  13.86     0.3283E-1  0.9834     0.6659E-3  0.9906   
  13.87     0.2966E-1  0.9806     0.6500E-3  0.9907   
  13.89     0.2628E-1  0.9788     0.6370E-3  0.9908   
  13.90     0.2304E-1  0.9780     0.6266E-3  0.9908   
  13.92     0.2011E-1  0.9778     0.6188E-3  0.9909   
  13.93     0.1758E-1  0.9781     0.6133E-3  0.9910   
  13.95     0.1544E-1  0.9787     0.6102E-3  0.9911   
  13.96     0.1365E-1  0.9794     0.6093E-3  0.9912   
  13.98     0.1217E-1  0.9802     0.6108E-3  0.9913   
  13.99     0.1096E-1  0.9810     0.6144E-3  0.9914   
  14.01     0.9950E-2  0.9819     0.6201E-3  0.9914   
  14.02     0.9115E-2  0.9827     0.6276E-3  0.9915   
  14.04     0.8412E-2  0.9834     0.6367E-3  0.9916   
  14.05     0.7800E-2  0.9840     0.6470E-3  0.9917   
  14.07     0.7249E-2  0.9847     0.6585E-3  0.9918   
  14.08     0.6736E-2  0.9852     0.6713E-3  0.9919   
  14.10     0.6253E-2  0.9858     0.6861E-3  0.9919   
  14.11     0.5801E-2  0.9864     0.7037E-3  0.9920   
  14.13     0.5386E-2  0.9869     0.7247E-3  0.9921   
  14.14     0.5011E-2  0.9875     0.7499E-3  0.9922   
  14.16     0.4677E-2  0.9880     0.7800E-3  0.9923   
  14.17     0.4381E-2  0.9886     0.8159E-3  0.9924   
  14.19     0.4121E-2  0.9891     0.8582E-3  0.9925   
  14.20     0.3892E-2  0.9896     0.9082E-3  0.9926   
  14.22     0.3689E-2  0.9901     0.9669E-3  0.9928   
  14.23     0.3511E-2  0.9906     0.1036E-2  0.9929   
  14.25     0.3352E-2  0.9911     0.1118E-2  0.9930   
  14.26     0.3211E-2  0.9915     0.1214E-2  0.9931   
  14.28     0.3086E-2  0.9919     0.1329E-2  0.9933   
  14.29     0.2973E-2  0.9924     0.1465E-2  0.9934   
  14.31     0.2873E-2  0.9928     0.1628E-2  0.9935   
  14.32     0.2783E-2  0.9932     0.1822E-2  0.9937   
  14.34     0.2702E-2  0.9936     0.2055E-2  0.9938   
  14.35     0.2629E-2  0.9939     0.2334E-2  0.9939   
  14.37     0.2564E-2  0.9943     0.2666E-2  0.9940   
  14.38     0.2505E-2  0.9947     0.3054E-2  0.9940   
  14.40     0.2452E-2  0.9950     0.3499E-2  0.9940   
  14.41     0.2405E-2  0.9954     0.3988E-2  0.9938   
  14.43     0.2363E-2  0.9957     0.4487E-2  0.9935   
  14.44     0.2326E-2  0.9961     0.4940E-2  0.9931   
  14.46     0.2293E-2  0.9964     0.5270E-2  0.9924   
  14.47     0.2264E-2  0.9968     0.5407E-2  0.9917   
  14.49     0.2239E-2  0.9971     0.5316E-2  0.9910   
  14.50     0.2218E-2  0.9974     0.5019E-2  0.9903   
  14.52     0.2200E-2  0.9977     0.4582E-2  0.9898   
  14.53     0.2185E-2  0.9981     0.4083E-2  0.9895   
  14.55     0.2174E-2  0.9984     0.3583E-2  0.9893   
  14.56     0.2165E-2  0.9987     0.3122E-2  0.9893   
  14.58     0.2160E-2  0.9990     0.2715E-2  0.9893   
  14.59     0.2157E-2  0.9993     0.2366E-2  0.9893   
  14.61     0.2157E-2  0.9997     0.2070E-2  0.9894   
  14.62     0.2160E-2   1.000     0.1822E-2  0.9896   
  14.64     0.2166E-2   1.000     0.1614E-2  0.9897   
  14.65     0.2175E-2   1.001     0.1439E-2  0.9898   
  14.67     0.2187E-2   1.001     0.1292E-2  0.9899   
  14.68     0.2201E-2   1.001     0.1167E-2  0.9901   
  14.70     0.2219E-2   1.002     0.1060E-2  0.9902   
  14.71     0.2239E-2   1.002     0.9691E-3  0.9903   
  14.73     0.2263E-2   1.002     0.8905E-3  0.9904   
  14.74     0.2289E-2   1.003     0.8225E-3  0.9905   
  14.76     0.2320E-2   1.003     0.7632E-3  0.9906   
  14.77     0.2353E-2   1.003     0.7112E-3  0.9907   
  14.79     0.2390E-2   1.004     0.6655E-3  0.9908   
  14.80     0.2432E-2   1.004     0.6251E-3  0.9909   
  14.82     0.2477E-2   1.004     0.5892E-3  0.9909   
  14.83     0.2526E-2   1.005     0.5571E-3  0.9910   
  14.85     0.2580E-2   1.005     0.5284E-3  0.9911   
  14.86     0.2639E-2   1.005     0.5026E-3  0.9912   
  14.88     0.2704E-2   1.006     0.4793E-3  0.9912   
  14.89     0.2774E-2   1.006     0.4582E-3  0.9913   
  14.91     0.2850E-2   1.007     0.4390E-3  0.9914   
  14.92     0.2933E-2   1.007     0.4215E-3  0.9914   
  14.94     0.3023E-2   1.007     0.4055E-3  0.9915   
  14.95     0.3121E-2   1.008     0.3909E-3  0.9915   
  14.97     0.3228E-2   1.008     0.3774E-3  0.9916   
  14.98     0.3344E-2   1.009     0.3650E-3  0.9916   
  15.00     0.3471E-2   1.009     0.3535E-3  0.9917   
# 
# 03/01/2017 at 15:53 YAMBO @ anomaly [start]
# 03/01/2017 at 15:53                 [end]
#  
# Timing   [Min/Max/Average]: 05s/05s/05s
#
# .-Input file : yambo.in
# | optics                       # [R OPT] Optics
# | bse                          # [R BSE] Bethe Salpeter Equation.
# | bsk                          # [R BSK] Bethe Salpeter Equation kernel
# | bss                          # [R BSS] Bethe Salpeter Equation solver
# | BoseTemp= 0.000000     eV    # Bosonic Temperature
# | FFTGvecs=  9939        RL    # [FFT] Plane-waves
# | X_Threads= 1                 # [OPENMP/X] Number of threads for response functions
# | DIP_Threads= 1               # [OPENMP/X] Number of threads for dipoles
# | NonPDirs= "XYZ"              # [X/BSS] Non periodic chartesian directions (X,Y,Z,XY...)
# | BSEmod= "retarded"           # [BSE] resonant/retarded/coupling
# | BSKmod= "Hartree"            # [BSE] IP/Hartree/HF/ALDA/SEX/BSfxc
# | BSSmod= "hd"                 # [BSS] (h)aydock/(d)iagonalization/(i)nversion/(t)ddft`
# | BSENGexx=  9045        RL    # [BSK] Exchange components
# | % BEnRange
# |   0.00000 | 15.00000 | eV    # [BSS] Energy range
# | %
# | % BDmRange
# |   0.10000 |  0.10000 | eV    # [BSS] Damping range
# | %
# | BEnSteps= 1000               # [BSS] Energy steps
# | % BLongDir
# | 0.1000E-4 | 0.000    | 0.000    |        # [BSS] [cc] Electric Field
# | %
# | % BSEBands
# |    1 | 200 |                 # [BSK] Bands range
# | %
# | BSHayTrs=0.1000E-2           # [BSS] Relative [o/o] Haydock treshold. Strict(>0)/Average(<0)
