#                                                           
#  **    **    **     ****     ****  ******     *******     
# //**  **    ****   /**/**   **/** /*////**   **/////**    
#  //****    **//**  /**//** ** /** /*   /**  **     //**   
#   //**    **  //** /** //***  /** /******  /**      /**   
#    /**   **********/**  //*   /** /*//// **/**      /**   
#    /**  /**//////**/**   /    /** /*    /**//**     **    
#    /**  /**     /**/**        /** /*******  //*******     
#    //   //      // //         //  ///////    ///////      
#                                                           
#        Version 4.2.0 Revision 14319 Hash 8432f48          
#                  MPI+SLK+OpenMP Build                     
#                http://www.yambo-code.org                  
#
# Polarizability ( -<<X>> ) [volume @ Q(1) [q->0 direction]0.1000E-4  0.000     0.000   
#
#
# - Energies      are Teter 93(XC)
# - Wavefunctions are Teter 93(XC)
#
# - The Green`s function is Retarded -
# - Using the Length Gauge -
# - [r,Vnl] *is* included -
#
#   BSK|Identifier              :6493
#      |Dimension               :199
#      |Bands                   :1 - 200
#      |Exchange           [res]: yes
#      |Correlation        [res]: no
#      |Kernel`s coupling       : no
#      |Exchange           [cpl]: no
#      |Correlation        [cpl]: no
#      |W interaction is bare   : no
#      |ALDA kernel in R-space  : no
#      |RL vectors    [exchange]:9045
#      |E/h energy range    [ev]:-1.000000 - -1.000000
#      |Coupling range     [o/o]: 100.0000 -  100.0000
#
#  E/ev[1]    ALPHA-Im[2]ALPHA-Re[3]ALPHAo-Im[4ALPHAo-Re[5]
#
   0.00000    0.00000   12.80394    0.00000   20.54934
 0.1502E-1  0.2552E-3   12.80     0.9184E-3   20.55   
 0.3003E-1  0.5104E-3   12.80     0.1837E-2   20.55   
 0.4505E-1  0.7657E-3   12.80     0.2755E-2   20.55   
 0.6006E-1  0.1021E-2   12.80     0.3674E-2   20.55   
 0.7508E-1  0.1276E-2   12.80     0.4593E-2   20.55   
 0.9009E-1  0.1531E-2   12.80     0.5512E-2   20.55   
 0.1051     0.1787E-2   12.80     0.6431E-2   20.55   
 0.1201     0.2042E-2   12.81     0.7351E-2   20.55   
 0.1351     0.2298E-2   12.81     0.8270E-2   20.55   
 0.1502     0.2553E-2   12.81     0.9191E-2   20.56   
 0.1652     0.2809E-2   12.81     0.1011E-1   20.56   
 0.1802     0.3064E-2   12.81     0.1103E-1   20.56   
 0.1952     0.3320E-2   12.81     0.1195E-1   20.56   
 0.2102     0.3576E-2   12.81     0.1288E-1   20.56   
 0.2252     0.3831E-2   12.81     0.1380E-1   20.56   
 0.2402     0.4087E-2   12.81     0.1472E-1   20.57   
 0.2553     0.4343E-2   12.81     0.1564E-1   20.57   
 0.2703     0.4599E-2   12.81     0.1657E-1   20.57   
 0.2853     0.4855E-2   12.81     0.1749E-1   20.57   
 0.3003     0.5112E-2   12.81     0.1842E-1   20.58   
 0.3153     0.5368E-2   12.81     0.1935E-1   20.58   
 0.3303     0.5624E-2   12.81     0.2027E-1   20.58   
 0.3453     0.5881E-2   12.81     0.2120E-1   20.59   
 0.3604     0.6138E-2   12.81     0.2213E-1   20.59   
 0.3754     0.6395E-2   12.82     0.2306E-1   20.59   
 0.3904     0.6652E-2   12.82     0.2399E-1   20.60   
 0.4054     0.6909E-2   12.82     0.2492E-1   20.60   
 0.4204     0.7166E-2   12.82     0.2585E-1   20.60   
 0.4354     0.7423E-2   12.82     0.2679E-1   20.61   
 0.4505     0.7681E-2   12.82     0.2772E-1   20.61   
 0.4655     0.7939E-2   12.82     0.2866E-1   20.62   
 0.4805     0.8197E-2   12.82     0.2960E-1   20.62   
 0.4955     0.8455E-2   12.82     0.3053E-1   20.62   
 0.5105     0.8713E-2   12.83     0.3147E-1   20.63   
 0.5255     0.8971E-2   12.83     0.3241E-1   20.63   
 0.5405     0.9230E-2   12.83     0.3336E-1   20.64   
 0.5556     0.9489E-2   12.83     0.3430E-1   20.64   
 0.5706     0.9748E-2   12.83     0.3525E-1   20.65   
 0.5856     0.1001E-1   12.83     0.3619E-1   20.65   
 0.6006     0.1027E-1   12.83     0.3714E-1   20.66   
 0.6156     0.1053E-1   12.84     0.3809E-1   20.67   
 0.6306     0.1079E-1   12.84     0.3904E-1   20.67   
 0.6456     0.1105E-1   12.84     0.3999E-1   20.68   
 0.6607     0.1131E-1   12.84     0.4095E-1   20.68   
 0.6757     0.1157E-1   12.84     0.4190E-1   20.69   
 0.6907     0.1183E-1   12.84     0.4286E-1   20.70   
 0.7057     0.1209E-1   12.85     0.4382E-1   20.70   
 0.7207     0.1235E-1   12.85     0.4478E-1   20.71   
 0.7357     0.1261E-1   12.85     0.4575E-1   20.72   
 0.7508     0.1287E-1   12.85     0.4671E-1   20.72   
 0.7658     0.1314E-1   12.85     0.4768E-1   20.73   
 0.7808     0.1340E-1   12.86     0.4865E-1   20.74   
 0.7958     0.1366E-1   12.86     0.4962E-1   20.74   
 0.8108     0.1392E-1   12.86     0.5059E-1   20.75   
 0.8258     0.1419E-1   12.86     0.5157E-1   20.76   
 0.8408     0.1445E-1   12.86     0.5255E-1   20.77   
 0.8559     0.1472E-1   12.87     0.5353E-1   20.78   
 0.8709     0.1498E-1   12.87     0.5451E-1   20.78   
 0.8859     0.1524E-1   12.87     0.5549E-1   20.79   
 0.9009     0.1551E-1   12.87     0.5648E-1   20.80   
 0.9159     0.1577E-1   12.88     0.5747E-1   20.81   
 0.9309     0.1604E-1   12.88     0.5846E-1   20.82   
 0.9459     0.1631E-1   12.88     0.5946E-1   20.83   
 0.9610     0.1657E-1   12.88     0.6045E-1   20.84   
 0.9760     0.1684E-1   12.89     0.6145E-1   20.84   
 0.9910     0.1711E-1   12.89     0.6245E-1   20.85   
  1.006     0.1737E-1   12.89     0.6346E-1   20.86   
  1.021     0.1764E-1   12.89     0.6447E-1   20.87   
  1.036     0.1791E-1   12.90     0.6548E-1   20.88   
  1.051     0.1818E-1   12.90     0.6649E-1   20.89   
  1.066     0.1845E-1   12.90     0.6750E-1   20.90   
  1.081     0.1872E-1   12.90     0.6852E-1   20.91   
  1.096     0.1899E-1   12.91     0.6955E-1   20.92   
  1.111     0.1926E-1   12.91     0.7057E-1   20.93   
  1.126     0.1953E-1   12.91     0.7160E-1   20.94   
  1.141     0.1980E-1   12.92     0.7263E-1   20.96   
  1.156     0.2007E-1   12.92     0.7366E-1   20.97   
  1.171     0.2034E-1   12.92     0.7470E-1   20.98   
  1.186     0.2061E-1   12.92     0.7574E-1   20.99   
  1.201     0.2089E-1   12.93     0.7678E-1   21.00   
   1.21622    0.02116   12.93111    0.07783   21.01180
   1.23123    0.02143   12.93430    0.07888   21.02351
   1.24625    0.02171   12.93756    0.07993   21.03544
   1.26126    0.02198   12.94090    0.08099   21.04760
   1.27628    0.02226   12.94423    0.08205   21.05975
   1.29129    0.02253   12.94757    0.08312   21.07205
   1.30631    0.02281   12.95090    0.08419   21.08465
   1.32132    0.02309   12.95438    0.08526   21.09740
   1.33634    0.02336   12.95787    0.08633   21.11029
   1.35135    0.02364   12.96135    0.08741   21.12334
   1.36637    0.02392   12.96498    0.08850   21.13653
   1.38138    0.02420   12.96861    0.08958   21.14987
   1.39640    0.02448   12.97225    0.09067   21.16343
   1.41141    0.02476   12.97588    0.09177   21.17707
   1.42643    0.02504   12.97966    0.09287   21.19093
   1.44144    0.02532   12.98336    0.09397   21.20501
   1.45646    0.02560   12.98714    0.09508   21.21916
   1.47147    0.02588   12.99107    0.09619   21.23347
   1.48649    0.02617   12.99500    0.09731   21.24800
   1.50150    0.02645   12.99893    0.09843   21.26274
   1.51652    0.02673   13.00300    0.09956   21.27757
   1.53153    0.02702   13.00693    0.10069   21.29261
   1.54655    0.02730   13.01108    0.10182   21.30780
   1.56156    0.02759   13.01516    0.10296   21.32314
   1.57658    0.02787   13.01938    0.10410   21.33863
   1.59159    0.02816   13.02361    0.10525   21.35435
   1.60661    0.02845   13.02783    0.10640   21.37021
   1.62162    0.02874   13.03198    0.10756   21.38629
   1.63664    0.02903   13.03635    0.10873   21.40259
   1.65165    0.02932   13.04072    0.10989   21.41890
   1.66667    0.02961   13.04525    0.11107   21.43550
   1.68168    0.02990   13.04969    0.11225   21.45225
   1.69670    0.03019   13.05421    0.11343   21.46915
   1.71171    0.03048   13.05873    0.11462   21.48634
   1.72673    0.03077   13.06333    0.11581   21.50353
   1.74174    0.03107   13.06800    0.11701   21.52095
   1.75676    0.03136   13.07267    0.11822   21.53874
   1.77177    0.03166   13.07741    0.11943   21.55645
   1.78679    0.03195   13.08223    0.12065   21.57453
   1.80180    0.03225   13.08704    0.12187   21.59269
   1.81682    0.03255   13.09179    0.12310   21.61115
   1.83183    0.03284   13.09675    0.12433   21.62960
   1.84685    0.03314   13.10164    0.12557   21.64835
   1.86186    0.03344   13.10676    0.12682   21.66740
   1.87688    0.03374   13.11172    0.12807   21.68644
   1.89189    0.03404   13.11676    0.12933   21.70571
   1.90691    0.03435   13.12203    0.13059   21.72535
   1.92192    0.03465   13.12707    0.13186   21.74492
   1.93694    0.03495   13.13248    0.13314   21.76485
   1.95195    0.03526   13.13766    0.13442   21.78486
   1.96697    0.03556   13.14285    0.13571   21.80517
   1.98198    0.03587   13.14826    0.13701   21.82563
   1.99700    0.03618   13.15375    0.13831   21.84623
   2.01201    0.03648   13.15916    0.13962   21.86713
   2.02703    0.03679   13.16464    0.14094   21.88818
   2.04204    0.03710   13.17020    0.14226   21.90945
   2.05706    0.03741   13.17583    0.14359   21.93094
   2.07207    0.03772   13.18146    0.14493   21.95251
   2.08709    0.03804   13.18717    0.14628   21.97444
   2.10210    0.03835   13.19280    0.14763   21.99645
   2.11712    0.03866   13.19858    0.14899   22.01861
   2.13213    0.03898   13.20444    0.15036   22.04107
   2.14715    0.03929   13.21037    0.15173   22.06382
   2.16216    0.03961   13.21630    0.15311   22.08672
   2.17718    0.03993   13.22223    0.15450   22.10970
   2.19219    0.04025   13.22823    0.15590   22.13304
   2.20721    0.04057   13.23431    0.15731   22.15646
   2.22222    0.04089   13.24038    0.15872   22.18018
   2.23724    0.04121   13.24661    0.16015   22.20427
   2.25225    0.04153   13.25284    0.16158   22.22828
   2.26727    0.04186   13.25913    0.16302   22.25266
   2.28228    0.04218   13.26536    0.16446   22.27712
   2.29730    0.04251   13.27173    0.16592   22.30202
   2.31231    0.04283   13.27811    0.16739   22.32707
   2.32733    0.04316   13.28463    0.16886   22.35219
   2.34234    0.04349   13.29100    0.17034   22.37761
   2.35736    0.04382   13.29767    0.17183   22.40333
   2.37237    0.04415   13.30419    0.17333   22.42927
   2.38739    0.04448   13.31086    0.17484   22.45536
   2.40240    0.04482   13.31761    0.17636   22.48167
   2.41742    0.04515   13.32443    0.17789   22.50827
   2.43243    0.04549   13.33125    0.17943   22.53510
   2.44745    0.04582   13.33806    0.18098   22.56215
   2.46246    0.04616   13.34488    0.18253   22.58943
   2.47748    0.04650   13.35177    0.18410   22.61685
   2.49249    0.04684   13.35889    0.18568   22.64457
   2.50751    0.04718   13.36586    0.18727   22.67258
   2.52252    0.04752   13.37297    0.18886   22.70074
   2.53754    0.04787   13.38023    0.19047   22.72928
   2.55255    0.04821   13.38735    0.19209   22.75803
   2.56757    0.04856   13.39461    0.19372   22.78686
   2.58258    0.04891   13.40202    0.19536   22.81599
   2.59760    0.04925   13.40936    0.19701   22.84556
   2.61261    0.04960   13.41677    0.19867   22.87513
   2.62763    0.04996   13.42418    0.20035   22.90515
   2.64264    0.05031   13.43174    0.20203   22.93524
   2.65766    0.05066   13.43930    0.20373   22.96569
   2.67267    0.05102   13.44693    0.20544   22.99638
   2.68769    0.05137   13.45464    0.20715   23.02736
   2.70270    0.05173   13.46235    0.20889   23.05863
   2.71772    0.05209   13.47013    0.21063   23.09006
   2.73273    0.05245   13.47799    0.21238   23.12178
   2.74775    0.05281   13.48599    0.21415   23.15372
   2.76276    0.05318   13.49377    0.21593   23.18596
   2.77778    0.05354   13.50193    0.21772   23.21857
   2.79279    0.05391   13.50993    0.21953   23.25133
   2.80781    0.05427   13.51801    0.22135   23.28445
   2.82282    0.05464   13.52631    0.22318   23.31773
   2.83784    0.05501   13.53439    0.22503   23.35138
   2.85285    0.05539   13.54269    0.22688   23.38524
   2.86787    0.05576   13.55106    0.22875   23.41949
   2.88288    0.05613   13.55951    0.23064   23.45387
   2.89790    0.05651   13.56789    0.23254   23.48871
   2.91291    0.05689   13.57648    0.23445   23.52361
   2.92793    0.05727   13.58501    0.23638   23.55904
   2.94294    0.05765   13.59360    0.23832   23.59469
   2.95796    0.05803   13.60227    0.24028   23.63048
   2.97297    0.05841   13.61109    0.24225   23.66672
   2.98799    0.05880   13.61984    0.24424   23.70326
   3.00300    0.05919   13.62866    0.24624   23.74002
   3.01802    0.05958   13.63763    0.24826   23.77708
   3.03303    0.05997   13.64667    0.25029   23.81443
   3.04805    0.06036   13.65563    0.25234   23.85208
   3.06306    0.06075   13.66475    0.25440   23.89017
   3.07808    0.06115   13.67387    0.25649   23.92856
   3.09309    0.06154   13.68306    0.25858   23.96717
   3.10811    0.06194   13.69232    0.26070   24.00608
   3.12312    0.06234   13.70158    0.26283   24.04529
   3.13814    0.06275   13.71100    0.26498   24.08494
   3.15315    0.06315   13.72041    0.26714   24.12481
   3.16817    0.06356   13.72997    0.26932   24.16505
   3.18318    0.06396   13.73960    0.27152   24.20567
   3.19820    0.06437   13.74916    0.27374   24.24650
   3.21321    0.06478   13.75887    0.27598   24.28771
   3.22823    0.06520   13.76873    0.27823   24.32929
   3.24324    0.06561   13.77844    0.28051   24.37123
   3.25826    0.06603   13.78830    0.28280   24.41355
   3.27327    0.06645   13.79830    0.28511   24.45609
   3.28829    0.06687   13.80831    0.28744   24.49900
   3.30330    0.06729   13.81846    0.28979   24.54229
   3.31832    0.06772   13.82846    0.29216   24.58587
   3.33333    0.06814   13.83869    0.29455   24.62989
   3.34835    0.06857   13.84899    0.29696   24.67443
   3.36336    0.06900   13.85929    0.29939   24.71919
   3.37838    0.06943   13.86960    0.30185   24.76433
   3.39339    0.06987   13.88020    0.30432   24.80976
   3.40841    0.07031   13.89065    0.30682   24.85556
   3.42342    0.07074   13.90117    0.30933   24.90166
   3.43844    0.07119   13.91191    0.31187   24.94835
   3.45345    0.07163   13.92266    0.31443   24.99533
   3.46847    0.07207   13.93333    0.31702   25.04262
   3.48348    0.07252   13.94423    0.31962   25.09042
   3.49850    0.07297   13.95512    0.32226   25.13852
   3.51351    0.07342   13.96609    0.32491   25.18699
   3.52853    0.07388   13.97713    0.32759   25.23598
   3.54354    0.07433   13.98825    0.33029   25.28534
   3.55856    0.07479   13.99944    0.33302   25.33514
   3.57357    0.07525   14.01078    0.33577   25.38516
   3.58859    0.07571   14.02205    0.33855   25.43586
   3.60360    0.07618   14.03346    0.34135   25.48670
   3.61862    0.07665   14.04495    0.34418   25.53821
   3.63363    0.07712   14.05651    0.34704   25.58994
   3.64865    0.07759   14.06814    0.34992   25.64226
   3.66366    0.07806   14.07971    0.35283   25.69488
   3.67868    0.07854   14.09142    0.35576   25.74809
   3.69369    0.07902   14.10335    0.35873   25.80168
   3.70871    0.07950   14.11520    0.36172   25.85563
   3.72372    0.07999   14.12721    0.36474   25.91025
   3.73874    0.08048   14.13929    0.36780   25.96509
   3.75375    0.08097   14.15145    0.37088   26.02053
   3.76877    0.08146   14.16360    0.37399   26.07634
   3.78378    0.08195   14.17575    0.37713   26.13259
   3.79880    0.08245   14.18806    0.38030   26.18943
   3.81381    0.08295   14.20051    0.38350   26.24664
   3.82883    0.08345   14.21296    0.38674   26.30445
   3.84384    0.08396   14.22563    0.39000   26.36271
   3.85886    0.08447   14.23823    0.39330   26.42148
   3.87387    0.08498   14.25098    0.39663   26.48069
   3.88889    0.08549   14.26373    0.40000   26.54043
   3.90390    0.08601   14.27655    0.40340   26.60068
   3.91892    0.08653   14.28959    0.40683   26.66138
   3.93393    0.08705   14.30264    0.41030   26.72274
   3.94895    0.08758   14.31568    0.41381   26.78441
   3.96396    0.08811   14.32887    0.41735   26.84673
   3.97898    0.08864   14.34221    0.42093   26.90958
   3.99399    0.08917   14.35555    0.42454   26.97302
   4.00901    0.08971   14.36897    0.42819   27.03683
   4.02402    0.09025   14.38245    0.43188   27.10138
   4.03904    0.09080   14.39609    0.43561   27.16645
   4.05405    0.09134   14.40965    0.43938   27.23197
   4.06907    0.09189   14.42344    0.44319   27.29823
   4.08408    0.09244   14.43722    0.44704   27.36500
   4.09910    0.09300   14.45123    0.45093   27.43229
   4.11411    0.09356   14.46516    0.45487   27.50026
   4.12913    0.09412   14.47917    0.45884   27.56866
   4.14414    0.09469   14.49340    0.46286   27.63773
   4.15916    0.09526   14.50770    0.46693   27.70740
   4.17417    0.09583   14.52201    0.47103   27.77781
   4.18919    0.09641   14.53639    0.47519   27.84866
   4.20420    0.09699   14.55099    0.47939   27.92018
   4.21922    0.09757   14.56544    0.48363   27.99244
   4.23423    0.09816   14.58026    0.48792   28.06521
   4.24925    0.09875   14.59501    0.49227   28.13873
   4.26426    0.09934   14.60990    0.49666   28.21292
   4.27928    0.09994   14.62480    0.50110   28.28762
   4.29429    0.10054   14.63985    0.50559   28.36307
   4.30931    0.10114   14.65496    0.51013   28.43941
   4.32432    0.10175   14.67031    0.51472   28.51626
   4.33934    0.10236   14.68550    0.51937   28.59378
   4.35435    0.10298   14.70099    0.52407   28.67197
   4.36937    0.10360   14.71648    0.52883   28.75090
   4.38438    0.10422   14.73212    0.53364   28.83057
   4.39940    0.10485   14.74768    0.53851   28.91091
   4.41441    0.10548   14.76347    0.54344   28.99191
   4.42943    0.10612   14.77940    0.54842   29.07381
   4.44444    0.10676   14.79533    0.55347   29.15637
   4.45946    0.10740   14.81142    0.55857   29.23975
   4.47447    0.10805   14.82757    0.56374   29.32379
   4.48949    0.10870   14.84380    0.56897   29.40872
   4.50450    0.10936   14.86018    0.57426   29.49439
   4.51952    0.11002   14.87663    0.57962   29.58096
   4.53453    0.11068   14.89331    0.58504   29.66826
   4.54955    0.11135   14.90991    0.59053   29.75624
   4.56456    0.11202   14.92659    0.59609   29.84517
   4.57958    0.11270   14.94348    0.60171   29.93499
   4.59459    0.11339   14.96046    0.60741   30.02563
   4.60961    0.11407   14.97750    0.61318   30.11709
   4.62462    0.11476   14.99470    0.61902   30.20936
   4.63964    0.11546   15.01196    0.62494   30.30259
   4.65465    0.11616   15.02931    0.63093   30.39671
   4.66967    0.11687   15.04680    0.63700   30.49165
   4.68468    0.11758   15.06444    0.64315   30.58770
   4.69970    0.11829   15.08207    0.64937   30.68442
   4.71472    0.11901   15.09986    0.65568   30.78239
   4.72973    0.11974   15.11780    0.66207   30.88111
   4.74474    0.12047   15.13588    0.66854   30.98087
   4.75976    0.12120   15.15396    0.67510   31.08151
   4.77478    0.12194   15.17219    0.68175   31.18319
   4.78979    0.12269   15.19057    0.68849   31.28591
   4.80480    0.12344   15.20910    0.69531   31.38960
   4.81982    0.12420   15.22763    0.70223   31.49424
   4.83483    0.12496   15.24638    0.70924   31.59992
   4.84985    0.12573   15.26521    0.71635   31.70680
   4.86487    0.12650   15.28410    0.72355   31.81463
   4.87988    0.12728   15.30308    0.73085   31.92365
   4.89490    0.12806   15.32235    0.73826   32.03371
   4.90991    0.12885   15.34154    0.74576   32.14480
   4.92492    0.12964   15.36089    0.75338   32.25723
   4.93994    0.13044   15.38045    0.76109   32.37054
   4.95496    0.13125   15.40009    0.76892   32.48512
   4.96997    0.13206   15.41973    0.77686   32.60111
   4.98499    0.13288   15.43974    0.78491   32.71820
   5.00000    0.13371   15.45968    0.79308   32.83634
   5.01502    0.13454   15.47991    0.80136   32.95574
   5.03003    0.13537   15.50014    0.80977   33.07639
   5.04505    0.13622   15.52052    0.81829   33.19831
   5.06006    0.13707   15.54090    0.82694   33.32155
   5.07508    0.13792   15.56158    0.83572   33.44606
   5.09009    0.13878   15.58241    0.84463   33.57198
   5.10511    0.13965   15.60316    0.85367   33.69908
   5.12012    0.14053   15.62428    0.86285   33.82774
   5.13514    0.14141   15.64540    0.87216   33.95758
   5.15015    0.14230   15.66667    0.88162   34.08913
   5.16517    0.14320   15.68816    0.89122   34.22187
   5.18018    0.14410   15.70973    0.90096   34.35601
   5.19520    0.14501   15.73137    0.91086   34.49171
   5.21021    0.14593   15.75316    0.92090   34.62882
   5.22522    0.14685   15.77517    0.93111   34.76749
   5.24024    0.14778   15.79726    0.94147   34.90786
   5.25526    0.14872   15.81949    0.95200   35.04948
   5.27027    0.14967   15.84187    0.96269   35.19281
   5.28529    0.15062   15.86448    0.97355   35.33793
   5.30030    0.15158   15.88716    0.98459   35.48459
   5.31532    0.15255   15.90998    0.99580   35.63282
   5.33033    0.15353   15.93274    1.00720   35.78275
   5.34535    0.15452   15.95586    1.01877   35.93438
   5.36036    0.15551   15.97913    1.03054   36.08787
   5.37538    0.15651   16.00270    1.04251   36.24298
   5.39039    0.15752   16.02619    1.05467   36.40010
   5.40541    0.15854   16.04991    1.06703   36.55893
   5.42042    0.15957   16.07377    1.07960   36.71960
   5.43544    0.16060   16.09771    1.09238   36.88220
   5.45045    0.16165   16.12194    1.10537   37.04659
   5.46547    0.16270   16.14625    1.11859   37.21304
   5.48048    0.16376   16.17078    1.13204   37.38165
   5.49550    0.16483   16.19546    1.14571   37.55218
   5.51051    0.16591   16.22014    1.15963   37.72457
   5.52553    0.16700   16.24512    1.17378   37.89917
   5.54054    0.16810   16.27024    1.18819   38.07593
   5.55556    0.16921   16.29566    1.20285   38.25506
   5.57057    0.17032   16.32108    1.21776   38.43604
   5.58559    0.17145   16.34680    1.23295   38.61947
   5.60060    0.17259   16.37244    1.24841   38.80512
   5.61562    0.17374   16.39846    1.26415   38.99314
   5.63063    0.17489   16.42469    1.28018   39.18354
   5.64565    0.17606   16.45100    1.29650   39.37631
   5.66066    0.17724   16.47753    1.31312   39.57145
   5.67568    0.17843   16.50407    1.33005   39.76925
   5.69069    0.17963   16.53112    1.34729   39.96950
   5.70571    0.18084   16.55810    1.36486   40.17242
   5.72072    0.18206   16.58537    1.38277   40.37786
   5.73574    0.18329   16.61264    1.40101   40.58619
   5.75075    0.18453   16.64028    1.41961   40.79718
   5.76577    0.18579   16.66800    1.43856   41.01078
   5.78078    0.18705   16.69602    1.45788   41.22756
   5.79580    0.18833   16.72411    1.47759   41.44693
   5.81081    0.18962   16.75257    1.49767   41.66949
   5.82583    0.19092   16.78110    1.51816   41.89501
   5.84084    0.19224   16.80985    1.53906   42.12357
   5.85586    0.19356   16.83868    1.56038   42.35547
   5.87087    0.19490   16.86781    1.58213   42.59026
   5.88589    0.19625   16.89723    1.60432   42.82853
   5.90090    0.19762   16.92680    1.62697   43.06999
   5.91592    0.19900   16.95652    1.65009   43.31501
   5.93093    0.20039   16.98646    1.67369   43.56350
   5.94595    0.20179   17.01663    1.69778   43.81534
   5.96096    0.20321   17.04694    1.72238   44.07110
   5.97598    0.20465   17.07762    1.74751   44.33027
   5.99099    0.20609   17.10830    1.77318   44.59351
   6.00601    0.20755   17.13936    1.79940   44.86047
   6.02102    0.20903   17.17063    1.82619   45.13128
   6.03604    0.21052   17.20205    1.85357   45.40630
   6.05105    0.21202   17.23378    1.88156   45.68526
   6.06607    0.21354   17.26572    1.91016   45.96852
   6.08108    0.21508   17.29788    1.93941   46.25615
   6.09610    0.21663   17.33020    1.96932   46.54808
   6.11111    0.21820   17.36288    1.99992   46.84438
   6.12613    0.21978   17.39564    2.03121   47.14542
   6.14114    0.22138   17.42876    2.06323   47.45121
   6.15616    0.22299   17.46204    2.09599   47.76181
   6.17117    0.22463   17.49562    2.12953   48.07738
   6.18619    0.22628   17.52948    2.16386   48.39785
   6.20120    0.22794   17.56350    2.19901   48.72350
   6.21622    0.22963   17.59789    2.23500   49.05448
   6.23123    0.23133   17.63235    2.27187   49.39088
   6.24625    0.23305   17.66718    2.30964   49.73276
   6.26126    0.23479   17.70231    2.34835   50.08027
   6.27628    0.23655   17.73759    2.38802   50.43364
   6.29129    0.23833   17.77316    2.42868   50.79293
   6.30631    0.24012   17.80919    2.47038   51.15853
   6.32132    0.24194   17.84520    2.51314   51.53020
   6.33634    0.24377   17.88159    2.55699   51.90825
   6.35135    0.24563   17.91835    2.60200   52.29304
   6.36637    0.24751   17.95533    2.64817   52.68443
   6.38138    0.24940   17.99261    2.69558   53.08278
   6.39640    0.25132   18.03019    2.74424   53.48840
   6.41141    0.25326   18.06791    2.79422   53.90105
   6.42643    0.25522   18.10608    2.84555   54.32150
   6.44144    0.25721   18.14447    2.89830   54.74957
   6.45646    0.25922   18.18323    2.95250   55.18542
   6.47147    0.26125   18.22221    3.00822   55.62936
   6.48649    0.26330   18.26164    3.06551   56.08189
   6.50150    0.26538   18.30122    3.12443   56.54286
   6.51652    0.26748   18.34124    3.18505   57.01251
   6.53153    0.26961   18.38148    3.24742   57.49150
   6.54655    0.27176   18.42209    3.31163   57.97982
   6.56156    0.27394   18.46293    3.37773   58.47771
   6.57658    0.27614   18.50421    3.44582   58.98546
   6.59159    0.27837   18.54579    3.51596   59.50335
   6.60661    0.28063   18.58766    3.58824   60.03170
   6.62162    0.28291   18.62990    3.66275   60.57109
   6.63664    0.28522   18.67252    3.73958   61.12130
   6.65165    0.28756   18.71550    3.81883   61.68322
   6.66667    0.28993   18.75879    3.90060   62.25699
   6.68168    0.29233   18.80236    3.98500   62.84307
   6.69670    0.29476   18.84631    4.07215   63.44153
   6.71171    0.29722   18.89093    4.16216   64.05325
   6.72673    0.29971   18.93562    4.25516   64.67817
   6.74174    0.30223   18.98075    4.35129   65.31724
   6.75676    0.30478   19.02633    4.45069   65.97061
   6.77177    0.30737   19.07213    4.55351   66.63866
   6.78679    0.30999   19.11845    4.65990   67.32212
   6.80180    0.31264   19.16514    4.77003   68.02145
   6.81682    0.31533   19.21213    4.88409   68.73730
   6.83183    0.31805   19.25964    5.00226   69.46989
   6.84685    0.32081   19.30751    5.12473   70.22036
   6.86186    0.32361   19.35576    5.25173   70.98891
   6.87688    0.32644   19.40445    5.38348   71.77634
   6.89189    0.32931   19.45359    5.52021   72.58344
   6.90691    0.33222   19.50324    5.66218   73.41082
   6.92192    0.33517   19.55327    5.80967   74.25933
   6.93694    0.33816   19.60366    5.96296   75.12971
   6.95195    0.34119   19.65466    6.12236   76.02291
   6.96697    0.34427   19.70601    6.28820   76.93968
   6.98198    0.34738   19.75782    6.46082   77.88113
   6.99700    0.35054   19.81007    6.64062   78.84799
   7.01201    0.35375   19.86291    6.82798   79.84170
   7.02703    0.35700   19.91620    7.02334   80.86296
   7.04204    0.36029   19.96985    7.22716   81.91320
   7.05706    0.36363   20.02411    7.43992   82.99346
   7.07207    0.36703   20.07887    7.66217   84.10522
   7.08709    0.37047   20.13409    7.89448   85.24960
   7.10210    0.37396   20.18989    8.13745   86.42835
   7.11712    0.37750   20.24615    8.39175   87.64297
   7.13213    0.38109   20.30299    8.65810   88.89473
   7.14715    0.38474   20.36035    8.93726   90.18569
   7.16216    0.38845   20.41823    9.23007   91.51772
   7.17718    0.39221   20.47678    9.53742   92.89257
   7.19219    0.39602   20.53585    9.86030   94.31242
   7.20721    0.39990   20.59544   10.19977   95.77954
   7.22222    0.40383   20.65569   10.55697   97.29618
   7.23724    0.40783   20.71646   10.93317   98.86491
    7.2523     0.4119    20.7778    11.3297   100.4883
    7.2673     0.4160    20.8399    11.7481   102.1691
    7.2823     0.4202    20.9025    12.1900   103.9109
    7.2973     0.4244    20.9658    12.6571   105.7168
    7.3123     0.4288    21.0297    13.1514   107.5899
    7.3273     0.4332    21.0941    13.6751   109.5341
    7.3423     0.4376    21.1593    14.2305   111.5537
    7.3574     0.4422    21.2252    14.8201   113.6531
    7.3724     0.4468    21.2918    15.4470   115.8368
    7.3874     0.4515    21.3591    16.1141   118.1096
    7.4024     0.4562    21.4270    16.8251   120.4778
    7.4174     0.4611    21.4957    17.5839   122.9462
    7.4324     0.4660    21.5650    18.3947   125.5221
    7.4474     0.4710    21.6353    19.2624   128.2118
    7.4625     0.4761    21.7062    20.1925   131.0233
    7.4775     0.4813    21.7779    21.1910   133.9644
    7.4925     0.4866    21.8502    22.2646   137.0439
    7.5075     0.4920    21.9235    23.4211   140.2715
    7.5225     0.4974    21.9976    24.6691   143.6580
    7.5375     0.5030    22.0726    26.0184   147.2147
    7.5526     0.5087    22.1482    27.4801   150.9538
    7.5676     0.5144    22.2249    29.0670   154.8896
    7.5826     0.5203    22.3025    30.7934   159.0365
    7.5976     0.5263    22.3808    32.6761   163.4113
    7.6126     0.5324    22.4600    34.7340   168.0321
    7.6276     0.5386    22.5401    36.9893   172.9184
    7.6426     0.5449    22.6211    39.4677   178.0921
    7.6577     0.5514    22.7032    42.1987   183.5773
    7.6727     0.5580    22.7861    45.2173   189.3997
    7.6877     0.5647    22.8702    48.5642   195.5884
    7.7027     0.5715    22.9551    52.2876   202.1745
    7.7177     0.5785    23.0412    56.4445   209.1922
    7.7327     0.5856    23.1283    61.1027   216.6787
    7.7477     0.5928    23.2164    66.3432   224.6734
    7.7628     0.6002    23.3056    72.2636   233.2184
    7.7778     0.6078    23.3959    78.9815   242.3576
    7.7928     0.6155    23.4874    86.6398   252.1349
    7.8078     0.6233    23.5802    95.4128   262.5929
    7.8228     0.6314    23.6738   105.5146   273.7690
    7.8378     0.6396    23.7690   117.2070   285.6874
    7.8529     0.6479    23.8652   130.8149   298.3531
    7.8679     0.6565    23.9626   146.7395   311.7350
    7.8829     0.6652    24.0615   165.4768   325.7430
    7.8979     0.6742    24.1617   187.6370   340.1919
    7.9129     0.6833    24.2632   213.9634   354.7457
    7.9279     0.6926    24.3660   245.3433   368.8339
    7.9429     0.7022    24.4702   282.7955   381.5272
    7.9580     0.7119    24.5759   327.4057   391.3628
    7.9730     0.7219    24.6830   380.1559   396.1197
    7.9880     0.7321    24.7917   441.5624   392.5811
    8.0030     0.7426    24.9018   511.0173   376.4095
    8.0180     0.7533    25.0136   585.7923   342.4206
    8.0330     0.7643    25.1268   659.9275   285.7079
    8.0480     0.7755    25.2418   723.8146   203.9560
    8.0631     0.7870    25.3586   765.7873   100.3708
    8.0781     0.7988    25.4771   776.3079   -14.8969
    8.0931     0.8109    25.5972   752.7386  -127.2121
    8.1081     0.8233    25.7192   700.8497  -223.1085
    8.1231     0.8360    25.8430   631.6250  -295.1052
    8.1381     0.8490    25.9688   556.2936  -342.4666
    8.1532     0.8624    26.0963   483.0886  -368.8637
    8.1682     0.8761    26.2260   416.5953  -379.5199
    8.1832     0.8902    26.3580   358.5780  -379.3639
    8.1982     0.9047    26.4919   309.1050  -372.2988
    8.2132     0.9195    26.6279   267.4192  -361.1270
    8.2282     0.9348    26.7661   232.4675  -347.7448
    8.2432     0.9505    26.9066   203.1774  -333.3823
    8.2583     0.9666    27.0496   178.5774  -318.8114
    8.2733     0.9832    27.1950   157.8369  -304.4984
    8.2883     1.0003    27.3428   140.2662  -290.7123
    8.3033     1.0179    27.4931   125.3022  -277.5960
    8.3183     1.0360    27.6460   112.4883  -265.2132
    8.3333     1.0547    27.8017   101.4550  -253.5786
    8.3483     1.0739    27.9604    91.9038  -242.6783
    8.3634     1.0937    28.1218    83.5918  -232.4812
    8.3784     1.1141    28.2861    76.3228  -222.9483
    8.3934     1.1352    28.4534    69.9352  -214.0365
    8.4084     1.1569    28.6240    64.2964  -205.7004
    8.4234     1.1793    28.7977    59.2974  -197.8981
    8.4384     1.2025    28.9748    54.8474  -190.5873
    8.4535     1.2265    29.1555    50.8709  -183.7300
    8.4685     1.2512    29.3396    47.3045  -177.2901
    8.4835     1.2768    29.5275    44.0949  -171.2344
    8.4985     1.3033    29.7191    41.1970  -165.5328
    8.5135     1.3308    29.9147    38.5724  -160.1575
    8.5285     1.3592    30.1144    36.1886  -155.0835
    8.5435     1.3886    30.3183    34.0173  -150.2876
    8.5586     1.4192    30.5266    32.0345  -145.7487
    8.5736     1.4508    30.7393    30.2193  -141.4478
    8.5886     1.4837    30.9569    28.5537  -137.3674
    8.6036     1.5178    31.1793    27.0219  -133.4918
    8.6186     1.5533    31.4068    25.6100  -129.8062
    8.6336     1.5902    31.6395    24.3063  -126.2977
    8.6486     1.6286    31.8778    23.1000  -122.9539
    8.6637     1.6685    32.1215    21.9818  -119.7640
    8.6787     1.7102    32.3713    20.9435  -116.7177
    8.6937     1.7536    32.6273    19.9778  -113.8054
    8.7087     1.7988    32.8896    19.0782  -111.0190
    8.7237     1.8461    33.1586    18.2388  -108.3502
    8.7387     1.8955    33.4344    17.4546  -105.7919
    8.7538     1.9472    33.7176    16.7208  -103.3373
    8.7688     2.0012    34.0085    16.0334  -100.9802
   8.78378    2.05783   34.30725   15.38864  -98.71506
   8.79880    2.11718   34.61415   14.78309  -96.53601
   8.81381    2.17945   34.92994   14.21377  -94.43893
   8.82883    2.24484   35.25485   13.67792  -92.41847
   8.84384    2.31359   35.58902   13.17305  -90.47066
   8.85886    2.38593   35.93342   12.69690  -88.59161
   8.87387    2.46213   36.28820   12.24742  -86.77764
   8.88889    2.54248   36.65416   11.82273  -85.02489
   8.90390    2.62731   37.03169   11.42117  -83.33067
   8.91892    2.71696   37.42137   11.04115  -81.69160
   8.93393    2.81183   37.82410   10.68126  -80.10501
   8.94895    2.91235   38.24046   10.34020  -78.56837
   8.96396    3.01899   38.67098   10.01678  -77.07871
   8.97898    3.13227   39.11691    9.70989  -75.63412
   8.99399    3.25280   39.57878    9.41856  -74.23221
   9.00901    3.38122   40.05791    9.14184  -72.87106
   9.02402    3.51825   40.55514    8.87890  -71.54845
   9.03904    3.66472   41.07162    8.62897  -70.26260
   9.05405    3.82154   41.60842    8.39131  -69.01189
   9.06907    3.98974   42.16715    8.16529  -67.79451
   9.08408    4.17049   42.74916    7.95030  -66.60902
   9.09910    4.36509   43.35606    7.74577  -65.45361
   9.11411    4.57504   43.98957    7.55122  -64.32725
   9.12913    4.80204   44.65140    7.36617  -63.22846
   9.14414    5.04804   45.34368    7.19019  -62.15561
   9.15916    5.31525   46.06887    7.02288  -61.10766
   9.17417    5.60623   46.82911    6.86393  -60.08358
   9.18919    5.92392   47.62753    6.71300  -59.08217
   9.20420    6.27176   48.46655    6.56981  -58.10226
   9.21922    6.65372   49.34982    6.43411  -57.14251
   9.23423    7.07445   50.28082    6.30568  -56.20232
   9.24925    7.53940   51.26333    6.18433  -55.28051
   9.26426    8.05501   52.30149    6.06989  -54.37605
   9.27928    8.62889   53.40021    5.96226  -53.48803
   9.29429    9.27011   54.56421    5.86133  -52.61558
   9.30931    9.98951   55.79885    5.76703  -51.75751
   9.32432   10.80010   57.10997    5.67936  -50.91322
   9.33934   11.71765   58.50314    5.59830  -50.08168
   9.35435   12.76125   59.98434    5.52393  -49.26200
   9.36937   13.95425   61.55907    5.45633  -48.45328
   9.38438   15.32523   63.23224    5.39564  -47.65465
   9.39940   16.90940   65.00685    5.34206  -46.86521
   9.41442   18.75031   66.88323    5.29585  -46.08377
   9.42943   20.90150   68.85632    5.25733  -45.30974
   9.44444   23.42943   70.91338    5.22691  -44.54193
   9.45946   26.41565   73.02789    5.20507  -43.77946
   9.47447   29.95922   75.15238    5.19242  -43.02130
   9.48949   34.17776   77.20730    5.18968  -42.26624
   9.50451   39.20513   79.06336    5.19773  -41.51311
   9.51952   45.18124   80.51752    5.21762  -40.76087
   9.53453   52.22682   81.26457    5.25060  -40.00819
   9.54955   60.39123   80.86555    5.29819  -39.25387
   9.56456   69.56004   78.73861    5.36221  -38.49630
   9.57958   79.32031   74.20767    5.44487  -37.73427
   9.59459   88.82303   66.67246    5.54884  -36.96603
   9.60961   96.76067   55.92995    5.67737  -36.19022
    9.6246   101.6306    42.5442     5.8344   -35.4054
    9.6396   102.3167    27.9609     6.0248   -34.6098
   9.65465   98.66783   14.09823    6.25450  -33.80232
   9.66967   91.58440    2.59223    6.53087  -32.98190
   9.68469   82.53108   -5.74711    6.86302  -32.14814
   9.69970   72.91102  -10.94713    7.26217  -31.30162
   9.71472   63.70411  -13.53839    7.74226  -30.44474
   9.72973   55.43021  -14.19917    8.32046  -29.58266
   9.74475   48.27055  -13.54506    9.01765  -28.72444
   9.75976   42.20998  -12.05288    9.85879  -27.88594
   9.77478   37.14154  -10.06089   10.87252  -27.09338
   9.78979   32.92825   -7.79572   12.08932  -26.38783
   9.80480   29.43447   -5.40264   13.53668  -25.83169
   9.81982   26.53913   -2.97175   15.22880  -25.51553
   9.83484   24.13977   -0.55629   17.14802  -25.56177
   9.84985   22.15205    1.81397   19.21662  -26.11569
   9.86487   20.50775    4.12502   21.26580  -27.31468
   9.87988   19.15222    6.37195   23.02429  -29.22203
   9.89489   18.04200    8.55582   24.16412  -31.74511
   9.90991   17.14278   10.68173   24.41901  -34.59606
   9.92492   16.42767   12.75680   23.71799  -37.36238
   9.93994   15.87595   14.78911   22.22583  -39.66757
   9.95496   15.47195   16.78836   20.25207  -41.30338
   9.96997   15.20442   18.76323   18.11188  -42.25097
   9.98499   15.06583   20.72372   16.03516  -42.61457
  10.00000   15.05210   22.67984   14.14958  -42.54105
  10.01502   15.16241   24.64100   12.50392  -42.16812
  10.03003   15.39913   26.61728   11.09969  -41.60487
  10.04505   15.76791   28.61824    9.91546  -40.92970
  10.06006   16.27798   30.65381    8.92164  -40.19524
  10.07508   16.94259   32.73333    8.08814  -39.43560
  10.09009   17.77959   34.86598    7.38778  -38.67224
  10.10511   18.81233   37.05970    6.79732  -37.91778
  10.12012   20.07084   39.32139    6.29750  -37.17962
  10.13514   21.59323   41.65526    5.87262  -36.46132
  10.15015   23.42761   44.06102    5.50997  -35.76467
  10.16516   25.63430   46.53148    5.19931  -35.08950
  10.18018   28.28833   49.04826    4.93238  -34.43554
  10.19520   31.48212   51.57512    4.70253  -33.80114
  10.21021   35.32749   54.04891    4.50437  -33.18512
  10.22523   39.95440   56.36292    4.33358  -32.58584
  10.24024   45.50634   58.34750    4.18663  -32.00184
  10.25526   52.12185   59.74073    4.06069  -31.43132
  10.27027   59.89555   60.15710    3.95345  -30.87296
  10.28529   68.80344   59.06172    3.86311  -30.32512
  10.30030   78.58256   55.78692    3.78820  -29.78647
  10.31532   88.57949   49.63982    3.72761  -29.25538
  10.33033   97.64948   40.16360    3.68051  -28.73052
   10.3453   104.2690    27.5257     3.6463   -28.2107
   10.3604   106.9995    12.8104     3.6247   -27.6943
   10.3754   105.1547    -2.1364     3.6155   -27.1802
  10.39039   99.18283  -15.37711    3.61889  -26.66723
  10.40541   90.41236  -25.62640    3.63510  -26.15364
  10.42042   80.39954  -32.53011    3.66471  -25.63856
  10.43544   70.39287  -36.44235    3.70851  -25.12021
  10.45045   61.14898  -38.03280    3.76755  -24.59728
  10.46547   53.00304  -37.98907    3.84322  -24.06826
  10.48048   46.01855  -36.87931    3.93728  -23.53154
  10.49550   40.11899  -35.12122    4.05189  -22.98578
  10.51051   35.16970  -33.00191    4.18977  -22.42905
  10.52553   31.02541  -30.70976    4.35423  -21.85987
  10.54054   27.55091  -28.36352    4.54940  -21.27645
  10.55556   24.62902  -26.03624    4.78034  -20.67718
  10.57057   22.16179  -23.76974    5.05330  -20.06042
  10.58559   20.06893  -21.58728    5.37603  -19.42528
  10.60060   18.28526  -19.49969    5.75811  -18.77086
  10.61562   16.75809  -17.50977    6.21146  -18.09793
  10.63063   15.44484  -15.61635    6.75082  -17.40838
  10.64565   14.31106  -13.81512    7.39440  -16.70669
  10.66066   13.32880  -12.10061    8.16449  -16.00233
  10.67568   12.47530  -10.46629    9.08791  -15.31056
  10.69069   11.73196   -8.90593   10.19582  -14.65749
  10.70571   11.08351   -7.41271   11.52234  -14.08386
  10.72072   10.51740   -5.98057   13.10013  -13.65297
  10.73574   10.02327   -4.60326   14.95092  -13.45746
  10.75075    9.59254   -3.27532   17.06753  -13.62510
  10.76577    9.21816   -1.99125   19.38446  -14.31523
  10.78078    8.89424   -0.74631   21.74284  -15.69031
  10.79580    8.61595    0.46468   23.86740  -17.85424
  10.81081    8.37935    1.64566   25.39627  -20.75885
  10.82583    8.18124    2.80137   25.99414  -24.13882
  10.84084    8.01906    3.93529   25.50970  -27.55302
  10.85586    7.89087    5.05179   24.06019  -30.54761
  10.87087    7.79523    6.15421   21.96521  -32.82789
  10.88589    7.73123    7.24633   19.59138  -34.31903
  10.90090    7.69840    8.33170   17.22897  -35.11025
  10.91592    7.69677    9.41367   15.05183  -35.36105
  10.93093    7.72682   10.49578   13.13566  -35.23283
  10.94595    7.78955   11.58190   11.49359  -34.85857
  10.96096    7.88648   12.67505   10.10648  -34.33533
  10.97598    8.01974   13.77933    8.94239  -33.72984
  10.99099    8.19212   14.89835    7.96708  -33.08566
  11.00601    8.40722   16.03590    7.14877  -32.43036
  11.02102    8.66951   17.19598    6.46011  -31.78068
  11.03604    8.98458   18.38296    5.87818  -31.14628
  11.05105    9.35932   19.60077    5.38423  -30.53278
  11.06607    9.80225   20.85431    4.96306  -29.94211
  11.08108   10.32383   22.14750    4.60242  -29.37515
  11.09610   10.93699   23.48470    4.29242  -28.83146
  11.11111   11.65767   24.86964    4.02509  -28.31001
  11.12613   12.50561   26.30534    3.79398  -27.80916
  11.14114   13.50528   27.79285    3.59388  -27.32772
  11.15616   14.68701   29.33120    3.42057  -26.86378
  11.17117   16.08841   30.91446    3.27065  -26.41584
  11.18619   17.75587   32.53011    3.14133  -25.98229
  11.20120   19.74604   34.15406    3.03043  -25.56177
  11.21622   22.12684   35.74525    2.93618  -25.15253
  11.23123   24.97680   37.23565    2.85723  -24.75321
  11.24625   28.38065   38.51735    2.79256  -24.36264
  11.26126   32.41745   39.42566    2.74148  -23.97933
  11.27628   37.13466   39.72019    2.70357  -23.60210
  11.29129   42.49905   39.07244    2.67872  -23.22976
  11.30631   48.32310   37.08245    2.66709  -22.86127
  11.32132   54.17592   33.35579    2.66916  -22.49530
  11.33634   59.33864   27.67383    2.68574  -22.13097
  11.35135   62.90394   20.22295    2.71801  -21.76708
  11.36637   64.08187   11.73316    2.76763  -21.40274
  11.38138   62.58389    3.32890    2.83675  -21.03707
  11.39640   58.78613   -3.89860    2.92819  -20.66948
  11.41141   53.51908   -9.29383    3.04554  -20.29965
  11.42643   47.67796  -12.73887    3.19338  -19.92776
  11.44144   41.94345  -14.49029    3.37741  -19.55482
  11.45646   36.70839  -14.95097    3.60476  -19.18308
  11.47147   32.13401  -14.51371    3.88409  -18.81696
  11.48649   28.23835  -13.49422    4.22570  -18.46345
  11.50150   24.96779  -12.12166    4.64122  -18.13469
  11.51652   22.24170  -10.55107    5.14253  -17.84965
  11.53153   19.97593   -8.88369    5.73930  -17.63635
  11.54655   18.09393   -7.18282    6.43374  -17.53512
  11.56156   16.52964   -5.48653    7.21209  -17.59796
  11.57658   15.22839   -3.81619    8.03237  -17.88404
  11.59159   14.14566   -2.18290    8.81328  -18.44106
  11.60661   13.24553   -0.59112    9.43571  -19.27661
  11.62162   12.49924    0.95901    9.77113  -20.32767
  11.63664   11.88383    2.46957    9.73498  -21.45714
  11.65165   11.38102    3.94463    9.33178  -22.49827
  11.66667   10.97635    5.38885    8.65254  -23.31973
  11.68168   10.65842    6.80736    7.82683  -23.86579
  11.69670   10.41843    8.20549    6.97082  -24.14964
  11.71171   10.24967    9.58880    6.16175  -24.22108
  11.72673   10.14726   10.96314    5.43830  -24.13897
  11.74174   10.10792   12.33384    4.81215  -23.95473
  11.75676   10.12979   13.70655    4.27990  -23.70734
  11.77177   10.21235   15.08689    3.83139  -23.42423
  11.78679   10.35641   16.48057    3.45455  -23.12333
  11.80180   10.56409   17.89330    3.13767  -22.81666
  11.81682   10.83890   19.33123    2.87046  -22.51102
  11.83183   11.18590   20.80013    2.64419  -22.21071
  11.84685   11.61187   22.30617    2.45168  -21.91827
  11.86186   12.12561   23.85578    2.28711  -21.63457
  11.87688   12.73827   25.45557    2.14575  -21.36020
  11.89189   13.46392   27.11131    2.02379  -21.09503
  11.90691   14.32010   28.82946    1.91817  -20.83860
  11.92192   15.32868   30.61505    1.82641  -20.59062
  11.93694   16.51688   32.47245    1.74648  -20.35035
  11.95195   17.91858   34.40367    1.67678  -20.11719
  11.96697   19.57594   36.40670    1.61598  -19.89085
  11.98198   21.54126   38.47318    1.56301  -19.67029
  11.99700   23.87910   40.58538    1.51700  -19.45522
  12.01201   26.66832   42.70951    1.47728  -19.24489
  12.02703   30.00333   44.78702    1.44329  -19.03900
  12.04204   33.99300   46.72165    1.41462  -18.83668
  12.05706   38.75420   48.36131    1.39097  -18.63791
  12.07207   44.39463   49.47366    1.37212  -18.44181
  12.08709   50.97431   49.72068    1.35798  -18.24823
  12.10210   58.43875   48.64338    1.34854  -18.05627
  12.11712   66.51246   45.68786    1.34388  -17.86595
  12.13213   74.57864   40.31857    1.34419  -17.67667
  12.14715   81.62537   32.25990    1.34978  -17.48798
  12.16216   86.39940   21.81236    1.36108  -17.29959
  12.17718   87.84208   10.02591    1.37869  -17.11075
  12.19219   85.61224   -1.53531    1.40337  -16.92147
  12.20721   80.27972  -11.39314    1.43612  -16.73115
  12.22222   73.00927  -18.69112    1.47819  -16.53979
  12.23724   65.02353  -23.30758    1.53118  -16.34724
  12.25225   57.23573  -25.61573    1.59708  -16.15322
  12.26727   50.16442  -26.17365    1.67841  -15.95860
  12.28228   44.01676  -25.51597    1.77825  -15.76398
  12.29730   38.81011  -24.06871    1.90038  -15.57129
  12.31231   34.46827  -22.13897    2.04932  -15.38364
  12.32733   30.88061  -19.93443    2.23018  -15.20592
  12.34234   27.93399  -17.58862    2.44826  -15.04628
  12.35736   25.52539  -15.18487    2.70811  -14.91629
  12.37237   23.56756  -12.77207    3.01137  -14.83313
  12.38739   21.98905  -10.37706    3.35317  -14.81949
  12.40240   20.73277   -8.01258    3.71690  -14.90117
  12.41742   19.75406   -5.68175    4.06899  -15.10097
  12.43243   19.01870   -3.38249    4.35843  -15.42544
  12.44745   18.50133   -1.10902    4.52753  -15.85128
  12.46246   18.18414    1.14711    4.53474  -16.32131
  12.47748   18.05594    3.39501    4.37628  -16.76183
  12.49249   18.11160    5.64506    4.08834  -17.11090
  12.50751   18.35167    7.90771    3.72765  -17.33887
  12.52252   18.78247   10.19363    3.34748  -17.44855
  12.53754   19.41636   12.51268    2.98462  -17.46041
  12.55255   20.27232   14.87419    2.65825  -17.40083
  12.56757   21.37700   17.28551    2.37483  -17.29321
  12.58258   22.76595   19.75122    2.13349  -17.15566
  12.59760   24.48556   22.27097    1.92998  -17.00062
  12.61261   26.59469   24.83688    1.75898  -16.83713
  12.62763   29.16776   27.42903    1.61525  -16.67023
  12.64264   32.29671   30.00821    1.49411  -16.50348
  12.65766   36.09248   32.50550    1.39161  -16.33895
  12.67267   40.68372   34.80669    1.30448  -16.17768
  12.68769   46.20903   36.73050    1.23005  -16.02026
  12.70270   52.79609   37.99893    1.16616  -15.86700
  12.71772   60.51704   38.20756    1.11107  -15.71773
  12.73273   69.30639   36.80602    1.06339  -15.57248
  12.74775   78.83466   33.12908    1.02197  -15.43092
  12.76276   88.36308   26.53168    0.98589  -15.29292
  12.77778   96.67780   16.67727    0.95440  -15.15789
   12.7928   102.2713     3.9196     0.9269   -15.0258
   12.8078   103.8644   -10.4875     0.9029   -14.8966
   12.8228   101.0355   -24.6661     0.8819   -14.7697
  12.83784   94.45963  -36.83559    0.86369  -14.64489
  12.85285   85.53217  -45.95837    0.84794  -14.52201
  12.86787   75.72310  -51.88216    0.83443  -14.40091
  12.88288   66.13443  -55.05298    0.82300  -14.28114
  12.89790   57.39142  -56.14243    0.81351  -14.16271
  12.91291   49.74406  -55.79588    0.80584  -14.04532
  12.92793   43.21263  -54.52916    0.79994  -13.92896
  12.94294   37.70384  -52.71415    0.79575  -13.81320
  12.95796   33.08245  -50.60343    0.79326  -13.69788
  12.97297   29.20890  -48.36124    0.79248  -13.58300
  12.98799   25.95613  -46.09058    0.79345  -13.46813
  13.00300   23.21515  -43.85373    0.79623  -13.35340
  13.01802   20.89546  -41.68668    0.80092  -13.23823
  13.03303   18.92310  -39.60813    0.80765  -13.12292
  13.04805   17.23821  -37.62696    0.81660  -13.00686
  13.06306   15.79248  -35.74495    0.82797  -12.89035
  13.07808   14.54692  -33.96033    0.84201  -12.77296
  13.09309   13.47002  -32.26968    0.85900  -12.65467
  13.10811   12.53611  -30.66796    0.87924  -12.53565
  13.12312   11.72400  -29.15029    0.90300  -12.41588
  13.13814   11.01594  -27.71222    0.93046  -12.29538
  13.15315   10.39624  -26.34900    0.96161  -12.17443
  13.16817    9.85064  -25.05588    0.99626  -12.05318
  13.18318    9.36594  -23.82696    1.03406  -11.93089
  13.19820    8.93070  -22.65494    1.07490  -11.80653
  13.21321    8.53640  -21.53066    1.11929  -11.67876
  13.22823    8.17821  -20.44521    1.16868  -11.54610
  13.24324    7.85434  -19.39104    1.22528  -11.40736
  13.25826    7.56445  -18.36340    1.29176  -11.26210
  13.27327    7.30824  -17.35917    1.37097  -11.11062
  13.28829    7.08488  -16.37615    1.46596  -10.95335
  13.30330    6.89305  -15.41284    1.58017  -10.79134
  13.31832    6.73123  -14.46731    1.71758  -10.62607
  13.33333    6.59799  -13.53750    1.88299  -10.45962
  13.34835    6.49213  -12.62132    2.08213  -10.29568
  13.36336    6.41277  -11.71612    2.32161  -10.14049
  13.37838    6.35942  -10.81951    2.60865  -10.00294
  13.39339    6.33200   -9.92882    2.95001   -9.89710
  13.40841    6.33082   -9.04155    3.34980   -9.84359
  13.42342    6.35668   -8.15502    3.80548   -9.87027
  13.43844    6.41080   -7.26612    4.30142  -10.01138
  13.45345    6.49498   -6.37232    4.80136  -10.30116
  13.46847    6.61158   -5.47038    5.24429  -10.75918
  13.48348    6.76368   -4.55746    5.55247  -11.37060
  13.49850    6.95514   -3.63032    5.65721  -12.07438
  13.51351    7.19083   -2.68583    5.53195  -12.77459
  13.52853    7.47676   -1.72074    5.20728  -13.37697
  13.54354    7.82041   -0.73164    4.75377  -13.82343
  13.55856    8.23102    0.28452    4.24856  -14.10283
  13.57357    8.72005    1.33054    3.75082  -14.23623
  13.58859    9.30171    2.40828    3.29503  -14.25846
  13.60360    9.99364    3.51893    2.89552  -14.20333
  13.61862   10.81774    4.66189    2.55410  -14.09809
  13.63363   11.80123    5.83256    2.26626  -13.96261
  13.64865   12.97748    7.02184    2.02512  -13.81068
  13.66366   14.38772    8.21275    1.82337  -13.65104
  13.67868   16.08076    9.37469    1.65442  -13.48933
  13.69369   18.11372   10.45880    1.51250  -13.32865
  13.70871   20.54741   11.38632    1.39287  -13.17124
  13.72372   23.43929   12.03806    1.29162  -13.01797
  13.73874   26.82238   12.23935    1.20562  -12.86930
  13.75375   30.67285   11.75251    1.13230  -12.72552
  13.76877   34.85260   10.28797    1.06963  -12.58619
  13.78378   39.04900    7.56138    1.01595  -12.45116
  13.79880   42.74008    3.41710    0.96992  -12.32043
  13.81381   45.26991   -2.00533    0.93049  -12.19325
  13.82883   46.07137   -8.17533    0.89676  -12.06948
  13.84384   44.94186  -14.27773    0.86804  -11.94868
  13.85886   42.15848  -19.52859    0.84377  -11.83055
  13.87387   38.32439  -23.45787    0.82349  -11.71478
  13.88889   34.08519  -25.98644    0.80686  -11.60080
  13.90390   29.93182  -27.30149    0.79360  -11.48889
  13.91892   26.14591  -27.69636    0.78351  -11.37831
  13.93393   22.84435  -27.45534    0.77646  -11.26892
  13.94895   20.04000  -26.80820    0.77237  -11.16057
  13.96396   17.69562  -25.92329    0.77118  -11.05311
  13.97898   15.75307  -24.91715    0.77284  -10.94639
  13.99399   14.15134  -23.86920    0.77729  -10.84041
  14.00901   12.83106  -22.83281    0.78436  -10.73502
  14.02402   11.73676  -21.84386    0.79377  -10.63052
  14.03904   10.81488  -20.92323    0.80512  -10.52632
  14.05406   10.01539  -20.07702    0.81804  -10.42182
  14.06907    9.29585  -19.29617    0.83239  -10.31628
  14.08409    8.62771  -18.55979    0.84848  -10.20867
  14.09910    7.99981  -17.84580    0.86704  -10.09795
  14.11411    7.41356  -17.13787    0.88903   -9.98396
  14.12913    6.87531  -16.43099    0.91540   -9.86583
  14.14415    6.38948  -15.72663    0.94709   -9.74384
  14.15916    5.95676  -15.03012    0.98497   -9.61785
  14.17418    5.57429  -14.34636    1.02999   -9.48726
  14.18919    5.23747  -13.67965    1.08323   -9.35223
  14.20420    4.94093  -13.03191    1.14599   -9.21231
  14.21922    4.67951  -12.40462    1.21988   -9.06705
  14.23423    4.44845  -11.79734    1.30689   -8.91645
  14.24925    4.24366  -11.20993    1.40950   -8.76022
  14.26427    4.06157  -10.64134    1.53083   -8.59866
  14.27928    3.89926  -10.09054    1.67468   -8.43220
  14.29429    3.75417   -9.55604    1.84585   -8.26189
  14.30931    3.62422   -9.03696    2.05016   -8.09039
  14.32432    3.50762   -8.53210    2.29466   -7.92157
  14.33934    3.40287   -8.04029    2.58759   -7.76208
  14.35435    3.30871   -7.56019    2.93793   -7.62230
  14.36937    3.22403   -7.09106    3.35459   -7.51869
  14.38438    3.14792   -6.63186    3.84365   -7.47541
  14.39940    3.07957   -6.18185    4.40412   -7.52566
  14.41441    3.01832   -5.73985    5.02009   -7.71138
  14.42943    2.96357   -5.30525    5.65164   -8.07631
  14.44444    2.91481   -4.87733    6.22770   -8.65039
  14.45946    2.87162   -4.45519    6.65293   -9.42486
  14.47447    2.83360   -4.03853    6.83568  -10.33392
  14.48949    2.80045   -3.62646    6.73032  -11.26255
  14.50450    2.77187   -3.21825    6.36247  -12.08757
  14.51952    2.74764   -2.81360    5.81434  -12.72627
  14.53453    2.72756   -2.41191    5.18430  -13.15419
  14.54955    2.71144   -2.01245    4.55197  -13.39239
  14.56456    2.69916   -1.61476    3.96629  -13.48281
  14.57958    2.69059   -1.21855    3.44911  -13.46887
  14.59460    2.68566   -0.82309    3.00500  -13.38675
  14.60961    2.68430   -0.42792    2.62934  -13.26328
  14.62463    2.68646   -0.03276    2.31368  -13.11684
  14.63964    2.69211    0.36308    2.04892  -12.95928
  14.65466    2.70127    0.76010    1.82645  -12.79845
  14.66967    2.71395    1.15845    1.63888  -12.63896
  14.68469    2.73019    1.55917    1.47996  -12.48362
  14.69970    2.75004    1.96220    1.34463  -12.33392
  14.71472    2.77358    2.36841    1.22870  -12.19058
  14.72973    2.80092    2.77817    1.12885  -12.05377
  14.74475    2.83218    3.19209    1.04235  -11.92363
  14.75976    2.86749    3.61045    0.96701  -11.79957
  14.77478    2.90705    4.03415    0.90104  -11.68173
  14.78979    2.95104    4.46356    0.84299  -11.56937
  14.80481    2.99969    4.89942    0.79165  -11.46236
  14.81982    3.05325    5.34224    0.74605  -11.36008
  14.83484    3.11203    5.79291    0.70536  -11.26255
  14.84985    3.17635    6.25196    0.66892  -11.16902
  14.86487    3.24659    6.71998    0.63614  -11.07934
  14.87988    3.32318    7.19823    0.60656  -10.99322
  14.89490    3.40657    7.68715    0.57977  -10.91052
  14.90991    3.49734    8.18793    0.55542  -10.83077
  14.92492    3.59605    8.70145    0.53322  -10.75384
  14.93994    3.70343    9.22854    0.51293  -10.67958
  14.95496    3.82021    9.77052    0.49433  -10.60769
  14.96997    3.94730   10.32881    0.47724  -10.53817
  14.98499    4.08566   10.90429    0.46148  -10.47058
  15.00000    4.23646   11.49867    0.44694  -10.40522
# 
# 03/01/2017 at 15:53 YAMBO @ anomaly [start]
# 03/01/2017 at 15:53                 [end]
#  
# Timing   [Min/Max/Average]: 05s/05s/05s
#
# .-Input file : yambo.in
# | optics                       # [R OPT] Optics
# | bse                          # [R BSE] Bethe Salpeter Equation.
# | bsk                          # [R BSK] Bethe Salpeter Equation kernel
# | bss                          # [R BSS] Bethe Salpeter Equation solver
# | BoseTemp= 0.000000     eV    # Bosonic Temperature
# | FFTGvecs=  9939        RL    # [FFT] Plane-waves
# | X_Threads= 1                 # [OPENMP/X] Number of threads for response functions
# | DIP_Threads= 1               # [OPENMP/X] Number of threads for dipoles
# | NonPDirs= "XYZ"              # [X/BSS] Non periodic chartesian directions (X,Y,Z,XY...)
# | BSEmod= "retarded"           # [BSE] resonant/retarded/coupling
# | BSKmod= "Hartree"            # [BSE] IP/Hartree/HF/ALDA/SEX/BSfxc
# | BSSmod= "hd"                 # [BSS] (h)aydock/(d)iagonalization/(i)nversion/(t)ddft`
# | BSENGexx=  9045        RL    # [BSK] Exchange components
# | % BEnRange
# |   0.00000 | 15.00000 | eV    # [BSS] Energy range
# | %
# | % BDmRange
# |   0.10000 |  0.10000 | eV    # [BSS] Damping range
# | %
# | BEnSteps= 1000               # [BSS] Energy steps
# | % BLongDir
# | 0.1000E-4 | 0.000    | 0.000    |        # [BSS] [cc] Electric Field
# | %
# | % BSEBands
# |    1 | 200 |                 # [BSK] Bands range
# | %
# | BSHayTrs=0.1000E-2           # [BSS] Relative [o/o] Haydock treshold. Strict(>0)/Average(<0)
