#                                                           
#  **    **    **     ****     ****  ******     *******     
# //**  **    ****   /**/**   **/** /*////**   **/////**    
#  //****    **//**  /**//** ** /** /*   /**  **     //**   
#   //**    **  //** /** //***  /** /******  /**      /**   
#    /**   **********/**  //*   /** /*//// **/**      /**   
#    /**  /**//////**/**   /    /** /*    /**//**     **    
#    /**  /**     /**/**        /** /*******  //*******     
#    //   //      // //         //  ///////    ///////      
#                                                           
#        Version 4.3.0 Revision 15624 Hash 7ed12fb          
#                      MPI+SLK Build                        
#                http://www.yambo-code.org                  
#
# EELS @ Q(1)  [q->0 direction]:0.1000E-4  0.000     0.000   
#
#
# - Energies      are Teter 93(XC)
# - Wavefunctions are Teter 93(XC)
#
# - The Green`s function is Retarded -
# - Using the Length Gauge -
# - [r,Vnl] *is* included -
#
#   BSK|Identifier              :5179
#      |Dimension               :49
#      |Bands                   :1 - 50
#      |Exchange           [res]: yes
#      |Correlation        [res]: no
#      |Kernel`s coupling       : no
#      |Exchange           [cpl]: no
#      |Correlation        [cpl]: no
#      |W interaction is bare   : no
#      |ALDA kernel in R-space  : no
#      |RL vectors    [exchange]:123
#      |E/h energy range    [ev]:-1.000000 - -1.000000
#      |Coupling range     [o/o]: 100.0000 -  100.0000
#
#    E/ev[1]      EEL-Im[2]    EEL-Re[3]    EELo-Im[4]   EELo-Re[5]
#
    0.000000    -0.000000    -0.982900    -0.000000    -0.980822
   0.7538E-1    0.1014E-5    -.9829       0.1395E-5    -.9808   
   0.1508       0.2028E-5    -.9829       0.2790E-5    -.9808   
   0.2261       0.3043E-5    -.9829       0.4187E-5    -.9808   
   0.3015       0.4059E-5    -.9829       0.5585E-5    -.9808   
   0.3769       0.5076E-5    -.9829       0.6985E-5    -.9808   
   0.4523       0.6094E-5    -.9829       0.8387E-5    -.9808   
   0.5276       0.7115E-5    -.9829       0.9792E-5    -.9808   
   0.6030       0.8137E-5    -.9829       0.1120E-4    -.9808   
   0.6784       0.9162E-5    -.9829       0.1261E-4    -.9808   
   0.7538       0.1019E-4    -.9829       0.1403E-4    -.9808   
   0.8291       0.1122E-4    -.9829       0.1545E-4    -.9808   
   0.9045       0.1225E-4    -.9828       0.1688E-4    -.9807   
   0.9799       0.1329E-4    -.9828       0.1832E-4    -.9807   
    1.055       0.1433E-4    -.9828       0.1976E-4    -.9807   
    1.131       0.1538E-4    -.9828       0.2120E-4    -.9807   
    1.206       0.1643E-4    -.9828       0.2266E-4    -.9807   
    1.281       0.1749E-4    -.9828       0.2412E-4    -.9807   
    1.357       0.1855E-4    -.9828       0.2559E-4    -.9807   
    1.432       0.1962E-4    -.9828       0.2708E-4    -.9806   
    1.508       0.2069E-4    -.9827       0.2857E-4    -.9806   
    1.583       0.2177E-4    -.9827       0.3007E-4    -.9806   
    1.658       0.2286E-4    -.9827       0.3158E-4    -.9806   
    1.734       0.2395E-4    -.9827       0.3311E-4    -.9805   
    1.809       0.2505E-4    -.9827       0.3465E-4    -.9805   
    1.884       0.2616E-4    -.9827       0.3620E-4    -.9805   
    1.960       0.2728E-4    -.9826       0.3776E-4    -.9805   
    2.035       0.2841E-4    -.9826       0.3934E-4    -.9804   
    2.111       0.2954E-4    -.9826       0.4093E-4    -.9804   
    2.186       0.3069E-4    -.9826       0.4254E-4    -.9804   
    2.261       0.3184E-4    -.9825       0.4417E-4    -.9803   
    2.337       0.3300E-4    -.9825       0.4581E-4    -.9803   
    2.412       0.3418E-4    -.9825       0.4747E-4    -.9803   
    2.487       0.3537E-4    -.9825       0.4915E-4    -.9802   
    2.563       0.3657E-4    -.9824       0.5084E-4    -.9802   
    2.638       0.3778E-4    -.9824       0.5256E-4    -.9802   
    2.714       0.3900E-4    -.9824       0.5430E-4    -.9801   
    2.789       0.4024E-4    -.9824       0.5606E-4    -.9801   
    2.864       0.4149E-4    -.9823       0.5785E-4    -.9800   
    2.940       0.4275E-4    -.9823       0.5965E-4    -.9800   
    3.015       0.4403E-4    -.9823       0.6149E-4    -.9799   
    3.090       0.4533E-4    -.9822       0.6334E-4    -.9799   
    3.166       0.4664E-4    -.9822       0.6523E-4    -.9798   
    3.241       0.4796E-4    -.9822       0.6714E-4    -.9798   
    3.317       0.4931E-4    -.9821       0.6908E-4    -.9797   
    3.392       0.5067E-4    -.9821       0.7105E-4    -.9797   
    3.467       0.5205E-4    -.9820       0.7305E-4    -.9796   
    3.543       0.5344E-4    -.9820       0.7508E-4    -.9796   
    3.618       0.5486E-4    -.9820       0.7714E-4    -.9795   
    3.693       0.5630E-4    -.9819       0.7924E-4    -.9795   
    3.769       0.5776E-4    -.9819       0.8137E-4    -.9794   
    3.844       0.5924E-4    -.9818       0.8355E-4    -.9793   
    3.920       0.6074E-4    -.9818       0.8576E-4    -.9793   
    3.995       0.6227E-4    -.9817       0.8800E-4    -.9792   
    4.070       0.6382E-4    -.9817       0.9029E-4    -.9791   
    4.146       0.6539E-4    -.9816       0.9263E-4    -.9791   
    4.221       0.6699E-4    -.9816       0.9500E-4    -.9790   
    4.296       0.6862E-4    -.9815       0.9743E-4    -.9789   
    4.372       0.7027E-4    -.9815       0.9990E-4    -.9789   
    4.447       0.7195E-4    -.9814       0.1024E-3    -.9788   
    4.523       0.7367E-4    -.9814       0.1050E-3    -.9787   
    4.598       0.7541E-4    -.9813       0.1076E-3    -.9786   
    4.673       0.7718E-4    -.9813       0.1103E-3    -.9785   
    4.749       0.7899E-4    -.9812       0.1130E-3    -.9785   
    4.824       0.8083E-4    -.9812       0.1158E-3    -.9784   
    4.899       0.8271E-4    -.9811       0.1187E-3    -.9783   
    4.975       0.8462E-4    -.9810       0.1216E-3    -.9782   
    5.050       0.8657E-4    -.9810       0.1246E-3    -.9781   
    5.126       0.8856E-4    -.9809       0.1277E-3    -.9780   
    5.201       0.9059E-4    -.9808       0.1308E-3    -.9779   
    5.276       0.9266E-4    -.9808       0.1340E-3    -.9778   
    5.352       0.9478E-4    -.9807       0.1373E-3    -.9777   
    5.427       0.9694E-4    -.9806       0.1406E-3    -.9776   
    5.503       0.9914E-4    -.9805       0.1441E-3    -.9775   
    5.578       0.1014E-3    -.9805       0.1476E-3    -.9774   
    5.653       0.1037E-3    -.9804       0.1512E-3    -.9773   
    5.729       0.1061E-3    -.9803       0.1550E-3    -.9772   
    5.804       0.1085E-3    -.9802       0.1588E-3    -.9770   
    5.879       0.1109E-3    -.9802       0.1627E-3    -.9769   
    5.955       0.1135E-3    -.9801       0.1667E-3    -.9768   
    6.030       0.1161E-3    -.9800       0.1709E-3    -.9767   
    6.106       0.1187E-3    -.9799       0.1752E-3    -.9765   
    6.181       0.1214E-3    -.9798       0.1795E-3    -.9764   
    6.256       0.1242E-3    -.9797       0.1840E-3    -.9763   
    6.332       0.1271E-3    -.9796       0.1887E-3    -.9761   
    6.407       0.1300E-3    -.9795       0.1935E-3    -.9760   
    6.482       0.1330E-3    -.9794       0.1984E-3    -.9758   
    6.558       0.1361E-3    -.9793       0.2035E-3    -.9757   
    6.633       0.1393E-3    -.9792       0.2087E-3    -.9755   
    6.709       0.1425E-3    -.9791       0.2141E-3    -.9754   
    6.784       0.1459E-3    -.9790       0.2197E-3    -.9752   
    6.859       0.1493E-3    -.9789       0.2255E-3    -.9750   
    6.935       0.1528E-3    -.9788       0.2314E-3    -.9749   
    7.010       0.1565E-3    -.9787       0.2376E-3    -.9747   
    7.085       0.1602E-3    -.9785       0.2439E-3    -.9745   
    7.161       0.1641E-3    -.9784       0.2505E-3    -.9743   
    7.236       0.1681E-3    -.9783       0.2573E-3    -.9741   
    7.312       0.1722E-3    -.9782       0.2644E-3    -.9739   
    7.387       0.1764E-3    -.9780       0.2717E-3    -.9737   
    7.462       0.1808E-3    -.9779       0.2793E-3    -.9735   
    7.538       0.1853E-3    -.9778       0.2872E-3    -.9733   
    7.613       0.1900E-3    -.9776       0.2954E-3    -.9731   
    7.688       0.1948E-3    -.9775       0.3039E-3    -.9729   
    7.764       0.1998E-3    -.9773       0.3127E-3    -.9726   
    7.839       0.2049E-3    -.9772       0.3219E-3    -.9724   
    7.915       0.2102E-3    -.9770       0.3315E-3    -.9721   
    7.990       0.2158E-3    -.9769       0.3415E-3    -.9719   
    8.065       0.2215E-3    -.9767       0.3519E-3    -.9716   
    8.141       0.2274E-3    -.9765       0.3627E-3    -.9714   
    8.216       0.2336E-3    -.9763       0.3740E-3    -.9711   
    8.291       0.2400E-3    -.9762       0.3858E-3    -.9708   
    8.367       0.2466E-3    -.9760       0.3982E-3    -.9705   
    8.442       0.2535E-3    -.9758       0.4111E-3    -.9702   
    8.518       0.2607E-3    -.9756       0.4247E-3    -.9699   
    8.593       0.2682E-3    -.9754       0.4388E-3    -.9696   
    8.668       0.2760E-3    -.9752       0.4537E-3    -.9692   
    8.744       0.2841E-3    -.9750       0.4694E-3    -.9689   
    8.819       0.2925E-3    -.9748       0.4858E-3    -.9685   
    8.894       0.3014E-3    -.9745       0.5030E-3    -.9681   
    8.970       0.3106E-3    -.9743       0.5212E-3    -.9678   
    9.045       0.3203E-3    -.9741       0.5404E-3    -.9674   
    9.121       0.3304E-3    -.9738       0.5606E-3    -.9669   
    9.196       0.3410E-3    -.9736       0.5820E-3    -.9665   
    9.271       0.3521E-3    -.9733       0.6046E-3    -.9661   
    9.347       0.3638E-3    -.9731       0.6285E-3    -.9656   
    9.422       0.3760E-3    -.9728       0.6539E-3    -.9651   
    9.497       0.3889E-3    -.9725       0.6809E-3    -.9646   
    9.573       0.4025E-3    -.9722       0.7095E-3    -.9641   
    9.648       0.4168E-3    -.9719       0.7400E-3    -.9635   
    9.724       0.4319E-3    -.9716       0.7725E-3    -.9630   
    9.799       0.4478E-3    -.9712       0.8073E-3    -.9624   
    9.874       0.4647E-3    -.9709       0.8445E-3    -.9618   
    9.950       0.4826E-3    -.9705       0.8843E-3    -.9611   
    10.03       0.5015E-3    -.9702       0.9271E-3    -.9604   
    10.10       0.5217E-3    -.9698       0.9731E-3    -.9597   
    10.18       0.5432E-3    -.9694       0.1023E-2    -.9590   
    10.25       0.5660E-3    -.9690       0.1076E-2    -.9582   
    10.33       0.5905E-3    -.9685       0.1134E-2    -.9573   
    10.40       0.6166E-3    -.9681       0.1197E-2    -.9565   
    10.48       0.6446E-3    -.9676       0.1266E-2    -.9555   
    10.55       0.6747E-3    -.9671       0.1341E-2    -.9546   
    10.63       0.7070E-3    -.9666       0.1423E-2    -.9535   
    10.70       0.7419E-3    -.9660       0.1513E-2    -.9524   
    10.78       0.7796E-3    -.9655       0.1612E-2    -.9513   
    10.85       0.8205E-3    -.9649       0.1721E-2    -.9500   
    10.93       0.8650E-3    -.9642       0.1843E-2    -.9487   
    11.01       0.9134E-3    -.9636       0.1978E-2    -.9472   
    11.08       0.9663E-3    -.9628       0.2130E-2    -.9457   
    11.16       0.1024E-2    -.9621       0.2300E-2    -.9440   
    11.23       0.1088E-2    -.9613       0.2492E-2    -.9422   
    11.31       0.1159E-2    -.9605       0.2711E-2    -.9403   
    11.38       0.1237E-2    -.9596       0.2961E-2    -.9382   
    11.46       0.1324E-2    -.9586       0.3249E-2    -.9359   
    11.53       0.1422E-2    -.9576       0.3583E-2    -.9333   
    11.61       0.1532E-2    -.9565       0.3974E-2    -.9305   
    11.68       0.1656E-2    -.9553       0.4435E-2    -.9274   
    11.76       0.1797E-2    -.9540       0.4985E-2    -.9239   
    11.83       0.1959E-2    -.9526       0.5648E-2    -.9199   
    11.91       0.2146E-2    -.9510       0.6458E-2    -.9154   
    11.98       0.2364E-2    -.9494       0.7463E-2    -.9103   
    12.06       0.2619E-2    -.9475       0.8731E-2    -.9044   
    12.14       0.2922E-2    -.9454       0.1036E-1    -.8974   
    12.21       0.3286E-2    -.9431       0.1252E-1    -.8891   
    12.29       0.3727E-2    -.9405       0.1543E-1    -.8790   
    12.36       0.4271E-2    -.9376       0.1953E-1    -.8666   
    12.44       0.4954E-2    -.9342       0.2552E-1    -.8509   
    12.51       0.5826E-2    -.9302       0.3477E-1    -.8305   
    12.59       0.6968E-2    -.9256       0.5009E-1    -.8031   
    12.66       0.8503E-2    -.9200       0.7786E-1    -.7652   
    12.74       0.1064E-1    -.9132       0.1345       -.7131   
    12.81407      0.01372     -0.90464      0.26573     -0.65838
    12.88945      0.01843     -0.89365      0.53739     -0.74118
    12.96482      0.02609     -0.87906      0.57465     -1.15698
    13.04020      0.03968     -0.85908      0.29407     -1.28559
    13.11558      0.06667     -0.83148      0.14663     -1.23515
    13.19096      0.12778     -0.79889      0.08371     -1.18091
    13.26633      0.26487     -0.81406      0.05350     -1.14088
    13.34171      0.34437     -1.02591      0.03716     -1.11177
    13.41709      0.19152     -1.14249      0.02747     -1.08993
    13.49246      0.09370     -1.12087      0.02132     -1.07293
    13.56784      0.05231     -1.08888      0.01723     -1.05923
    13.64322      0.03300     -1.06462      0.01442     -1.04783
    13.72       0.2281E-1    -1.047       0.1245E-1    -1.038   
    13.79       0.1689E-1    -1.034       0.1107E-1    -1.029   
    13.87       0.1320E-1    -1.023       0.1012E-1    -1.022   
    13.94       0.1080E-1    -1.015       0.9528E-2    -1.014   
    14.02       0.9179E-2    -1.007       0.9232E-2    -1.008   
    14.10       0.8083E-2    -1.001       0.9217E-2    -1.001   
    14.17       0.7352E-2    -.9954       0.9497E-2    -.9938   
    14.25       0.6895E-2    -.9901       0.1012E-1    -.9866   
    14.32       0.6660E-2    -.9851       0.1118E-1    -.9788   
    14.40       0.6621E-2    -.9802       0.1285E-1    -.9702   
    14.47       0.6772E-2    -.9753       0.1543E-1    -.9601   
    14.55       0.7127E-2    -.9702       0.1949E-1    -.9480   
    14.62       0.7719E-2    -.9647       0.2616E-1    -.9326   
    14.70       0.8613E-2    -.9587       0.3790E-1    -.9125   
    14.77       0.9917E-2    -.9520       0.6070E-1    -.8852   
    14.85       0.1181E-1    -.9442       0.1108       -.8505   
    14.92       0.1463E-1    -.9348       0.2287       -.8388   
    15.00000      0.01894     -0.92319      0.36721     -1.00452
# 
# 07/24/2018 at 09:14 YAMBO @ NewLaptop [start]
# 07/24/2018 at 09:14                   [end]
#
# .-Input file : yambo.in
# | optics                         # [R OPT] Optics
# | bse                            # [R BSE] Bethe Salpeter Equation.
# | bsk                            # [R BSK] Bethe Salpeter Equation kernel
# | bss                            # [R BSS] Bethe Salpeter Equation solver
# | BoseTemp= 0.000000     eV      # Bosonic Temperature
# | FFTGvecs=  4945        RL      # [FFT] Plane-waves
# | NonPDirs= "XYZ"                # [X/BSS] Non periodic chartesian directions (X,Y,Z,XY...)
# | BSEmod= "retarded"             # [BSE] resonant/retarded/coupling
# | BSKmod= "Hartree"              # [BSE] IP/Hartree/HF/ALDA/SEX/BSfxc
# | BSSmod= "d"                    # [BSS] (h)aydock/(d)iagonalization/(i)nversion/(t)ddft`
# | BSENGexx= 123          RL      # [BSK] Exchange components
# | % BEnRange
# |   0.00000 | 15.00000 | eV      # [BSS] Energy range
# | %
# | % BDmRange
# |   0.10000 |  0.10000 | eV      # [BSS] Damping range
# | %
# | BEnSteps= 200                  # [BSS] Energy steps
# | % BLongDir
# | 0.1000E-4 | 0.000    | 0.000    |        # [BSS] [cc] Electric Field
# | %
# | % BSEBands
# |    1 |  50 |                   # [BSK] Bands range
# | %
