#                                                           
#  __  __   ________   ___ __ __    _______   ______        
# /_/\/_/\ /_______/\ /__//_//_/\ /_______/\ /_____/\       
# \ \ \ \ \\::: _  \ \\::\| \| \ \\::: _  \ \\:::_ \ \      
#  \:\_\ \ \\::(_)  \ \\:.      \ \\::(_)  \/_\:\ \ \ \     
#   \::::_\/ \:: __  \ \\:.\-/\  \ \\::  _  \ \\:\ \ \ \    
#     \::\ \  \:.\ \  \ \\. \  \  \ \\::(_)  \ \\:\_\ \ \   
#      \__\/   \__\/\__\/ \__\/ \__\/ \_______\/ \_____\/   
#                                                           
#                                                           
#        Version 4.3.0 Revision 15624 Hash 7ed12fb          
#                      MPI+SLK Build                        
#                http://www.yambo-code.org                  
#
# Absorption @ Q(1) [q->0 direction] : 1.0000000  0.0000000  0.0000000
#
#
# - Energies      are Teter 93(XC)
# - Wavefunctions are Teter 93(XC)
#
# - The Green`s function is T-ordered -
# - Using the Length Gauge -
# - [r,Vnl] *is* included -
#
#    E/ev[1]       EPS-Im[2]     EPS-Re[3]     EPSo-Im[4]    EPSo-Re[5]
#
    0.0000       0.89012E-4     1.0157       0.13561E-3     1.0196   
   0.75377E-1    0.88905E-4     1.0157       0.13562E-3     1.0196   
   0.15075       0.88924E-4     1.0157       0.13566E-3     1.0196   
   0.22613       0.88821E-4     1.0157       0.13571E-3     1.0196   
   0.30151       0.89125E-4     1.0157       0.13580E-3     1.0196   
   0.37688       0.89364E-4     1.0157       0.13590E-3     1.0196   
   0.45226       0.89592E-4     1.0157       0.13603E-3     1.0196   
   0.52764       0.89536E-4     1.0157       0.13619E-3     1.0196   
   0.60302       0.89160E-4     1.0157       0.13637E-3     1.0196   
   0.67839       0.89533E-4     1.0157       0.13657E-3     1.0196   
   0.75377       0.90025E-4     1.0157       0.13680E-3     1.0196   
   0.82915       0.90250E-4     1.0157       0.13705E-3     1.0196   
   0.90452       0.90064E-4     1.0157       0.13733E-3     1.0196   
   0.97990       0.90447E-4     1.0158       0.13763E-3     1.0196   
    1.0553       0.90360E-4     1.0158       0.13795E-3     1.0197   
    1.1307       0.90522E-4     1.0158       0.13830E-3     1.0197   
    1.2060       0.90742E-4     1.0158       0.13868E-3     1.0197   
    1.2814       0.90979E-4     1.0158       0.13908E-3     1.0197   
    1.3568       0.91156E-4     1.0158       0.13951E-3     1.0197   
    1.4322       0.91011E-4     1.0158       0.13996E-3     1.0198   
    1.5075       0.91930E-4     1.0158       0.14044E-3     1.0198   
    1.5829       0.91723E-4     1.0159       0.14095E-3     1.0198   
    1.6583       0.92486E-4     1.0159       0.14148E-3     1.0198   
    1.7337       0.93222E-4     1.0159       0.14205E-3     1.0198   
    1.8090       0.93436E-4     1.0159       0.14263E-3     1.0199   
    1.8844       0.93356E-4     1.0159       0.14325E-3     1.0199   
    1.9598       0.93708E-4     1.0159       0.14390E-3     1.0199   
    2.0352       0.94362E-4     1.0160       0.14457E-3     1.0200   
    2.1106       0.94950E-4     1.0160       0.14528E-3     1.0200   
    2.1859       0.95207E-4     1.0160       0.14601E-3     1.0200   
    2.2613       0.95612E-4     1.0160       0.14678E-3     1.0201   
    2.3367       0.96304E-4     1.0160       0.14757E-3     1.0201   
    2.4121       0.96470E-4     1.0161       0.14840E-3     1.0201   
    2.4874       0.97212E-4     1.0161       0.14926E-3     1.0202   
    2.5628       0.97399E-4     1.0161       0.15015E-3     1.0202   
    2.6382       0.98055E-4     1.0161       0.15108E-3     1.0202   
    2.7136       0.98910E-4     1.0162       0.15204E-3     1.0203   
    2.7889       0.99146E-4     1.0162       0.15303E-3     1.0203   
    2.8643       0.99515E-4     1.0162       0.15406E-3     1.0204   
    2.9397       0.10028E-3     1.0163       0.15513E-3     1.0204   
    3.0151       0.10119E-3     1.0163       0.15623E-3     1.0205   
    3.0905       0.10196E-3     1.0163       0.15737E-3     1.0205   
    3.1658       0.10263E-3     1.0164       0.15855E-3     1.0206   
    3.2412       0.10292E-3     1.0164       0.15977E-3     1.0206   
    3.3166       0.10377E-3     1.0164       0.16102E-3     1.0207   
    3.3920       0.10411E-3     1.0165       0.16232E-3     1.0207   
    3.4673       0.10507E-3     1.0165       0.16367E-3     1.0208   
    3.5427       0.10580E-3     1.0165       0.16505E-3     1.0208   
    3.6181       0.10722E-3     1.0166       0.16648E-3     1.0209   
    3.6935       0.10788E-3     1.0166       0.16796E-3     1.0210   
    3.7688       0.10869E-3     1.0167       0.16948E-3     1.0210   
    3.8442       0.10985E-3     1.0167       0.17106E-3     1.0211   
    3.9196       0.11070E-3     1.0167       0.17268E-3     1.0212   
    3.9950       0.11112E-3     1.0168       0.17435E-3     1.0212   
    4.0704       0.11274E-3     1.0168       0.17607E-3     1.0213   
    4.1457       0.11332E-3     1.0169       0.17785E-3     1.0214   
    4.2211       0.11455E-3     1.0169       0.17969E-3     1.0214   
    4.2965       0.11603E-3     1.0170       0.18158E-3     1.0215   
    4.3719       0.11656E-3     1.0170       0.18353E-3     1.0216   
    4.4472       0.11776E-3     1.0171       0.18554E-3     1.0217   
    4.5226       0.11859E-3     1.0171       0.18761E-3     1.0218   
    4.5980       0.12024E-3     1.0172       0.18975E-3     1.0218   
    4.6734       0.12121E-3     1.0172       0.19195E-3     1.0219   
    4.7487       0.12327E-3     1.0173       0.19423E-3     1.0220   
    4.8241       0.12436E-3     1.0173       0.19657E-3     1.0221   
    4.8995       0.12528E-3     1.0174       0.19899E-3     1.0222   
    4.9749       0.12698E-3     1.0175       0.20148E-3     1.0223   
    5.0503       0.12850E-3     1.0175       0.20405E-3     1.0224   
    5.1256       0.13006E-3     1.0176       0.20670E-3     1.0225   
    5.2010       0.13144E-3     1.0177       0.20944E-3     1.0226   
    5.2764       0.13312E-3     1.0177       0.21226E-3     1.0227   
    5.3518       0.13468E-3     1.0178       0.21517E-3     1.0228   
    5.4271       0.13655E-3     1.0179       0.21818E-3     1.0229   
    5.5025       0.13770E-3     1.0179       0.22128E-3     1.0230   
    5.5779       0.13942E-3     1.0180       0.22448E-3     1.0231   
    5.6533       0.14177E-3     1.0181       0.22779E-3     1.0233   
    5.7286       0.14354E-3     1.0182       0.23120E-3     1.0234   
    5.8040       0.14504E-3     1.0182       0.23473E-3     1.0235   
    5.8794       0.14722E-3     1.0183       0.23838E-3     1.0236   
    5.9548       0.15003E-3     1.0184       0.24214E-3     1.0238   
    6.0302       0.15138E-3     1.0185       0.24603E-3     1.0239   
    6.1055       0.15381E-3     1.0186       0.25006E-3     1.0240   
    6.1809       0.15607E-3     1.0186       0.25422E-3     1.0242   
    6.2563       0.15853E-3     1.0187       0.25852E-3     1.0243   
    6.3317       0.16039E-3     1.0188       0.26298E-3     1.0245   
    6.4070       0.16346E-3     1.0189       0.26759E-3     1.0246   
    6.4824       0.16564E-3     1.0190       0.27236E-3     1.0248   
    6.5578       0.16871E-3     1.0191       0.27730E-3     1.0249   
    6.6332       0.17135E-3     1.0192       0.28241E-3     1.0251   
    6.7085       0.17413E-3     1.0193       0.28772E-3     1.0253   
    6.7839       0.17709E-3     1.0194       0.29322E-3     1.0254   
    6.8593       0.18032E-3     1.0195       0.29892E-3     1.0256   
    6.9347       0.18256E-3     1.0196       0.30483E-3     1.0258   
    7.0101       0.18607E-3     1.0197       0.31097E-3     1.0260   
    7.0854       0.18941E-3     1.0199       0.31734E-3     1.0262   
    7.1608       0.19306E-3     1.0200       0.32395E-3     1.0264   
    7.2362       0.19637E-3     1.0201       0.33083E-3     1.0266   
    7.3116       0.20030E-3     1.0202       0.33797E-3     1.0268   
    7.3869       0.20370E-3     1.0204       0.34541E-3     1.0270   
    7.4623       0.20761E-3     1.0205       0.35314E-3     1.0272   
    7.5377       0.21200E-3     1.0206       0.36119E-3     1.0274   
    7.6131       0.21618E-3     1.0208       0.36957E-3     1.0277   
    7.6884       0.22043E-3     1.0209       0.37831E-3     1.0279   
    7.7638       0.22476E-3     1.0210       0.38742E-3     1.0281   
    7.8392       0.22997E-3     1.0212       0.39692E-3     1.0284   
    7.9146       0.23460E-3     1.0213       0.40684E-3     1.0287   
    7.9899       0.24017E-3     1.0215       0.41720E-3     1.0289   
    8.0653       0.24514E-3     1.0217       0.42803E-3     1.0292   
    8.1407       0.25070E-3     1.0218       0.43935E-3     1.0295   
    8.2161       0.25695E-3     1.0220       0.45121E-3     1.0298   
    8.2915       0.26223E-3     1.0222       0.46362E-3     1.0301   
    8.3668       0.26941E-3     1.0223       0.47663E-3     1.0304   
    8.4422       0.27551E-3     1.0225       0.49027E-3     1.0307   
    8.5176       0.28243E-3     1.0227       0.50459E-3     1.0311   
    8.5930       0.28964E-3     1.0229       0.51964E-3     1.0314   
    8.6683       0.29660E-3     1.0231       0.53546E-3     1.0318   
    8.7437       0.30484E-3     1.0233       0.55211E-3     1.0321   
    8.8191       0.31248E-3     1.0235       0.56965E-3     1.0325   
    8.8945       0.32118E-3     1.0237       0.58814E-3     1.0329   
    8.9698       0.33045E-3     1.0240       0.60765E-3     1.0333   
    9.0452       0.33973E-3     1.0242       0.62827E-3     1.0337   
    9.1206       0.34948E-3     1.0244       0.65007E-3     1.0342   
    9.1960       0.35946E-3     1.0247       0.67316E-3     1.0346   
    9.2714       0.37070E-3     1.0249       0.69763E-3     1.0351   
    9.3467       0.38216E-3     1.0252       0.72361E-3     1.0356   
    9.4221       0.39445E-3     1.0255       0.75122E-3     1.0361   
    9.4975       0.40701E-3     1.0258       0.78060E-3     1.0367   
    9.5729       0.41986E-3     1.0261       0.81192E-3     1.0372   
    9.6482       0.43486E-3     1.0264       0.84534E-3     1.0378   
    9.7236       0.44950E-3     1.0267       0.88106E-3     1.0384   
    9.7990       0.46565E-3     1.0270       0.91931E-3     1.0391   
    9.8744       0.48231E-3     1.0273       0.96033E-3     1.0398   
    9.9497       0.50016E-3     1.0277       0.10044E-2     1.0405   
    10.025       0.51945E-3     1.0281       0.10519E-2     1.0412   
    10.101       0.53942E-3     1.0284       0.11031E-2     1.0420   
    10.176       0.56136E-3     1.0288       0.11584E-2     1.0428   
    10.251       0.58500E-3     1.0293       0.12183E-2     1.0436   
    10.327       0.60951E-3     1.0297       0.12834E-2     1.0445   
    10.402       0.63582E-3     1.0302       0.13543E-2     1.0455   
    10.477       0.66467E-3     1.0306       0.14317E-2     1.0465   
    10.553       0.69560E-3     1.0311       0.15164E-2     1.0476   
    10.628       0.72881E-3     1.0316       0.16094E-2     1.0487   
    10.704       0.76549E-3     1.0322       0.17119E-2     1.0499   
    10.779       0.80403E-3     1.0328       0.18252E-2     1.0512   
    10.854       0.84697E-3     1.0334       0.19510E-2     1.0526   
    10.930       0.89247E-3     1.0340       0.20911E-2     1.0541   
    11.005       0.94386E-3     1.0347       0.22478E-2     1.0557   
    11.080       0.99947E-3     1.0354       0.24241E-2     1.0574   
    11.156       0.10612E-2     1.0362       0.26233E-2     1.0593   
    11.231       0.11286E-2     1.0370       0.28496E-2     1.0613   
    11.307       0.12039E-2     1.0379       0.31084E-2     1.0635   
    11.382       0.12874E-2     1.0388       0.34062E-2     1.0659   
    11.457       0.13810E-2     1.0398       0.37515E-2     1.0685   
    11.533       0.14864E-2     1.0408       0.41550E-2     1.0714   
    11.608       0.16058E-2     1.0420       0.46309E-2     1.0747   
    11.683       0.17408E-2     1.0432       0.51978E-2     1.0783   
    11.759       0.18959E-2     1.0446       0.58807E-2     1.0824   
    11.834       0.20748E-2     1.0461       0.67141E-2     1.0870   
    11.910       0.22826E-2     1.0477       0.77459E-2     1.0923   
    11.985       0.25264E-2     1.0495       0.90454E-2     1.0984   
    12.060       0.28153E-2     1.0514       0.10714E-1     1.1056   
    12.136       0.31597E-2     1.0537       0.12907E-1     1.1142   
    12.211       0.35784E-2     1.0561       0.15869E-1     1.1245   
    12.286       0.40925E-2     1.0590       0.20005E-1     1.1373   
    12.362       0.47345E-2     1.0622       0.26024E-1     1.1533   
    12.437       0.55511E-2     1.0660       0.35249E-1     1.1741   
    12.513       0.66137E-2     1.0704       0.50363E-1     1.2020   
    12.588       0.80320E-2     1.0757       0.77398E-1     1.2403   
    12.663       0.99860E-2     1.0822       0.13164        1.2934   
    12.738693      0.012782      1.090183      0.255501      1.354064
    12.814071      0.016981      1.100431      0.527204      1.306112
    12.889447      0.023684      1.113931      0.641206      0.884317
    12.964825      0.035276      1.132290      0.344382      0.693289
    13.040201      0.057549      1.157748      0.169118      0.739180
    13.115578      0.106266      1.190444      0.094814      0.798364
    13.190955      0.220498      1.201368      0.059761      0.842574
    13.266332      0.355921      1.041106      0.041053      0.874596
    13.341709      0.235122      0.861509      0.030066      0.898463
    13.417086      0.113244      0.865541      0.023143      0.916907
    13.492463      0.060849      0.898612      0.018549      0.931658
    13.567840      0.037228      0.925078      0.015389      0.943832
    13.643       0.25126E-1    0.94436       0.13164E-1    0.95417   
    13.719       0.18248E-1    0.95870       0.11585E-1    0.96319   
    13.794       0.14031E-1    0.96980       0.10476E-1    0.97127   
    13.869       0.11302E-1    0.97872       0.97329E-2    0.97869   
    13.945       0.94726E-2    0.98615       0.92933E-2    0.98569   
    14.020       0.82246E-2    0.99255       0.91286E-2    0.99247   
    14.095       0.73765E-2    0.99824       0.92379E-2    0.99922   
    14.171       0.68224E-2     1.0034       0.96497E-2     1.0061   
    14.246       0.64985E-2     1.0083       0.10430E-1     1.0135   
    14.322       0.63723E-2     1.0131       0.11700E-1     1.0215   
    14.397       0.64313E-2     1.0178       0.13680E-1     1.0306   
    14.472       0.66799E-2     1.0226       0.16763E-1     1.0413   
    14.548       0.71465E-2     1.0277       0.21709E-1     1.0545   
    14.623       0.78797E-2     1.0332       0.30084E-1     1.0714   
    14.698       0.89711E-2     1.0393       0.45475E-1     1.0940   
    14.774       0.10572E-1     1.0464       0.77136E-1     1.1244   
    14.849       0.12948E-1     1.0547       0.15070        1.1561   
    14.924623      0.016582      1.064998      0.302624      1.109624
    15.000001      0.022418      1.078113      0.321051      0.878153
# 
# 07/24/2018 at 09:14 YAMBO @ NewLaptop [start]
# 07/24/2018 at 09:14                   [end]
#  
# Timing   [Min/Max/Average]: 02s/02s/02s
#
# .-Input file : yambo.in
# | optics                         # [R OPT] Optics
# | chi                            # [R CHI] Dyson equation for Chi.
# | BoseTemp= 0.000000     eV      # Bosonic Temperature
# | FFTGvecs=  4945        RL      # [FFT] Plane-waves
# | NonPDirs= "XYZ"                # [X/BSS] Non periodic chartesian directions (X,Y,Z,XY...)
# | Chimod= "Hartree"              # [X] IP/Hartree/ALDA/LRC/PF/BSfxc
# | NGsBlkXd= 123          RL      # [Xd] Response block size
# | % QpntsRXd
# |  1 | 1 |                       # [Xd] Transferred momenta
# | %
# | % BndsRnXd
# |    1 |  50 |                   # [Xd] Polarization function bands
# | %
# | % EnRngeXd
# |   0.00000 | 15.00000 | eV      # [Xd] Energy range
# | %
# | % DmRngeXd
# |   0.10000 |  0.10000 | eV      # [Xd] Damping range
# | %
# | ETStpsXd= 200                  # [Xd] Total Energy steps
# | % LongDrXd
# | 0.1000E-4 | 0.000    | 0.000    |        # [Xd] [cc] Electric Field
# | %
