#                                                           
#  **    **    **     ****     ****  ******     *******     
# //**  **    ****   /**/**   **/** /*////**   **/////**    
#  //****    **//**  /**//** ** /** /*   /**  **     //**   
#   //**    **  //** /** //***  /** /******  /**      /**   
#    /**   **********/**  //*   /** /*//// **/**      /**   
#    /**  /**//////**/**   /    /** /*    /**//**     **    
#    /**  /**     /**/**        /** /*******  //*******     
#    //   //      // //         //  ///////    ///////      
#                                                           
#        Version 4.3.0 Revision 15624 Hash 7ed12fb          
#                      MPI+SLK Build                        
#                http://www.yambo-code.org                  
#
# EELS @ Q(1)  [q->0 direction]:0.1000E-4  0.000     0.000   
#
#
# - Energies      are Teter 93(XC)
# - Wavefunctions are Teter 93(XC)
#
# - The Green`s function is Retarded -
# - Using the Length Gauge -
# - [r,Vnl] *is* included -
#
#   BSK|Identifier              :5179
#      |Dimension               :49
#      |Bands                   :1 - 50
#      |Exchange           [res]: yes
#      |Correlation        [res]: no
#      |Kernel`s coupling       : no
#      |Exchange           [cpl]: no
#      |Correlation        [cpl]: no
#      |W interaction is bare   : no
#      |ALDA kernel in R-space  : no
#      |RL vectors    [exchange]:4067
#      |E/h energy range    [ev]:-1.000000 - -1.000000
#      |Coupling range     [o/o]: 100.0000 -  100.0000
#  
#   Haydock|Accuracy (requested) [o/o]:0.1000E-2
#          |Accuracy (reached)   [o/o]:0.6272E-3
#          |Iteration                 :7
#
#    E/ev[1]      EEL-Im[2]    EEL-Re[3]    EELo-Im[4]   EELo-Re[5]   EEL`-Im[6]   EEL`-Re[7]
#
    0.000000    -0.000000    -0.983874    -0.000000    -0.980822    -0.000000    -0.983874
   0.1502E-1    0.1746E-6    -.9839       0.2779E-6    -.9808       0.1746E-6    -.9839   
   0.3003E-1    0.3492E-6    -.9839       0.5557E-6    -.9808       0.3492E-6    -.9839   
   0.4505E-1    0.5238E-6    -.9839       0.8336E-6    -.9808       0.5238E-6    -.9839   
   0.6006E-1    0.6984E-6    -.9839       0.1111E-5    -.9808       0.6984E-6    -.9839   
   0.7508E-1    0.8730E-6    -.9839       0.1389E-5    -.9808       0.8730E-6    -.9839   
   0.9009E-1    0.1048E-5    -.9839       0.1667E-5    -.9808       0.1048E-5    -.9839   
   0.1051       0.1222E-5    -.9839       0.1945E-5    -.9808       0.1222E-5    -.9839   
   0.1201       0.1397E-5    -.9839       0.2223E-5    -.9808       0.1397E-5    -.9839   
   0.1351       0.1571E-5    -.9839       0.2501E-5    -.9808       0.1571E-5    -.9839   
   0.1502       0.1746E-5    -.9839       0.2779E-5    -.9808       0.1746E-5    -.9839   
   0.1652       0.1921E-5    -.9839       0.3057E-5    -.9808       0.1921E-5    -.9839   
   0.1802       0.2096E-5    -.9839       0.3335E-5    -.9808       0.2096E-5    -.9839   
   0.1952       0.2270E-5    -.9839       0.3614E-5    -.9808       0.2270E-5    -.9839   
   0.2102       0.2445E-5    -.9839       0.3892E-5    -.9808       0.2445E-5    -.9839   
   0.2252       0.2620E-5    -.9839       0.4170E-5    -.9808       0.2620E-5    -.9839   
   0.2402       0.2795E-5    -.9839       0.4448E-5    -.9808       0.2795E-5    -.9839   
   0.2553       0.2970E-5    -.9839       0.4727E-5    -.9808       0.2970E-5    -.9839   
   0.2703       0.3144E-5    -.9839       0.5005E-5    -.9808       0.3144E-5    -.9839   
   0.2853       0.3319E-5    -.9839       0.5284E-5    -.9808       0.3319E-5    -.9839   
   0.3003       0.3494E-5    -.9839       0.5562E-5    -.9808       0.3494E-5    -.9839   
   0.3153       0.3669E-5    -.9839       0.5841E-5    -.9808       0.3669E-5    -.9839   
   0.3303       0.3844E-5    -.9839       0.6120E-5    -.9808       0.3844E-5    -.9839   
   0.3453       0.4019E-5    -.9839       0.6399E-5    -.9808       0.4019E-5    -.9839   
   0.3604       0.4195E-5    -.9839       0.6677E-5    -.9808       0.4195E-5    -.9839   
   0.3754       0.4370E-5    -.9839       0.6956E-5    -.9808       0.4370E-5    -.9839   
   0.3904       0.4545E-5    -.9839       0.7236E-5    -.9808       0.4545E-5    -.9839   
   0.4054       0.4720E-5    -.9839       0.7515E-5    -.9808       0.4720E-5    -.9839   
   0.4204       0.4896E-5    -.9839       0.7794E-5    -.9808       0.4896E-5    -.9839   
   0.4354       0.5071E-5    -.9839       0.8074E-5    -.9808       0.5071E-5    -.9839   
   0.4505       0.5246E-5    -.9839       0.8353E-5    -.9808       0.5246E-5    -.9839   
   0.4655       0.5422E-5    -.9839       0.8633E-5    -.9808       0.5422E-5    -.9839   
   0.4805       0.5597E-5    -.9839       0.8913E-5    -.9808       0.5597E-5    -.9839   
   0.4955       0.5773E-5    -.9839       0.9193E-5    -.9808       0.5773E-5    -.9839   
   0.5105       0.5949E-5    -.9839       0.9473E-5    -.9808       0.5949E-5    -.9839   
   0.5255       0.6125E-5    -.9839       0.9753E-5    -.9808       0.6125E-5    -.9839   
   0.5405       0.6300E-5    -.9839       0.1003E-4    -.9808       0.6300E-5    -.9839   
   0.5556       0.6476E-5    -.9839       0.1031E-4    -.9808       0.6476E-5    -.9839   
   0.5706       0.6652E-5    -.9839       0.1059E-4    -.9808       0.6652E-5    -.9839   
   0.5856       0.6828E-5    -.9839       0.1087E-4    -.9808       0.6828E-5    -.9839   
   0.6006       0.7004E-5    -.9839       0.1116E-4    -.9808       0.7004E-5    -.9839   
   0.6156       0.7181E-5    -.9839       0.1144E-4    -.9808       0.7181E-5    -.9839   
   0.6306       0.7357E-5    -.9839       0.1172E-4    -.9808       0.7357E-5    -.9839   
   0.6456       0.7533E-5    -.9838       0.1200E-4    -.9808       0.7533E-5    -.9838   
   0.6607       0.7710E-5    -.9838       0.1228E-4    -.9808       0.7710E-5    -.9838   
   0.6757       0.7886E-5    -.9838       0.1256E-4    -.9808       0.7886E-5    -.9838   
   0.6907       0.8063E-5    -.9838       0.1284E-4    -.9808       0.8063E-5    -.9838   
   0.7057       0.8240E-5    -.9838       0.1313E-4    -.9808       0.8240E-5    -.9838   
   0.7207       0.8417E-5    -.9838       0.1341E-4    -.9808       0.8417E-5    -.9838   
   0.7357       0.8594E-5    -.9838       0.1369E-4    -.9808       0.8594E-5    -.9838   
   0.7508       0.8771E-5    -.9838       0.1397E-4    -.9808       0.8771E-5    -.9838   
   0.7658       0.8948E-5    -.9838       0.1426E-4    -.9808       0.8948E-5    -.9838   
   0.7808       0.9125E-5    -.9838       0.1454E-4    -.9808       0.9125E-5    -.9838   
   0.7958       0.9302E-5    -.9838       0.1482E-4    -.9808       0.9302E-5    -.9838   
   0.8108       0.9480E-5    -.9838       0.1511E-4    -.9808       0.9480E-5    -.9838   
   0.8258       0.9657E-5    -.9838       0.1539E-4    -.9808       0.9657E-5    -.9838   
   0.8408       0.9835E-5    -.9838       0.1567E-4    -.9808       0.9835E-5    -.9838   
   0.8559       0.1001E-4    -.9838       0.1596E-4    -.9808       0.1001E-4    -.9838   
   0.8709       0.1019E-4    -.9838       0.1624E-4    -.9808       0.1019E-4    -.9838   
   0.8859       0.1037E-4    -.9838       0.1653E-4    -.9807       0.1037E-4    -.9838   
   0.9009       0.1055E-4    -.9838       0.1681E-4    -.9807       0.1055E-4    -.9838   
   0.9159       0.1072E-4    -.9838       0.1710E-4    -.9807       0.1072E-4    -.9838   
   0.9309       0.1090E-4    -.9838       0.1738E-4    -.9807       0.1090E-4    -.9838   
   0.9459       0.1108E-4    -.9838       0.1767E-4    -.9807       0.1108E-4    -.9838   
   0.9610       0.1126E-4    -.9838       0.1795E-4    -.9807       0.1126E-4    -.9838   
   0.9760       0.1144E-4    -.9838       0.1824E-4    -.9807       0.1144E-4    -.9838   
   0.9910       0.1162E-4    -.9838       0.1853E-4    -.9807       0.1162E-4    -.9838   
    1.006       0.1180E-4    -.9838       0.1881E-4    -.9807       0.1180E-4    -.9838   
    1.021       0.1198E-4    -.9838       0.1910E-4    -.9807       0.1198E-4    -.9838   
    1.036       0.1216E-4    -.9838       0.1939E-4    -.9807       0.1216E-4    -.9838   
    1.051       0.1233E-4    -.9838       0.1967E-4    -.9807       0.1233E-4    -.9838   
    1.066       0.1251E-4    -.9838       0.1996E-4    -.9807       0.1251E-4    -.9838   
    1.081       0.1269E-4    -.9838       0.2025E-4    -.9807       0.1269E-4    -.9838   
    1.096       0.1287E-4    -.9838       0.2054E-4    -.9807       0.1287E-4    -.9838   
    1.111       0.1305E-4    -.9838       0.2083E-4    -.9807       0.1305E-4    -.9838   
    1.126       0.1323E-4    -.9838       0.2112E-4    -.9807       0.1323E-4    -.9838   
    1.141       0.1341E-4    -.9838       0.2141E-4    -.9807       0.1341E-4    -.9838   
    1.156       0.1359E-4    -.9838       0.2170E-4    -.9807       0.1359E-4    -.9838   
    1.171       0.1378E-4    -.9838       0.2198E-4    -.9807       0.1378E-4    -.9838   
    1.186       0.1396E-4    -.9838       0.2228E-4    -.9807       0.1396E-4    -.9838   
    1.201       0.1414E-4    -.9838       0.2257E-4    -.9807       0.1414E-4    -.9838   
    1.216       0.1432E-4    -.9838       0.2286E-4    -.9807       0.1432E-4    -.9838   
    1.231       0.1450E-4    -.9838       0.2315E-4    -.9807       0.1450E-4    -.9838   
    1.246       0.1468E-4    -.9838       0.2344E-4    -.9807       0.1468E-4    -.9838   
    1.261       0.1486E-4    -.9838       0.2373E-4    -.9807       0.1486E-4    -.9838   
    1.276       0.1504E-4    -.9838       0.2402E-4    -.9807       0.1504E-4    -.9838   
    1.291       0.1523E-4    -.9838       0.2432E-4    -.9807       0.1523E-4    -.9838   
    1.306       0.1541E-4    -.9838       0.2461E-4    -.9807       0.1541E-4    -.9838   
    1.321       0.1559E-4    -.9838       0.2490E-4    -.9807       0.1559E-4    -.9838   
    1.336       0.1577E-4    -.9838       0.2519E-4    -.9807       0.1577E-4    -.9838   
    1.351       0.1596E-4    -.9838       0.2549E-4    -.9807       0.1596E-4    -.9838   
    1.366       0.1614E-4    -.9838       0.2578E-4    -.9806       0.1614E-4    -.9838   
    1.381       0.1632E-4    -.9838       0.2608E-4    -.9806       0.1632E-4    -.9838   
    1.396       0.1651E-4    -.9838       0.2637E-4    -.9806       0.1651E-4    -.9838   
    1.411       0.1669E-4    -.9838       0.2667E-4    -.9806       0.1669E-4    -.9838   
    1.426       0.1687E-4    -.9838       0.2696E-4    -.9806       0.1687E-4    -.9838   
    1.441       0.1706E-4    -.9838       0.2726E-4    -.9806       0.1706E-4    -.9838   
    1.456       0.1724E-4    -.9837       0.2756E-4    -.9806       0.1724E-4    -.9837   
    1.471       0.1742E-4    -.9837       0.2785E-4    -.9806       0.1742E-4    -.9837   
    1.486       0.1761E-4    -.9837       0.2815E-4    -.9806       0.1761E-4    -.9837   
    1.502       0.1779E-4    -.9837       0.2845E-4    -.9806       0.1779E-4    -.9837   
    1.517       0.1798E-4    -.9837       0.2875E-4    -.9806       0.1798E-4    -.9837   
    1.532       0.1816E-4    -.9837       0.2905E-4    -.9806       0.1816E-4    -.9837   
    1.547       0.1835E-4    -.9837       0.2934E-4    -.9806       0.1835E-4    -.9837   
    1.562       0.1853E-4    -.9837       0.2964E-4    -.9806       0.1853E-4    -.9837   
    1.577       0.1872E-4    -.9837       0.2994E-4    -.9806       0.1872E-4    -.9837   
    1.592       0.1891E-4    -.9837       0.3024E-4    -.9806       0.1891E-4    -.9837   
    1.607       0.1909E-4    -.9837       0.3054E-4    -.9806       0.1909E-4    -.9837   
    1.622       0.1928E-4    -.9837       0.3085E-4    -.9806       0.1928E-4    -.9837   
    1.637       0.1947E-4    -.9837       0.3115E-4    -.9806       0.1947E-4    -.9837   
    1.652       0.1965E-4    -.9837       0.3145E-4    -.9806       0.1965E-4    -.9837   
    1.667       0.1984E-4    -.9837       0.3175E-4    -.9806       0.1984E-4    -.9837   
    1.682       0.2003E-4    -.9837       0.3206E-4    -.9806       0.2003E-4    -.9837   
    1.697       0.2021E-4    -.9837       0.3236E-4    -.9806       0.2021E-4    -.9837   
    1.712       0.2040E-4    -.9837       0.3266E-4    -.9805       0.2040E-4    -.9837   
    1.727       0.2059E-4    -.9837       0.3297E-4    -.9805       0.2059E-4    -.9837   
    1.742       0.2078E-4    -.9837       0.3327E-4    -.9805       0.2078E-4    -.9837   
    1.757       0.2097E-4    -.9837       0.3358E-4    -.9805       0.2097E-4    -.9837   
    1.772       0.2116E-4    -.9837       0.3388E-4    -.9805       0.2116E-4    -.9837   
    1.787       0.2134E-4    -.9837       0.3419E-4    -.9805       0.2134E-4    -.9837   
    1.802       0.2153E-4    -.9837       0.3450E-4    -.9805       0.2153E-4    -.9837   
    1.817       0.2172E-4    -.9837       0.3481E-4    -.9805       0.2172E-4    -.9837   
    1.832       0.2191E-4    -.9837       0.3511E-4    -.9805       0.2191E-4    -.9837   
    1.847       0.2210E-4    -.9837       0.3542E-4    -.9805       0.2210E-4    -.9837   
    1.862       0.2229E-4    -.9837       0.3573E-4    -.9805       0.2229E-4    -.9837   
    1.877       0.2248E-4    -.9837       0.3604E-4    -.9805       0.2248E-4    -.9837   
    1.892       0.2267E-4    -.9837       0.3635E-4    -.9805       0.2267E-4    -.9837   
    1.907       0.2287E-4    -.9837       0.3666E-4    -.9805       0.2287E-4    -.9837   
    1.922       0.2306E-4    -.9837       0.3697E-4    -.9805       0.2306E-4    -.9837   
    1.937       0.2325E-4    -.9837       0.3728E-4    -.9805       0.2325E-4    -.9837   
    1.952       0.2344E-4    -.9836       0.3760E-4    -.9805       0.2344E-4    -.9836   
    1.967       0.2363E-4    -.9836       0.3791E-4    -.9805       0.2363E-4    -.9836   
    1.982       0.2383E-4    -.9836       0.3822E-4    -.9805       0.2383E-4    -.9836   
    1.997       0.2402E-4    -.9836       0.3854E-4    -.9804       0.2402E-4    -.9836   
    2.012       0.2421E-4    -.9836       0.3885E-4    -.9804       0.2421E-4    -.9836   
    2.027       0.2440E-4    -.9836       0.3917E-4    -.9804       0.2440E-4    -.9836   
    2.042       0.2460E-4    -.9836       0.3948E-4    -.9804       0.2460E-4    -.9836   
    2.057       0.2479E-4    -.9836       0.3980E-4    -.9804       0.2479E-4    -.9836   
    2.072       0.2499E-4    -.9836       0.4012E-4    -.9804       0.2499E-4    -.9836   
    2.087       0.2518E-4    -.9836       0.4043E-4    -.9804       0.2518E-4    -.9836   
    2.102       0.2538E-4    -.9836       0.4075E-4    -.9804       0.2538E-4    -.9836   
    2.117       0.2557E-4    -.9836       0.4107E-4    -.9804       0.2557E-4    -.9836   
    2.132       0.2577E-4    -.9836       0.4139E-4    -.9804       0.2577E-4    -.9836   
    2.147       0.2596E-4    -.9836       0.4171E-4    -.9804       0.2596E-4    -.9836   
    2.162       0.2616E-4    -.9836       0.4203E-4    -.9804       0.2616E-4    -.9836   
    2.177       0.2635E-4    -.9836       0.4235E-4    -.9804       0.2635E-4    -.9836   
    2.192       0.2655E-4    -.9836       0.4268E-4    -.9804       0.2655E-4    -.9836   
    2.207       0.2675E-4    -.9836       0.4300E-4    -.9804       0.2675E-4    -.9836   
    2.222       0.2695E-4    -.9836       0.4332E-4    -.9804       0.2695E-4    -.9836   
    2.237       0.2714E-4    -.9836       0.4365E-4    -.9803       0.2714E-4    -.9836   
    2.252       0.2734E-4    -.9836       0.4397E-4    -.9803       0.2734E-4    -.9836   
    2.267       0.2754E-4    -.9836       0.4430E-4    -.9803       0.2754E-4    -.9836   
    2.282       0.2774E-4    -.9836       0.4462E-4    -.9803       0.2774E-4    -.9836   
    2.297       0.2794E-4    -.9836       0.4495E-4    -.9803       0.2794E-4    -.9836   
    2.312       0.2814E-4    -.9836       0.4528E-4    -.9803       0.2814E-4    -.9836   
    2.327       0.2834E-4    -.9836       0.4560E-4    -.9803       0.2834E-4    -.9836   
    2.342       0.2854E-4    -.9835       0.4593E-4    -.9803       0.2854E-4    -.9835   
    2.357       0.2874E-4    -.9835       0.4626E-4    -.9803       0.2874E-4    -.9835   
    2.372       0.2894E-4    -.9835       0.4659E-4    -.9803       0.2894E-4    -.9835   
    2.387       0.2914E-4    -.9835       0.4692E-4    -.9803       0.2914E-4    -.9835   
    2.402       0.2934E-4    -.9835       0.4725E-4    -.9803       0.2934E-4    -.9835   
    2.417       0.2954E-4    -.9835       0.4759E-4    -.9803       0.2954E-4    -.9835   
    2.432       0.2975E-4    -.9835       0.4792E-4    -.9803       0.2975E-4    -.9835   
    2.447       0.2995E-4    -.9835       0.4825E-4    -.9803       0.2995E-4    -.9835   
    2.462       0.3015E-4    -.9835       0.4859E-4    -.9802       0.3015E-4    -.9835   
    2.477       0.3035E-4    -.9835       0.4892E-4    -.9802       0.3035E-4    -.9835   
    2.492       0.3056E-4    -.9835       0.4926E-4    -.9802       0.3056E-4    -.9835   
    2.508       0.3076E-4    -.9835       0.4960E-4    -.9802       0.3076E-4    -.9835   
    2.523       0.3097E-4    -.9835       0.4993E-4    -.9802       0.3097E-4    -.9835   
    2.538       0.3117E-4    -.9835       0.5027E-4    -.9802       0.3117E-4    -.9835   
    2.553       0.3138E-4    -.9835       0.5061E-4    -.9802       0.3138E-4    -.9835   
    2.568       0.3158E-4    -.9835       0.5095E-4    -.9802       0.3158E-4    -.9835   
    2.583       0.3179E-4    -.9835       0.5129E-4    -.9802       0.3179E-4    -.9835   
    2.598       0.3200E-4    -.9835       0.5164E-4    -.9802       0.3200E-4    -.9835   
    2.613       0.3220E-4    -.9835       0.5198E-4    -.9802       0.3220E-4    -.9835   
    2.628       0.3241E-4    -.9835       0.5232E-4    -.9802       0.3241E-4    -.9835   
    2.643       0.3262E-4    -.9835       0.5267E-4    -.9802       0.3262E-4    -.9835   
    2.658       0.3283E-4    -.9835       0.5301E-4    -.9801       0.3283E-4    -.9835   
    2.673       0.3303E-4    -.9834       0.5336E-4    -.9801       0.3303E-4    -.9834   
    2.688       0.3324E-4    -.9834       0.5370E-4    -.9801       0.3324E-4    -.9834   
    2.703       0.3345E-4    -.9834       0.5405E-4    -.9801       0.3345E-4    -.9834   
    2.718       0.3366E-4    -.9834       0.5440E-4    -.9801       0.3366E-4    -.9834   
    2.733       0.3387E-4    -.9834       0.5475E-4    -.9801       0.3387E-4    -.9834   
    2.748       0.3408E-4    -.9834       0.5510E-4    -.9801       0.3408E-4    -.9834   
    2.763       0.3429E-4    -.9834       0.5545E-4    -.9801       0.3429E-4    -.9834   
    2.778       0.3451E-4    -.9834       0.5580E-4    -.9801       0.3451E-4    -.9834   
    2.793       0.3472E-4    -.9834       0.5615E-4    -.9801       0.3472E-4    -.9834   
    2.808       0.3493E-4    -.9834       0.5651E-4    -.9801       0.3493E-4    -.9834   
    2.823       0.3514E-4    -.9834       0.5686E-4    -.9801       0.3514E-4    -.9834   
    2.838       0.3536E-4    -.9834       0.5722E-4    -.9800       0.3536E-4    -.9834   
    2.853       0.3557E-4    -.9834       0.5757E-4    -.9800       0.3557E-4    -.9834   
    2.868       0.3578E-4    -.9834       0.5793E-4    -.9800       0.3578E-4    -.9834   
    2.883       0.3600E-4    -.9834       0.5829E-4    -.9800       0.3600E-4    -.9834   
    2.898       0.3621E-4    -.9834       0.5865E-4    -.9800       0.3621E-4    -.9834   
    2.913       0.3643E-4    -.9834       0.5901E-4    -.9800       0.3643E-4    -.9834   
    2.928       0.3665E-4    -.9834       0.5937E-4    -.9800       0.3665E-4    -.9834   
    2.943       0.3686E-4    -.9834       0.5973E-4    -.9800       0.3686E-4    -.9834   
    2.958       0.3708E-4    -.9833       0.6010E-4    -.9800       0.3708E-4    -.9833   
    2.973       0.3730E-4    -.9833       0.6046E-4    -.9800       0.3730E-4    -.9833   
    2.988       0.3751E-4    -.9833       0.6082E-4    -.9800       0.3751E-4    -.9833   
    3.003       0.3773E-4    -.9833       0.6119E-4    -.9799       0.3773E-4    -.9833   
    3.018       0.3795E-4    -.9833       0.6156E-4    -.9799       0.3795E-4    -.9833   
    3.033       0.3817E-4    -.9833       0.6193E-4    -.9799       0.3817E-4    -.9833   
    3.048       0.3839E-4    -.9833       0.6229E-4    -.9799       0.3839E-4    -.9833   
    3.063       0.3861E-4    -.9833       0.6266E-4    -.9799       0.3861E-4    -.9833   
    3.078       0.3883E-4    -.9833       0.6304E-4    -.9799       0.3883E-4    -.9833   
    3.093       0.3905E-4    -.9833       0.6341E-4    -.9799       0.3905E-4    -.9833   
    3.108       0.3928E-4    -.9833       0.6378E-4    -.9799       0.3928E-4    -.9833   
    3.123       0.3950E-4    -.9833       0.6416E-4    -.9799       0.3950E-4    -.9833   
    3.138       0.3972E-4    -.9833       0.6453E-4    -.9799       0.3972E-4    -.9833   
    3.153       0.3995E-4    -.9833       0.6491E-4    -.9799       0.3995E-4    -.9833   
    3.168       0.4017E-4    -.9833       0.6529E-4    -.9798       0.4017E-4    -.9833   
    3.183       0.4039E-4    -.9833       0.6566E-4    -.9798       0.4039E-4    -.9833   
    3.198       0.4062E-4    -.9833       0.6604E-4    -.9798       0.4062E-4    -.9833   
    3.213       0.4084E-4    -.9832       0.6642E-4    -.9798       0.4084E-4    -.9832   
    3.228       0.4107E-4    -.9832       0.6681E-4    -.9798       0.4107E-4    -.9832   
    3.243       0.4130E-4    -.9832       0.6719E-4    -.9798       0.4130E-4    -.9832   
    3.258       0.4153E-4    -.9832       0.6757E-4    -.9798       0.4153E-4    -.9832   
    3.273       0.4175E-4    -.9832       0.6796E-4    -.9798       0.4175E-4    -.9832   
    3.288       0.4198E-4    -.9832       0.6835E-4    -.9798       0.4198E-4    -.9832   
    3.303       0.4221E-4    -.9832       0.6873E-4    -.9798       0.4221E-4    -.9832   
    3.318       0.4244E-4    -.9832       0.6912E-4    -.9797       0.4244E-4    -.9832   
    3.333       0.4267E-4    -.9832       0.6951E-4    -.9797       0.4267E-4    -.9832   
    3.348       0.4290E-4    -.9832       0.6990E-4    -.9797       0.4290E-4    -.9832   
    3.363       0.4313E-4    -.9832       0.7030E-4    -.9797       0.4313E-4    -.9832   
    3.378       0.4336E-4    -.9832       0.7069E-4    -.9797       0.4336E-4    -.9832   
    3.393       0.4360E-4    -.9832       0.7108E-4    -.9797       0.4360E-4    -.9832   
    3.408       0.4383E-4    -.9832       0.7148E-4    -.9797       0.4383E-4    -.9832   
    3.423       0.4406E-4    -.9832       0.7188E-4    -.9797       0.4406E-4    -.9832   
    3.438       0.4430E-4    -.9832       0.7228E-4    -.9797       0.4430E-4    -.9832   
    3.453       0.4453E-4    -.9831       0.7267E-4    -.9796       0.4453E-4    -.9831   
    3.468       0.4477E-4    -.9831       0.7308E-4    -.9796       0.4477E-4    -.9831   
    3.483       0.4500E-4    -.9831       0.7348E-4    -.9796       0.4500E-4    -.9831   
    3.498       0.4524E-4    -.9831       0.7388E-4    -.9796       0.4524E-4    -.9831   
    3.514       0.4548E-4    -.9831       0.7429E-4    -.9796       0.4548E-4    -.9831   
    3.529       0.4571E-4    -.9831       0.7469E-4    -.9796       0.4571E-4    -.9831   
    3.544       0.4595E-4    -.9831       0.7510E-4    -.9796       0.4595E-4    -.9831   
    3.559       0.4619E-4    -.9831       0.7551E-4    -.9796       0.4619E-4    -.9831   
    3.574       0.4643E-4    -.9831       0.7592E-4    -.9796       0.4643E-4    -.9831   
    3.589       0.4667E-4    -.9831       0.7633E-4    -.9795       0.4667E-4    -.9831   
    3.604       0.4691E-4    -.9831       0.7674E-4    -.9795       0.4691E-4    -.9831   
    3.619       0.4716E-4    -.9831       0.7716E-4    -.9795       0.4716E-4    -.9831   
    3.634       0.4740E-4    -.9831       0.7757E-4    -.9795       0.4740E-4    -.9831   
    3.649       0.4764E-4    -.9831       0.7799E-4    -.9795       0.4764E-4    -.9831   
    3.664       0.4788E-4    -.9830       0.7841E-4    -.9795       0.4788E-4    -.9830   
    3.679       0.4813E-4    -.9830       0.7883E-4    -.9795       0.4813E-4    -.9830   
    3.694       0.4837E-4    -.9830       0.7925E-4    -.9795       0.4837E-4    -.9830   
    3.709       0.4862E-4    -.9830       0.7967E-4    -.9795       0.4862E-4    -.9830   
    3.724       0.4887E-4    -.9830       0.8009E-4    -.9794       0.4887E-4    -.9830   
    3.739       0.4911E-4    -.9830       0.8052E-4    -.9794       0.4911E-4    -.9830   
    3.754       0.4936E-4    -.9830       0.8094E-4    -.9794       0.4936E-4    -.9830   
    3.769       0.4961E-4    -.9830       0.8137E-4    -.9794       0.4961E-4    -.9830   
    3.784       0.4986E-4    -.9830       0.8180E-4    -.9794       0.4986E-4    -.9830   
    3.799       0.5011E-4    -.9830       0.8223E-4    -.9794       0.5011E-4    -.9830   
    3.814       0.5036E-4    -.9830       0.8267E-4    -.9794       0.5036E-4    -.9830   
    3.829       0.5061E-4    -.9830       0.8310E-4    -.9794       0.5061E-4    -.9830   
    3.844       0.5086E-4    -.9830       0.8354E-4    -.9793       0.5086E-4    -.9830   
    3.859       0.5111E-4    -.9830       0.8397E-4    -.9793       0.5111E-4    -.9830   
    3.874       0.5137E-4    -.9829       0.8441E-4    -.9793       0.5137E-4    -.9829   
    3.889       0.5162E-4    -.9829       0.8485E-4    -.9793       0.5162E-4    -.9829   
    3.904       0.5188E-4    -.9829       0.8529E-4    -.9793       0.5188E-4    -.9829   
    3.919       0.5213E-4    -.9829       0.8574E-4    -.9793       0.5213E-4    -.9829   
    3.934       0.5239E-4    -.9829       0.8618E-4    -.9793       0.5239E-4    -.9829   
    3.949       0.5265E-4    -.9829       0.8663E-4    -.9793       0.5265E-4    -.9829   
    3.964       0.5290E-4    -.9829       0.8707E-4    -.9792       0.5290E-4    -.9829   
    3.979       0.5316E-4    -.9829       0.8752E-4    -.9792       0.5316E-4    -.9829   
    3.994       0.5342E-4    -.9829       0.8797E-4    -.9792       0.5342E-4    -.9829   
    4.009       0.5368E-4    -.9829       0.8843E-4    -.9792       0.5368E-4    -.9829   
    4.024       0.5394E-4    -.9829       0.8888E-4    -.9792       0.5394E-4    -.9829   
    4.039       0.5421E-4    -.9829       0.8934E-4    -.9792       0.5421E-4    -.9829   
    4.054       0.5447E-4    -.9828       0.8980E-4    -.9792       0.5447E-4    -.9828   
    4.069       0.5473E-4    -.9828       0.9026E-4    -.9791       0.5473E-4    -.9828   
    4.084       0.5500E-4    -.9828       0.9072E-4    -.9791       0.5500E-4    -.9828   
    4.099       0.5526E-4    -.9828       0.9118E-4    -.9791       0.5526E-4    -.9828   
    4.114       0.5553E-4    -.9828       0.9164E-4    -.9791       0.5553E-4    -.9828   
    4.129       0.5579E-4    -.9828       0.9211E-4    -.9791       0.5579E-4    -.9828   
    4.144       0.5606E-4    -.9828       0.9258E-4    -.9791       0.5606E-4    -.9828   
    4.159       0.5633E-4    -.9828       0.9305E-4    -.9791       0.5633E-4    -.9828   
    4.174       0.5660E-4    -.9828       0.9352E-4    -.9790       0.5660E-4    -.9828   
    4.189       0.5687E-4    -.9828       0.9399E-4    -.9790       0.5687E-4    -.9828   
    4.204       0.5714E-4    -.9828       0.9447E-4    -.9790       0.5714E-4    -.9828   
    4.219       0.5741E-4    -.9828       0.9494E-4    -.9790       0.5741E-4    -.9828   
    4.234       0.5768E-4    -.9827       0.9542E-4    -.9790       0.5768E-4    -.9827   
    4.249       0.5796E-4    -.9827       0.9590E-4    -.9790       0.5796E-4    -.9827   
    4.264       0.5823E-4    -.9827       0.9639E-4    -.9790       0.5823E-4    -.9827   
    4.279       0.5850E-4    -.9827       0.9687E-4    -.9789       0.5850E-4    -.9827   
    4.294       0.5878E-4    -.9827       0.9736E-4    -.9789       0.5878E-4    -.9827   
    4.309       0.5906E-4    -.9827       0.9784E-4    -.9789       0.5906E-4    -.9827   
    4.324       0.5934E-4    -.9827       0.9833E-4    -.9789       0.5934E-4    -.9827   
    4.339       0.5961E-4    -.9827       0.9883E-4    -.9789       0.5961E-4    -.9827   
    4.354       0.5989E-4    -.9827       0.9932E-4    -.9789       0.5989E-4    -.9827   
    4.369       0.6017E-4    -.9827       0.9982E-4    -.9789       0.6017E-4    -.9827   
    4.384       0.6046E-4    -.9827       0.1003E-3    -.9788       0.6046E-4    -.9827   
    4.399       0.6074E-4    -.9826       0.1008E-3    -.9788       0.6074E-4    -.9826   
    4.414       0.6102E-4    -.9826       0.1013E-3    -.9788       0.6102E-4    -.9826   
    4.429       0.6130E-4    -.9826       0.1018E-3    -.9788       0.6130E-4    -.9826   
    4.444       0.6159E-4    -.9826       0.1023E-3    -.9788       0.6159E-4    -.9826   
    4.459       0.6188E-4    -.9826       0.1028E-3    -.9788       0.6188E-4    -.9826   
    4.474       0.6216E-4    -.9826       0.1033E-3    -.9788       0.6216E-4    -.9826   
    4.489       0.6245E-4    -.9826       0.1039E-3    -.9787       0.6245E-4    -.9826   
    4.505       0.6274E-4    -.9826       0.1044E-3    -.9787       0.6274E-4    -.9826   
    4.520       0.6303E-4    -.9826       0.1049E-3    -.9787       0.6303E-4    -.9826   
    4.535       0.6332E-4    -.9826       0.1054E-3    -.9787       0.6332E-4    -.9826   
    4.550       0.6361E-4    -.9826       0.1059E-3    -.9787       0.6361E-4    -.9826   
    4.565       0.6391E-4    -.9825       0.1064E-3    -.9787       0.6391E-4    -.9825   
    4.580       0.6420E-4    -.9825       0.1070E-3    -.9786       0.6420E-4    -.9825   
    4.595       0.6449E-4    -.9825       0.1075E-3    -.9786       0.6449E-4    -.9825   
    4.610       0.6479E-4    -.9825       0.1080E-3    -.9786       0.6479E-4    -.9825   
    4.625       0.6509E-4    -.9825       0.1086E-3    -.9786       0.6509E-4    -.9825   
    4.640       0.6538E-4    -.9825       0.1091E-3    -.9786       0.6538E-4    -.9825   
    4.655       0.6568E-4    -.9825       0.1096E-3    -.9786       0.6568E-4    -.9825   
    4.670       0.6598E-4    -.9825       0.1102E-3    -.9785       0.6598E-4    -.9825   
    4.685       0.6628E-4    -.9825       0.1107E-3    -.9785       0.6628E-4    -.9825   
    4.700       0.6659E-4    -.9825       0.1112E-3    -.9785       0.6659E-4    -.9825   
    4.715       0.6689E-4    -.9824       0.1118E-3    -.9785       0.6689E-4    -.9824   
    4.730       0.6719E-4    -.9824       0.1123E-3    -.9785       0.6719E-4    -.9824   
    4.745       0.6750E-4    -.9824       0.1129E-3    -.9785       0.6750E-4    -.9824   
    4.760       0.6781E-4    -.9824       0.1134E-3    -.9784       0.6781E-4    -.9824   
    4.775       0.6811E-4    -.9824       0.1140E-3    -.9784       0.6811E-4    -.9824   
    4.790       0.6842E-4    -.9824       0.1145E-3    -.9784       0.6842E-4    -.9824   
    4.805       0.6873E-4    -.9824       0.1151E-3    -.9784       0.6873E-4    -.9824   
    4.820       0.6904E-4    -.9824       0.1157E-3    -.9784       0.6904E-4    -.9824   
    4.835       0.6935E-4    -.9824       0.1162E-3    -.9784       0.6935E-4    -.9824   
    4.850       0.6967E-4    -.9824       0.1168E-3    -.9783       0.6967E-4    -.9824   
    4.865       0.6998E-4    -.9823       0.1174E-3    -.9783       0.6998E-4    -.9823   
    4.880       0.7030E-4    -.9823       0.1179E-3    -.9783       0.7030E-4    -.9823   
    4.895       0.7061E-4    -.9823       0.1185E-3    -.9783       0.7061E-4    -.9823   
    4.910       0.7093E-4    -.9823       0.1191E-3    -.9783       0.7093E-4    -.9823   
    4.925       0.7125E-4    -.9823       0.1197E-3    -.9783       0.7125E-4    -.9823   
    4.940       0.7157E-4    -.9823       0.1202E-3    -.9782       0.7157E-4    -.9823   
    4.955       0.7189E-4    -.9823       0.1208E-3    -.9782       0.7189E-4    -.9823   
    4.970       0.7221E-4    -.9823       0.1214E-3    -.9782       0.7221E-4    -.9823   
    4.985       0.7254E-4    -.9823       0.1220E-3    -.9782       0.7254E-4    -.9823   
    5.000       0.7286E-4    -.9822       0.1226E-3    -.9782       0.7286E-4    -.9822   
    5.015       0.7319E-4    -.9822       0.1232E-3    -.9781       0.7319E-4    -.9822   
    5.030       0.7352E-4    -.9822       0.1238E-3    -.9781       0.7352E-4    -.9822   
    5.045       0.7385E-4    -.9822       0.1244E-3    -.9781       0.7385E-4    -.9822   
    5.060       0.7418E-4    -.9822       0.1250E-3    -.9781       0.7418E-4    -.9822   
    5.075       0.7451E-4    -.9822       0.1256E-3    -.9781       0.7451E-4    -.9822   
    5.090       0.7484E-4    -.9822       0.1262E-3    -.9780       0.7484E-4    -.9822   
    5.105       0.7517E-4    -.9822       0.1268E-3    -.9780       0.7517E-4    -.9822   
    5.120       0.7551E-4    -.9822       0.1274E-3    -.9780       0.7551E-4    -.9822   
    5.135       0.7584E-4    -.9821       0.1280E-3    -.9780       0.7584E-4    -.9821   
    5.150       0.7618E-4    -.9821       0.1287E-3    -.9780       0.7618E-4    -.9821   
    5.165       0.7652E-4    -.9821       0.1293E-3    -.9780       0.7652E-4    -.9821   
    5.180       0.7686E-4    -.9821       0.1299E-3    -.9779       0.7686E-4    -.9821   
    5.195       0.7720E-4    -.9821       0.1305E-3    -.9779       0.7720E-4    -.9821   
    5.210       0.7754E-4    -.9821       0.1312E-3    -.9779       0.7754E-4    -.9821   
    5.225       0.7789E-4    -.9821       0.1318E-3    -.9779       0.7789E-4    -.9821   
    5.240       0.7823E-4    -.9821       0.1324E-3    -.9779       0.7823E-4    -.9821   
    5.255       0.7858E-4    -.9821       0.1331E-3    -.9778       0.7858E-4    -.9821   
    5.270       0.7893E-4    -.9820       0.1337E-3    -.9778       0.7893E-4    -.9820   
    5.285       0.7928E-4    -.9820       0.1344E-3    -.9778       0.7928E-4    -.9820   
    5.300       0.7963E-4    -.9820       0.1350E-3    -.9778       0.7963E-4    -.9820   
    5.315       0.7998E-4    -.9820       0.1357E-3    -.9778       0.7998E-4    -.9820   
    5.330       0.8034E-4    -.9820       0.1363E-3    -.9777       0.8034E-4    -.9820   
    5.345       0.8069E-4    -.9820       0.1370E-3    -.9777       0.8069E-4    -.9820   
    5.360       0.8105E-4    -.9820       0.1377E-3    -.9777       0.8105E-4    -.9820   
    5.375       0.8141E-4    -.9820       0.1383E-3    -.9777       0.8141E-4    -.9820   
    5.390       0.8177E-4    -.9819       0.1390E-3    -.9777       0.8177E-4    -.9819   
    5.405       0.8213E-4    -.9819       0.1397E-3    -.9776       0.8213E-4    -.9819   
    5.420       0.8249E-4    -.9819       0.1403E-3    -.9776       0.8249E-4    -.9819   
    5.435       0.8285E-4    -.9819       0.1410E-3    -.9776       0.8285E-4    -.9819   
    5.450       0.8322E-4    -.9819       0.1417E-3    -.9776       0.8322E-4    -.9819   
    5.465       0.8359E-4    -.9819       0.1424E-3    -.9775       0.8359E-4    -.9819   
    5.480       0.8395E-4    -.9819       0.1431E-3    -.9775       0.8395E-4    -.9819   
    5.495       0.8432E-4    -.9819       0.1438E-3    -.9775       0.8432E-4    -.9819   
    5.511       0.8470E-4    -.9818       0.1445E-3    -.9775       0.8470E-4    -.9818   
    5.526       0.8507E-4    -.9818       0.1452E-3    -.9775       0.8507E-4    -.9818   
    5.541       0.8544E-4    -.9818       0.1459E-3    -.9774       0.8544E-4    -.9818   
    5.556       0.8582E-4    -.9818       0.1466E-3    -.9774       0.8582E-4    -.9818   
    5.571       0.8620E-4    -.9818       0.1473E-3    -.9774       0.8620E-4    -.9818   
    5.586       0.8658E-4    -.9818       0.1480E-3    -.9774       0.8658E-4    -.9818   
    5.601       0.8696E-4    -.9818       0.1487E-3    -.9773       0.8696E-4    -.9818   
    5.616       0.8734E-4    -.9818       0.1494E-3    -.9773       0.8734E-4    -.9818   
    5.631       0.8773E-4    -.9817       0.1501E-3    -.9773       0.8773E-4    -.9817   
    5.646       0.8811E-4    -.9817       0.1509E-3    -.9773       0.8811E-4    -.9817   
    5.661       0.8850E-4    -.9817       0.1516E-3    -.9773       0.8850E-4    -.9817   
    5.676       0.8889E-4    -.9817       0.1523E-3    -.9772       0.8889E-4    -.9817   
    5.691       0.8928E-4    -.9817       0.1531E-3    -.9772       0.8928E-4    -.9817   
    5.706       0.8967E-4    -.9817       0.1538E-3    -.9772       0.8967E-4    -.9817   
    5.721       0.9007E-4    -.9817       0.1546E-3    -.9772       0.9007E-4    -.9817   
    5.736       0.9047E-4    -.9816       0.1553E-3    -.9771       0.9047E-4    -.9816   
    5.751       0.9086E-4    -.9816       0.1561E-3    -.9771       0.9086E-4    -.9816   
    5.766       0.9126E-4    -.9816       0.1568E-3    -.9771       0.9126E-4    -.9816   
    5.781       0.9166E-4    -.9816       0.1576E-3    -.9771       0.9166E-4    -.9816   
    5.796       0.9207E-4    -.9816       0.1584E-3    -.9771       0.9207E-4    -.9816   
    5.811       0.9247E-4    -.9816       0.1591E-3    -.9770       0.9247E-4    -.9816   
    5.826       0.9288E-4    -.9816       0.1599E-3    -.9770       0.9288E-4    -.9816   
    5.841       0.9329E-4    -.9816       0.1607E-3    -.9770       0.9329E-4    -.9816   
    5.856       0.9370E-4    -.9815       0.1615E-3    -.9770       0.9370E-4    -.9815   
    5.871       0.9411E-4    -.9815       0.1623E-3    -.9769       0.9411E-4    -.9815   
    5.886       0.9453E-4    -.9815       0.1631E-3    -.9769       0.9453E-4    -.9815   
    5.901       0.9494E-4    -.9815       0.1639E-3    -.9769       0.9494E-4    -.9815   
    5.916       0.9536E-4    -.9815       0.1647E-3    -.9769       0.9536E-4    -.9815   
    5.931       0.9578E-4    -.9815       0.1655E-3    -.9768       0.9578E-4    -.9815   
    5.946       0.9620E-4    -.9815       0.1663E-3    -.9768       0.9620E-4    -.9815   
    5.961       0.9662E-4    -.9814       0.1671E-3    -.9768       0.9662E-4    -.9814   
    5.976       0.9705E-4    -.9814       0.1679E-3    -.9768       0.9705E-4    -.9814   
    5.991       0.9748E-4    -.9814       0.1687E-3    -.9767       0.9748E-4    -.9814   
    6.006       0.9791E-4    -.9814       0.1695E-3    -.9767       0.9791E-4    -.9814   
    6.021       0.9834E-4    -.9814       0.1704E-3    -.9767       0.9834E-4    -.9814   
    6.036       0.9877E-4    -.9814       0.1712E-3    -.9767       0.9877E-4    -.9814   
    6.051       0.9921E-4    -.9814       0.1721E-3    -.9766       0.9921E-4    -.9814   
    6.066       0.9965E-4    -.9813       0.1729E-3    -.9766       0.9965E-4    -.9813   
    6.081       0.1001E-3    -.9813       0.1738E-3    -.9766       0.1001E-3    -.9813   
    6.096       0.1005E-3    -.9813       0.1746E-3    -.9766       0.1005E-3    -.9813   
    6.111       0.1010E-3    -.9813       0.1755E-3    -.9765       0.1010E-3    -.9813   
    6.126       0.1014E-3    -.9813       0.1763E-3    -.9765       0.1014E-3    -.9813   
    6.141       0.1019E-3    -.9813       0.1772E-3    -.9765       0.1019E-3    -.9813   
    6.156       0.1023E-3    -.9812       0.1781E-3    -.9764       0.1023E-3    -.9812   
    6.171       0.1028E-3    -.9812       0.1790E-3    -.9764       0.1028E-3    -.9812   
    6.186       0.1032E-3    -.9812       0.1798E-3    -.9764       0.1032E-3    -.9812   
    6.201       0.1037E-3    -.9812       0.1807E-3    -.9764       0.1037E-3    -.9812   
    6.216       0.1041E-3    -.9812       0.1816E-3    -.9763       0.1041E-3    -.9812   
    6.231       0.1046E-3    -.9812       0.1825E-3    -.9763       0.1046E-3    -.9812   
    6.246       0.1051E-3    -.9812       0.1834E-3    -.9763       0.1051E-3    -.9812   
    6.261       0.1055E-3    -.9811       0.1843E-3    -.9763       0.1055E-3    -.9811   
    6.276       0.1060E-3    -.9811       0.1853E-3    -.9762       0.1060E-3    -.9811   
    6.291       0.1065E-3    -.9811       0.1862E-3    -.9762       0.1065E-3    -.9811   
    6.306       0.1069E-3    -.9811       0.1871E-3    -.9762       0.1069E-3    -.9811   
    6.321       0.1074E-3    -.9811       0.1880E-3    -.9761       0.1074E-3    -.9811   
    6.336       0.1079E-3    -.9811       0.1890E-3    -.9761       0.1079E-3    -.9811   
    6.351       0.1084E-3    -.9810       0.1899E-3    -.9761       0.1084E-3    -.9810   
    6.366       0.1088E-3    -.9810       0.1909E-3    -.9761       0.1088E-3    -.9810   
    6.381       0.1093E-3    -.9810       0.1918E-3    -.9760       0.1093E-3    -.9810   
    6.396       0.1098E-3    -.9810       0.1928E-3    -.9760       0.1098E-3    -.9810   
    6.411       0.1103E-3    -.9810       0.1938E-3    -.9760       0.1103E-3    -.9810   
    6.426       0.1108E-3    -.9810       0.1947E-3    -.9759       0.1108E-3    -.9810   
    6.441       0.1113E-3    -.9809       0.1957E-3    -.9759       0.1113E-3    -.9809   
    6.456       0.1118E-3    -.9809       0.1967E-3    -.9759       0.1118E-3    -.9809   
    6.471       0.1123E-3    -.9809       0.1977E-3    -.9759       0.1123E-3    -.9809   
    6.486       0.1128E-3    -.9809       0.1987E-3    -.9758       0.1128E-3    -.9809   
    6.502       0.1133E-3    -.9809       0.1997E-3    -.9758       0.1133E-3    -.9809   
    6.517       0.1138E-3    -.9809       0.2007E-3    -.9758       0.1138E-3    -.9809   
    6.532       0.1143E-3    -.9808       0.2017E-3    -.9757       0.1143E-3    -.9808   
    6.547       0.1148E-3    -.9808       0.2027E-3    -.9757       0.1148E-3    -.9808   
    6.562       0.1153E-3    -.9808       0.2037E-3    -.9757       0.1153E-3    -.9808   
    6.577       0.1159E-3    -.9808       0.2048E-3    -.9756       0.1159E-3    -.9808   
    6.592       0.1164E-3    -.9808       0.2058E-3    -.9756       0.1164E-3    -.9808   
    6.607       0.1169E-3    -.9808       0.2069E-3    -.9756       0.1169E-3    -.9808   
    6.622       0.1174E-3    -.9807       0.2079E-3    -.9755       0.1174E-3    -.9807   
    6.637       0.1179E-3    -.9807       0.2090E-3    -.9755       0.1179E-3    -.9807   
    6.652       0.1185E-3    -.9807       0.2100E-3    -.9755       0.1185E-3    -.9807   
    6.667       0.1190E-3    -.9807       0.2111E-3    -.9755       0.1190E-3    -.9807   
    6.682       0.1195E-3    -.9807       0.2122E-3    -.9754       0.1195E-3    -.9807   
    6.697       0.1201E-3    -.9806       0.2133E-3    -.9754       0.1201E-3    -.9806   
    6.712       0.1206E-3    -.9806       0.2144E-3    -.9754       0.1206E-3    -.9806   
    6.727       0.1212E-3    -.9806       0.2154E-3    -.9753       0.1212E-3    -.9806   
    6.742       0.1217E-3    -.9806       0.2166E-3    -.9753       0.1217E-3    -.9806   
    6.757       0.1223E-3    -.9806       0.2177E-3    -.9753       0.1223E-3    -.9806   
    6.772       0.1228E-3    -.9806       0.2188E-3    -.9752       0.1228E-3    -.9806   
    6.787       0.1234E-3    -.9805       0.2199E-3    -.9752       0.1234E-3    -.9805   
    6.802       0.1239E-3    -.9805       0.2210E-3    -.9752       0.1239E-3    -.9805   
    6.817       0.1245E-3    -.9805       0.2222E-3    -.9751       0.1245E-3    -.9805   
    6.832       0.1251E-3    -.9805       0.2233E-3    -.9751       0.1251E-3    -.9805   
    6.847       0.1256E-3    -.9805       0.2245E-3    -.9751       0.1256E-3    -.9805   
    6.862       0.1262E-3    -.9804       0.2257E-3    -.9750       0.1262E-3    -.9804   
    6.877       0.1268E-3    -.9804       0.2268E-3    -.9750       0.1268E-3    -.9804   
    6.892       0.1274E-3    -.9804       0.2280E-3    -.9750       0.1274E-3    -.9804   
    6.907       0.1279E-3    -.9804       0.2292E-3    -.9749       0.1279E-3    -.9804   
    6.922       0.1285E-3    -.9804       0.2304E-3    -.9749       0.1285E-3    -.9804   
    6.937       0.1291E-3    -.9803       0.2316E-3    -.9749       0.1291E-3    -.9803   
    6.952       0.1297E-3    -.9803       0.2328E-3    -.9748       0.1297E-3    -.9803   
    6.967       0.1303E-3    -.9803       0.2340E-3    -.9748       0.1303E-3    -.9803   
    6.982       0.1309E-3    -.9803       0.2353E-3    -.9748       0.1309E-3    -.9803   
    6.997       0.1315E-3    -.9803       0.2365E-3    -.9747       0.1315E-3    -.9803   
    7.012       0.1321E-3    -.9802       0.2377E-3    -.9747       0.1321E-3    -.9802   
    7.027       0.1327E-3    -.9802       0.2390E-3    -.9746       0.1327E-3    -.9802   
    7.042       0.1333E-3    -.9802       0.2402E-3    -.9746       0.1333E-3    -.9802   
    7.057       0.1339E-3    -.9802       0.2415E-3    -.9746       0.1339E-3    -.9802   
    7.072       0.1346E-3    -.9802       0.2428E-3    -.9745       0.1346E-3    -.9802   
    7.087       0.1352E-3    -.9801       0.2441E-3    -.9745       0.1352E-3    -.9801   
    7.102       0.1358E-3    -.9801       0.2454E-3    -.9745       0.1358E-3    -.9801   
    7.117       0.1364E-3    -.9801       0.2467E-3    -.9744       0.1364E-3    -.9801   
    7.132       0.1371E-3    -.9801       0.2480E-3    -.9744       0.1371E-3    -.9801   
    7.147       0.1377E-3    -.9801       0.2493E-3    -.9744       0.1377E-3    -.9801   
    7.162       0.1383E-3    -.9800       0.2506E-3    -.9743       0.1383E-3    -.9800   
    7.177       0.1390E-3    -.9800       0.2520E-3    -.9743       0.1390E-3    -.9800   
    7.192       0.1396E-3    -.9800       0.2533E-3    -.9742       0.1396E-3    -.9800   
    7.207       0.1403E-3    -.9800       0.2547E-3    -.9742       0.1403E-3    -.9800   
    7.222       0.1409E-3    -.9800       0.2561E-3    -.9742       0.1409E-3    -.9800   
    7.237       0.1416E-3    -.9799       0.2574E-3    -.9741       0.1416E-3    -.9799   
    7.252       0.1423E-3    -.9799       0.2588E-3    -.9741       0.1423E-3    -.9799   
    7.267       0.1429E-3    -.9799       0.2602E-3    -.9740       0.1429E-3    -.9799   
    7.282       0.1436E-3    -.9799       0.2616E-3    -.9740       0.1436E-3    -.9799   
    7.297       0.1443E-3    -.9799       0.2631E-3    -.9740       0.1443E-3    -.9799   
    7.312       0.1449E-3    -.9798       0.2645E-3    -.9739       0.1449E-3    -.9798   
    7.327       0.1456E-3    -.9798       0.2659E-3    -.9739       0.1456E-3    -.9798   
    7.342       0.1463E-3    -.9798       0.2674E-3    -.9738       0.1463E-3    -.9798   
    7.357       0.1470E-3    -.9798       0.2688E-3    -.9738       0.1470E-3    -.9798   
    7.372       0.1477E-3    -.9797       0.2703E-3    -.9738       0.1477E-3    -.9797   
    7.387       0.1484E-3    -.9797       0.2718E-3    -.9737       0.1484E-3    -.9797   
    7.402       0.1491E-3    -.9797       0.2733E-3    -.9737       0.1491E-3    -.9797   
    7.417       0.1498E-3    -.9797       0.2748E-3    -.9736       0.1498E-3    -.9797   
    7.432       0.1505E-3    -.9797       0.2763E-3    -.9736       0.1505E-3    -.9797   
    7.447       0.1512E-3    -.9796       0.2778E-3    -.9736       0.1512E-3    -.9796   
    7.462       0.1520E-3    -.9796       0.2794E-3    -.9735       0.1520E-3    -.9796   
    7.477       0.1527E-3    -.9796       0.2809E-3    -.9735       0.1527E-3    -.9796   
    7.492       0.1534E-3    -.9796       0.2825E-3    -.9734       0.1534E-3    -.9796   
    7.508       0.1542E-3    -.9795       0.2840E-3    -.9734       0.1542E-3    -.9795   
    7.523       0.1549E-3    -.9795       0.2856E-3    -.9734       0.1549E-3    -.9795   
    7.538       0.1556E-3    -.9795       0.2872E-3    -.9733       0.1556E-3    -.9795   
    7.553       0.1564E-3    -.9795       0.2888E-3    -.9733       0.1564E-3    -.9795   
    7.568       0.1571E-3    -.9794       0.2904E-3    -.9732       0.1571E-3    -.9794   
    7.583       0.1579E-3    -.9794       0.2921E-3    -.9732       0.1579E-3    -.9794   
    7.598       0.1587E-3    -.9794       0.2937E-3    -.9731       0.1587E-3    -.9794   
    7.613       0.1594E-3    -.9794       0.2954E-3    -.9731       0.1594E-3    -.9794   
    7.628       0.1602E-3    -.9794       0.2970E-3    -.9730       0.1602E-3    -.9794   
    7.643       0.1610E-3    -.9793       0.2987E-3    -.9730       0.1610E-3    -.9793   
    7.658       0.1618E-3    -.9793       0.3004E-3    -.9730       0.1618E-3    -.9793   
    7.673       0.1625E-3    -.9793       0.3021E-3    -.9729       0.1625E-3    -.9793   
    7.688       0.1633E-3    -.9793       0.3038E-3    -.9729       0.1633E-3    -.9793   
    7.703       0.1641E-3    -.9792       0.3056E-3    -.9728       0.1641E-3    -.9792   
    7.718       0.1649E-3    -.9792       0.3073E-3    -.9728       0.1649E-3    -.9792   
    7.733       0.1657E-3    -.9792       0.3091E-3    -.9727       0.1657E-3    -.9792   
    7.748       0.1666E-3    -.9792       0.3108E-3    -.9727       0.1666E-3    -.9792   
    7.763       0.1674E-3    -.9791       0.3126E-3    -.9726       0.1674E-3    -.9791   
    7.778       0.1682E-3    -.9791       0.3144E-3    -.9726       0.1682E-3    -.9791   
    7.793       0.1690E-3    -.9791       0.3162E-3    -.9725       0.1690E-3    -.9791   
    7.808       0.1699E-3    -.9791       0.3181E-3    -.9725       0.1699E-3    -.9791   
    7.823       0.1707E-3    -.9790       0.3199E-3    -.9724       0.1707E-3    -.9790   
    7.838       0.1715E-3    -.9790       0.3218E-3    -.9724       0.1715E-3    -.9790   
    7.853       0.1724E-3    -.9790       0.3236E-3    -.9723       0.1724E-3    -.9790   
    7.868       0.1733E-3    -.9790       0.3255E-3    -.9723       0.1733E-3    -.9790   
    7.883       0.1741E-3    -.9789       0.3274E-3    -.9722       0.1741E-3    -.9789   
    7.898       0.1750E-3    -.9789       0.3294E-3    -.9722       0.1750E-3    -.9789   
    7.913       0.1759E-3    -.9789       0.3313E-3    -.9722       0.1759E-3    -.9789   
    7.928       0.1767E-3    -.9788       0.3332E-3    -.9721       0.1767E-3    -.9788   
    7.943       0.1776E-3    -.9788       0.3352E-3    -.9721       0.1776E-3    -.9788   
    7.958       0.1785E-3    -.9788       0.3372E-3    -.9720       0.1785E-3    -.9788   
    7.973       0.1794E-3    -.9788       0.3392E-3    -.9719       0.1794E-3    -.9788   
    7.988       0.1803E-3    -.9787       0.3412E-3    -.9719       0.1803E-3    -.9787   
    8.003       0.1812E-3    -.9787       0.3432E-3    -.9718       0.1812E-3    -.9787   
    8.018       0.1822E-3    -.9787       0.3453E-3    -.9718       0.1822E-3    -.9787   
    8.033       0.1831E-3    -.9787       0.3474E-3    -.9717       0.1831E-3    -.9787   
    8.048       0.1840E-3    -.9786       0.3495E-3    -.9717       0.1840E-3    -.9786   
    8.063       0.1849E-3    -.9786       0.3516E-3    -.9716       0.1849E-3    -.9786   
    8.078       0.1859E-3    -.9786       0.3537E-3    -.9716       0.1859E-3    -.9786   
    8.093       0.1868E-3    -.9785       0.3558E-3    -.9715       0.1868E-3    -.9785   
    8.108       0.1878E-3    -.9785       0.3580E-3    -.9715       0.1878E-3    -.9785   
    8.123       0.1888E-3    -.9785       0.3601E-3    -.9714       0.1888E-3    -.9785   
    8.138       0.1897E-3    -.9785       0.3623E-3    -.9714       0.1897E-3    -.9785   
    8.153       0.1907E-3    -.9784       0.3645E-3    -.9713       0.1907E-3    -.9784   
    8.168       0.1917E-3    -.9784       0.3668E-3    -.9713       0.1917E-3    -.9784   
    8.183       0.1927E-3    -.9784       0.3690E-3    -.9712       0.1927E-3    -.9784   
    8.198       0.1937E-3    -.9783       0.3713E-3    -.9712       0.1937E-3    -.9783   
    8.213       0.1947E-3    -.9783       0.3736E-3    -.9711       0.1947E-3    -.9783   
    8.228       0.1957E-3    -.9783       0.3759E-3    -.9710       0.1957E-3    -.9783   
    8.243       0.1967E-3    -.9783       0.3782E-3    -.9710       0.1967E-3    -.9783   
    8.258       0.1978E-3    -.9782       0.3806E-3    -.9709       0.1978E-3    -.9782   
    8.273       0.1988E-3    -.9782       0.3829E-3    -.9709       0.1988E-3    -.9782   
    8.288       0.1998E-3    -.9782       0.3853E-3    -.9708       0.1998E-3    -.9782   
    8.303       0.2009E-3    -.9781       0.3877E-3    -.9708       0.2009E-3    -.9781   
    8.318       0.2019E-3    -.9781       0.3902E-3    -.9707       0.2019E-3    -.9781   
    8.333       0.2030E-3    -.9781       0.3926E-3    -.9706       0.2030E-3    -.9781   
    8.348       0.2041E-3    -.9780       0.3951E-3    -.9706       0.2041E-3    -.9780   
    8.363       0.2052E-3    -.9780       0.3976E-3    -.9705       0.2052E-3    -.9780   
    8.378       0.2063E-3    -.9780       0.4001E-3    -.9705       0.2063E-3    -.9780   
    8.393       0.2074E-3    -.9780       0.4027E-3    -.9704       0.2074E-3    -.9780   
    8.408       0.2085E-3    -.9779       0.4053E-3    -.9703       0.2085E-3    -.9779   
    8.423       0.2096E-3    -.9779       0.4078E-3    -.9703       0.2096E-3    -.9779   
    8.438       0.2107E-3    -.9779       0.4105E-3    -.9702       0.2107E-3    -.9779   
    8.453       0.2118E-3    -.9778       0.4131E-3    -.9702       0.2118E-3    -.9778   
    8.468       0.2130E-3    -.9778       0.4158E-3    -.9701       0.2130E-3    -.9778   
    8.483       0.2141E-3    -.9778       0.4185E-3    -.9700       0.2141E-3    -.9778   
    8.498       0.2153E-3    -.9777       0.4212E-3    -.9700       0.2153E-3    -.9777   
    8.514       0.2165E-3    -.9777       0.4239E-3    -.9699       0.2165E-3    -.9777   
    8.529       0.2176E-3    -.9777       0.4267E-3    -.9698       0.2176E-3    -.9777   
    8.544       0.2188E-3    -.9776       0.4295E-3    -.9698       0.2188E-3    -.9776   
    8.559       0.2200E-3    -.9776       0.4323E-3    -.9697       0.2200E-3    -.9776   
    8.574       0.2212E-3    -.9776       0.4351E-3    -.9696       0.2212E-3    -.9776   
    8.589       0.2224E-3    -.9775       0.4380E-3    -.9696       0.2224E-3    -.9775   
    8.604       0.2237E-3    -.9775       0.4409E-3    -.9695       0.2237E-3    -.9775   
    8.619       0.2249E-3    -.9775       0.4438E-3    -.9694       0.2249E-3    -.9775   
    8.634       0.2261E-3    -.9774       0.4468E-3    -.9694       0.2261E-3    -.9774   
    8.649       0.2274E-3    -.9774       0.4498E-3    -.9693       0.2274E-3    -.9774   
    8.664       0.2287E-3    -.9774       0.4528E-3    -.9692       0.2287E-3    -.9774   
    8.679       0.2299E-3    -.9773       0.4558E-3    -.9692       0.2299E-3    -.9773   
    8.694       0.2312E-3    -.9773       0.4589E-3    -.9691       0.2312E-3    -.9773   
    8.709       0.2325E-3    -.9773       0.4620E-3    -.9690       0.2325E-3    -.9773   
    8.724       0.2338E-3    -.9772       0.4651E-3    -.9690       0.2338E-3    -.9772   
    8.739       0.2351E-3    -.9772       0.4683E-3    -.9689       0.2351E-3    -.9772   
    8.754       0.2365E-3    -.9772       0.4715E-3    -.9688       0.2365E-3    -.9772   
    8.769       0.2378E-3    -.9771       0.4747E-3    -.9688       0.2378E-3    -.9771   
    8.784       0.2391E-3    -.9771       0.4780E-3    -.9687       0.2391E-3    -.9771   
    8.799       0.2405E-3    -.9771       0.4813E-3    -.9686       0.2405E-3    -.9771   
    8.814       0.2419E-3    -.9770       0.4846E-3    -.9685       0.2419E-3    -.9770   
    8.829       0.2433E-3    -.9770       0.4879E-3    -.9685       0.2433E-3    -.9770   
    8.844       0.2447E-3    -.9769       0.4913E-3    -.9684       0.2447E-3    -.9769   
    8.859       0.2461E-3    -.9769       0.4948E-3    -.9683       0.2461E-3    -.9769   
    8.874       0.2475E-3    -.9769       0.4982E-3    -.9682       0.2475E-3    -.9769   
    8.889       0.2489E-3    -.9768       0.5017E-3    -.9682       0.2489E-3    -.9768   
    8.904       0.2504E-3    -.9768       0.5053E-3    -.9681       0.2504E-3    -.9768   
    8.919       0.2518E-3    -.9768       0.5088E-3    -.9680       0.2518E-3    -.9768   
    8.934       0.2533E-3    -.9767       0.5124E-3    -.9679       0.2533E-3    -.9767   
    8.949       0.2548E-3    -.9767       0.5161E-3    -.9679       0.2548E-3    -.9767   
    8.964       0.2562E-3    -.9766       0.5198E-3    -.9678       0.2562E-3    -.9766   
    8.979       0.2578E-3    -.9766       0.5235E-3    -.9677       0.2578E-3    -.9766   
    8.994       0.2593E-3    -.9766       0.5273E-3    -.9676       0.2593E-3    -.9766   
    9.009       0.2608E-3    -.9765       0.5311E-3    -.9676       0.2608E-3    -.9765   
    9.024       0.2624E-3    -.9765       0.5349E-3    -.9675       0.2624E-3    -.9765   
    9.039       0.2639E-3    -.9764       0.5388E-3    -.9674       0.2639E-3    -.9764   
    9.054       0.2655E-3    -.9764       0.5427E-3    -.9673       0.2655E-3    -.9764   
    9.069       0.2671E-3    -.9764       0.5467E-3    -.9672       0.2671E-3    -.9764   
    9.084       0.2687E-3    -.9763       0.5507E-3    -.9671       0.2687E-3    -.9763   
    9.099       0.2703E-3    -.9763       0.5547E-3    -.9671       0.2703E-3    -.9763   
    9.114       0.2719E-3    -.9762       0.5588E-3    -.9670       0.2719E-3    -.9762   
    9.129       0.2736E-3    -.9762       0.5630E-3    -.9669       0.2736E-3    -.9762   
    9.144       0.2752E-3    -.9762       0.5672E-3    -.9668       0.2752E-3    -.9762   
    9.159       0.2769E-3    -.9761       0.5714E-3    -.9667       0.2769E-3    -.9761   
    9.174       0.2786E-3    -.9761       0.5757E-3    -.9666       0.2786E-3    -.9761   
    9.189       0.2803E-3    -.9760       0.5800E-3    -.9666       0.2803E-3    -.9760   
    9.204       0.2820E-3    -.9760       0.5844E-3    -.9665       0.2820E-3    -.9760   
    9.219       0.2838E-3    -.9760       0.5888E-3    -.9664       0.2838E-3    -.9760   
    9.234       0.2855E-3    -.9759       0.5933E-3    -.9663       0.2855E-3    -.9759   
    9.249       0.2873E-3    -.9759       0.5978E-3    -.9662       0.2873E-3    -.9759   
    9.264       0.2891E-3    -.9758       0.6024E-3    -.9661       0.2891E-3    -.9758   
    9.279       0.2909E-3    -.9758       0.6070E-3    -.9660       0.2909E-3    -.9758   
    9.294       0.2927E-3    -.9757       0.6117E-3    -.9659       0.2927E-3    -.9757   
    9.309       0.2945E-3    -.9757       0.6165E-3    -.9658       0.2945E-3    -.9757   
    9.324       0.2964E-3    -.9757       0.6213E-3    -.9657       0.2964E-3    -.9757   
    9.339       0.2983E-3    -.9756       0.6261E-3    -.9656       0.2983E-3    -.9756   
    9.354       0.3001E-3    -.9756       0.6310E-3    -.9656       0.3001E-3    -.9756   
    9.369       0.3021E-3    -.9755       0.6360E-3    -.9655       0.3021E-3    -.9755   
    9.384       0.3040E-3    -.9755       0.6410E-3    -.9654       0.3040E-3    -.9755   
    9.399       0.3059E-3    -.9754       0.6461E-3    -.9653       0.3059E-3    -.9754   
    9.414       0.3079E-3    -.9754       0.6512E-3    -.9652       0.3079E-3    -.9754   
    9.429       0.3099E-3    -.9753       0.6565E-3    -.9651       0.3099E-3    -.9753   
    9.444       0.3119E-3    -.9753       0.6617E-3    -.9650       0.3119E-3    -.9753   
    9.459       0.3139E-3    -.9752       0.6671E-3    -.9649       0.3139E-3    -.9752   
    9.474       0.3159E-3    -.9752       0.6725E-3    -.9648       0.3159E-3    -.9752   
    9.489       0.3180E-3    -.9751       0.6779E-3    -.9647       0.3180E-3    -.9751   
    9.505       0.3201E-3    -.9751       0.6834E-3    -.9646       0.3201E-3    -.9751   
    9.520       0.3222E-3    -.9750       0.6890E-3    -.9645       0.3222E-3    -.9750   
    9.535       0.3243E-3    -.9750       0.6947E-3    -.9644       0.3243E-3    -.9750   
    9.550       0.3265E-3    -.9750       0.7004E-3    -.9643       0.3265E-3    -.9750   
    9.565       0.3287E-3    -.9749       0.7063E-3    -.9642       0.3287E-3    -.9749   
    9.580       0.3308E-3    -.9749       0.7121E-3    -.9640       0.3308E-3    -.9749   
    9.595       0.3331E-3    -.9748       0.7181E-3    -.9639       0.3331E-3    -.9748   
    9.610       0.3353E-3    -.9748       0.7241E-3    -.9638       0.3353E-3    -.9748   
    9.625       0.3376E-3    -.9747       0.7302E-3    -.9637       0.3376E-3    -.9747   
    9.640       0.3398E-3    -.9747       0.7364E-3    -.9636       0.3398E-3    -.9747   
    9.655       0.3422E-3    -.9746       0.7427E-3    -.9635       0.3422E-3    -.9746   
    9.670       0.3445E-3    -.9745       0.7490E-3    -.9634       0.3445E-3    -.9745   
    9.685       0.3468E-3    -.9745       0.7555E-3    -.9633       0.3468E-3    -.9745   
    9.700       0.3492E-3    -.9744       0.7620E-3    -.9632       0.3492E-3    -.9744   
    9.715       0.3516E-3    -.9744       0.7686E-3    -.9630       0.3516E-3    -.9744   
    9.730       0.3541E-3    -.9743       0.7753E-3    -.9629       0.3541E-3    -.9743   
    9.745       0.3565E-3    -.9743       0.7820E-3    -.9628       0.3565E-3    -.9743   
    9.760       0.3590E-3    -.9742       0.7889E-3    -.9627       0.3590E-3    -.9742   
    9.775       0.3615E-3    -.9742       0.7959E-3    -.9626       0.3615E-3    -.9742   
    9.790       0.3641E-3    -.9741       0.8029E-3    -.9625       0.3641E-3    -.9741   
    9.805       0.3666E-3    -.9741       0.8101E-3    -.9623       0.3666E-3    -.9741   
    9.820       0.3692E-3    -.9740       0.8173E-3    -.9622       0.3692E-3    -.9740   
    9.835       0.3719E-3    -.9740       0.8247E-3    -.9621       0.3719E-3    -.9740   
    9.850       0.3745E-3    -.9739       0.8321E-3    -.9620       0.3745E-3    -.9739   
    9.865       0.3772E-3    -.9738       0.8396E-3    -.9618       0.3772E-3    -.9738   
    9.880       0.3799E-3    -.9738       0.8473E-3    -.9617       0.3799E-3    -.9738   
    9.895       0.3827E-3    -.9737       0.8550E-3    -.9616       0.3827E-3    -.9737   
    9.910       0.3854E-3    -.9737       0.8629E-3    -.9615       0.3854E-3    -.9737   
    9.925       0.3883E-3    -.9736       0.8709E-3    -.9613       0.3883E-3    -.9736   
    9.940       0.3911E-3    -.9736       0.8790E-3    -.9612       0.3911E-3    -.9736   
    9.955       0.3940E-3    -.9735       0.8872E-3    -.9611       0.3940E-3    -.9735   
    9.970       0.3969E-3    -.9734       0.8955E-3    -.9609       0.3969E-3    -.9734   
    9.985       0.3998E-3    -.9734       0.9039E-3    -.9608       0.3998E-3    -.9734   
    10.00       0.4028E-3    -.9733       0.9125E-3    -.9607       0.4028E-3    -.9733   
    10.02       0.4058E-3    -.9733       0.9212E-3    -.9605       0.4058E-3    -.9733   
    10.03       0.4088E-3    -.9732       0.9300E-3    -.9604       0.4088E-3    -.9732   
    10.05       0.4119E-3    -.9731       0.9389E-3    -.9602       0.4119E-3    -.9731   
    10.06       0.4150E-3    -.9731       0.9480E-3    -.9601       0.4150E-3    -.9731   
    10.08       0.4182E-3    -.9730       0.9572E-3    -.9600       0.4182E-3    -.9730   
    10.09       0.4214E-3    -.9729       0.9666E-3    -.9598       0.4214E-3    -.9729   
    10.11       0.4246E-3    -.9729       0.9761E-3    -.9597       0.4246E-3    -.9729   
    10.12       0.4279E-3    -.9728       0.9857E-3    -.9595       0.4279E-3    -.9728   
    10.14       0.4312E-3    -.9728       0.9955E-3    -.9594       0.4312E-3    -.9728   
    10.15       0.4346E-3    -.9727       0.1005E-2    -.9592       0.4346E-3    -.9727   
    10.17       0.4379E-3    -.9726       0.1015E-2    -.9591       0.4379E-3    -.9726   
    10.18       0.4414E-3    -.9726       0.1026E-2    -.9589       0.4414E-3    -.9726   
    10.20       0.4449E-3    -.9725       0.1036E-2    -.9588       0.4449E-3    -.9725   
    10.21       0.4484E-3    -.9724       0.1047E-2    -.9586       0.4484E-3    -.9724   
    10.23       0.4519E-3    -.9724       0.1057E-2    -.9585       0.4519E-3    -.9724   
    10.24       0.4555E-3    -.9723       0.1068E-2    -.9583       0.4555E-3    -.9723   
    10.26       0.4592E-3    -.9722       0.1079E-2    -.9581       0.4592E-3    -.9722   
    10.27       0.4629E-3    -.9722       0.1091E-2    -.9580       0.4629E-3    -.9722   
    10.29       0.4667E-3    -.9721       0.1102E-2    -.9578       0.4667E-3    -.9721   
    10.30       0.4705E-3    -.9720       0.1114E-2    -.9576       0.4704E-3    -.9720   
    10.32       0.4743E-3    -.9719       0.1125E-2    -.9575       0.4743E-3    -.9719   
    10.33       0.4782E-3    -.9719       0.1137E-2    -.9573       0.4782E-3    -.9719   
    10.35       0.4821E-3    -.9718       0.1150E-2    -.9571       0.4821E-3    -.9718   
    10.36       0.4861E-3    -.9717       0.1162E-2    -.9570       0.4861E-3    -.9717   
    10.38       0.4902E-3    -.9717       0.1175E-2    -.9568       0.4902E-3    -.9717   
    10.39       0.4943E-3    -.9716       0.1187E-2    -.9566       0.4943E-3    -.9716   
    10.41       0.4985E-3    -.9715       0.1200E-2    -.9564       0.4985E-3    -.9715   
    10.42       0.5027E-3    -.9714       0.1214E-2    -.9563       0.5027E-3    -.9714   
    10.44       0.5070E-3    -.9714       0.1227E-2    -.9561       0.5070E-3    -.9714   
    10.45       0.5113E-3    -.9713       0.1241E-2    -.9559       0.5113E-3    -.9713   
    10.47       0.5157E-3    -.9712       0.1255E-2    -.9557       0.5157E-3    -.9712   
    10.48       0.5201E-3    -.9711       0.1269E-2    -.9555       0.5201E-3    -.9711   
    10.50       0.5247E-3    -.9710       0.1283E-2    -.9553       0.5247E-3    -.9710   
    10.51       0.5292E-3    -.9710       0.1298E-2    -.9551       0.5292E-3    -.9710   
    10.53       0.5339E-3    -.9709       0.1313E-2    -.9549       0.5339E-3    -.9709   
    10.54       0.5386E-3    -.9708       0.1328E-2    -.9547       0.5386E-3    -.9708   
    10.56       0.5434E-3    -.9707       0.1344E-2    -.9545       0.5434E-3    -.9707   
    10.57       0.5482E-3    -.9706       0.1360E-2    -.9543       0.5482E-3    -.9706   
    10.59       0.5531E-3    -.9706       0.1376E-2    -.9541       0.5531E-3    -.9706   
    10.60       0.5581E-3    -.9705       0.1392E-2    -.9539       0.5581E-3    -.9705   
    10.62       0.5632E-3    -.9704       0.1409E-2    -.9537       0.5632E-3    -.9704   
    10.63       0.5683E-3    -.9703       0.1426E-2    -.9535       0.5683E-3    -.9703   
    10.65       0.5735E-3    -.9702       0.1443E-2    -.9533       0.5735E-3    -.9702   
    10.66       0.5788E-3    -.9701       0.1461E-2    -.9531       0.5788E-3    -.9701   
    10.68       0.5842E-3    -.9701       0.1479E-2    -.9528       0.5842E-3    -.9701   
    10.69       0.5896E-3    -.9700       0.1497E-2    -.9526       0.5896E-3    -.9700   
    10.71       0.5951E-3    -.9699       0.1515E-2    -.9524       0.5951E-3    -.9699   
    10.72       0.6007E-3    -.9698       0.1534E-2    -.9522       0.6007E-3    -.9698   
    10.74       0.6064E-3    -.9697       0.1554E-2    -.9519       0.6064E-3    -.9697   
    10.75       0.6122E-3    -.9696       0.1574E-2    -.9517       0.6122E-3    -.9696   
    10.77       0.6181E-3    -.9695       0.1594E-2    -.9515       0.6181E-3    -.9695   
    10.78       0.6241E-3    -.9694       0.1614E-2    -.9512       0.6240E-3    -.9694   
    10.80       0.6301E-3    -.9693       0.1635E-2    -.9510       0.6301E-3    -.9693   
    10.81       0.6363E-3    -.9692       0.1657E-2    -.9507       0.6363E-3    -.9692   
    10.83       0.6425E-3    -.9691       0.1679E-2    -.9505       0.6425E-3    -.9691   
    10.84       0.6489E-3    -.9690       0.1701E-2    -.9502       0.6489E-3    -.9690   
    10.86       0.6553E-3    -.9689       0.1724E-2    -.9500       0.6553E-3    -.9689   
    10.87       0.6619E-3    -.9688       0.1747E-2    -.9497       0.6619E-3    -.9688   
    10.89       0.6685E-3    -.9687       0.1771E-2    -.9495       0.6685E-3    -.9687   
    10.90       0.6753E-3    -.9686       0.1795E-2    -.9492       0.6753E-3    -.9686   
    10.92       0.6822E-3    -.9685       0.1820E-2    -.9489       0.6822E-3    -.9685   
    10.93       0.6892E-3    -.9684       0.1845E-2    -.9486       0.6892E-3    -.9684   
    10.95       0.6963E-3    -.9683       0.1871E-2    -.9484       0.6963E-3    -.9683   
    10.96       0.7035E-3    -.9682       0.1897E-2    -.9481       0.7035E-3    -.9682   
    10.98       0.7109E-3    -.9681       0.1924E-2    -.9478       0.7109E-3    -.9681   
    10.99       0.7184E-3    -.9680       0.1952E-2    -.9475       0.7184E-3    -.9680   
    11.01       0.7260E-3    -.9679       0.1980E-2    -.9472       0.7260E-3    -.9679   
    11.02       0.7337E-3    -.9678       0.2009E-2    -.9469       0.7337E-3    -.9678   
    11.04       0.7416E-3    -.9677       0.2038E-2    -.9466       0.7416E-3    -.9677   
    11.05       0.7496E-3    -.9676       0.2068E-2    -.9463       0.7496E-3    -.9676   
    11.07       0.7578E-3    -.9675       0.2099E-2    -.9460       0.7578E-3    -.9675   
    11.08       0.7661E-3    -.9673       0.2131E-2    -.9457       0.7661E-3    -.9673   
    11.10       0.7745E-3    -.9672       0.2163E-2    -.9454       0.7745E-3    -.9672   
    11.11       0.7831E-3    -.9671       0.2196E-2    -.9450       0.7831E-3    -.9671   
    11.13       0.7919E-3    -.9670       0.2230E-2    -.9447       0.7919E-3    -.9670   
    11.14       0.8008E-3    -.9669       0.2265E-2    -.9444       0.8008E-3    -.9669   
    11.16       0.8099E-3    -.9668       0.2301E-2    -.9440       0.8099E-3    -.9668   
    11.17       0.8192E-3    -.9666       0.2337E-2    -.9437       0.8191E-3    -.9666   
    11.19       0.8286E-3    -.9665       0.2375E-2    -.9433       0.8286E-3    -.9665   
    11.20       0.8382E-3    -.9664       0.2413E-2    -.9430       0.8382E-3    -.9664   
    11.22       0.8480E-3    -.9663       0.2452E-2    -.9426       0.8480E-3    -.9663   
    11.23       0.8579E-3    -.9661       0.2492E-2    -.9422       0.8579E-3    -.9661   
    11.25       0.8681E-3    -.9660       0.2534E-2    -.9419       0.8681E-3    -.9660   
    11.26       0.8785E-3    -.9659       0.2576E-2    -.9415       0.8785E-3    -.9659   
    11.28       0.8891E-3    -.9657       0.2620E-2    -.9411       0.8890E-3    -.9657   
    11.29       0.8998E-3    -.9656       0.2664E-2    -.9407       0.8998E-3    -.9656   
    11.31       0.9108E-3    -.9655       0.2710E-2    -.9403       0.9108E-3    -.9655   
    11.32       0.9220E-3    -.9653       0.2757E-2    -.9399       0.9220E-3    -.9653   
    11.34       0.9335E-3    -.9652       0.2806E-2    -.9395       0.9335E-3    -.9652   
    11.35       0.9451E-3    -.9651       0.2856E-2    -.9391       0.9451E-3    -.9651   
    11.37       0.9571E-3    -.9649       0.2907E-2    -.9386       0.9570E-3    -.9649   
    11.38       0.9692E-3    -.9648       0.2959E-2    -.9382       0.9692E-3    -.9648   
    11.40       0.9816E-3    -.9646       0.3013E-2    -.9377       0.9816E-3    -.9646   
    11.41       0.9943E-3    -.9645       0.3069E-2    -.9373       0.9943E-3    -.9645   
    11.43       0.1007E-2    -.9643       0.3126E-2    -.9368       0.1007E-2    -.9643   
    11.44       0.1020E-2    -.9642       0.3185E-2    -.9364       0.1020E-2    -.9642   
    11.46       0.1034E-2    -.9640       0.3246E-2    -.9359       0.1034E-2    -.9640   
    11.47       0.1048E-2    -.9639       0.3308E-2    -.9354       0.1048E-2    -.9639   
    11.49       0.1062E-2    -.9637       0.3373E-2    -.9349       0.1062E-2    -.9637   
    11.50       0.1076E-2    -.9635       0.3439E-2    -.9344       0.1076E-2    -.9635   
    11.52       0.1091E-2    -.9634       0.3507E-2    -.9339       0.1091E-2    -.9634   
    11.53       0.1106E-2    -.9632       0.3578E-2    -.9333       0.1106E-2    -.9632   
    11.55       0.1122E-2    -.9631       0.3651E-2    -.9328       0.1122E-2    -.9631   
    11.56       0.1137E-2    -.9629       0.3726E-2    -.9323       0.1137E-2    -.9629   
    11.58       0.1153E-2    -.9627       0.3803E-2    -.9317       0.1153E-2    -.9627   
    11.59       0.1170E-2    -.9625       0.3883E-2    -.9311       0.1170E-2    -.9625   
    11.61       0.1187E-2    -.9624       0.3966E-2    -.9305       0.1187E-2    -.9624   
    11.62       0.1204E-2    -.9622       0.4051E-2    -.9300       0.1204E-2    -.9622   
    11.64       0.1222E-2    -.9620       0.4140E-2    -.9293       0.1222E-2    -.9620   
    11.65       0.1240E-2    -.9618       0.4231E-2    -.9287       0.1240E-2    -.9618   
    11.67       0.1259E-2    -.9616       0.4325E-2    -.9281       0.1259E-2    -.9616   
    11.68       0.1278E-2    -.9614       0.4423E-2    -.9274       0.1278E-2    -.9614   
    11.70       0.1297E-2    -.9613       0.4525E-2    -.9268       0.1297E-2    -.9613   
    11.71       0.1317E-2    -.9611       0.4630E-2    -.9261       0.1317E-2    -.9611   
    11.73       0.1338E-2    -.9609       0.4739E-2    -.9254       0.1338E-2    -.9609   
    11.74       0.1359E-2    -.9607       0.4851E-2    -.9247       0.1359E-2    -.9607   
    11.76       0.1380E-2    -.9605       0.4968E-2    -.9240       0.1380E-2    -.9605   
    11.77       0.1403E-2    -.9602       0.5090E-2    -.9232       0.1403E-2    -.9602   
    11.79       0.1425E-2    -.9600       0.5216E-2    -.9225       0.1425E-2    -.9600   
    11.80       0.1449E-2    -.9598       0.5347E-2    -.9217       0.1449E-2    -.9598   
    11.82       0.1473E-2    -.9596       0.5483E-2    -.9209       0.1473E-2    -.9596   
    11.83       0.1497E-2    -.9594       0.5625E-2    -.9201       0.1497E-2    -.9594   
    11.85       0.1523E-2    -.9592       0.5773E-2    -.9192       0.1523E-2    -.9592   
    11.86       0.1549E-2    -.9589       0.5926E-2    -.9183       0.1549E-2    -.9589   
    11.88       0.1575E-2    -.9587       0.6086E-2    -.9175       0.1575E-2    -.9587   
    11.89       0.1603E-2    -.9585       0.6253E-2    -.9165       0.1603E-2    -.9585   
    11.91       0.1631E-2    -.9582       0.6427E-2    -.9156       0.1631E-2    -.9582   
    11.92       0.1661E-2    -.9580       0.6608E-2    -.9147       0.1660E-2    -.9580   
    11.94       0.1691E-2    -.9577       0.6798E-2    -.9137       0.1690E-2    -.9577   
    11.95       0.1721E-2    -.9575       0.6996E-2    -.9126       0.1721E-2    -.9575   
    11.97       0.1753E-2    -.9572       0.7203E-2    -.9116       0.1753E-2    -.9572   
    11.98       0.1786E-2    -.9569       0.7419E-2    -.9105       0.1786E-2    -.9569   
    12.00       0.1820E-2    -.9567       0.7646E-2    -.9094       0.1820E-2    -.9567   
    12.01       0.1855E-2    -.9564       0.7884E-2    -.9083       0.1855E-2    -.9564   
    12.03       0.1891E-2    -.9561       0.8133E-2    -.9071       0.1891E-2    -.9561   
    12.04       0.1928E-2    -.9558       0.8395E-2    -.9059       0.1928E-2    -.9558   
    12.06       0.1966E-2    -.9556       0.8670E-2    -.9046       0.1966E-2    -.9556   
    12.07       0.2006E-2    -.9553       0.8959E-2    -.9034       0.2005E-2    -.9553   
    12.09       0.2046E-2    -.9550       0.9263E-2    -.9020       0.2046E-2    -.9550   
    12.10       0.2089E-2    -.9546       0.9583E-2    -.9006       0.2088E-2    -.9546   
    12.12       0.2132E-2    -.9543       0.9920E-2    -.8992       0.2132E-2    -.9543   
    12.13       0.2177E-2    -.9540       0.1028E-1    -.8977       0.2177E-2    -.9540   
    12.15       0.2224E-2    -.9537       0.1065E-1    -.8962       0.2224E-2    -.9537   
    12.16       0.2272E-2    -.9534       0.1105E-1    -.8946       0.2272E-2    -.9534   
    12.18       0.2323E-2    -.9530       0.1147E-1    -.8930       0.2322E-2    -.9530   
    12.19       0.2374E-2    -.9527       0.1192E-1    -.8913       0.2374E-2    -.9527   
    12.21       0.2428E-2    -.9523       0.1239E-1    -.8896       0.2428E-2    -.9523   
    12.22       0.2484E-2    -.9519       0.1289E-1    -.8877       0.2484E-2    -.9519   
    12.24       0.2542E-2    -.9516       0.1343E-1    -.8858       0.2542E-2    -.9516   
    12.25       0.2602E-2    -.9512       0.1399E-1    -.8838       0.2602E-2    -.9512   
    12.27       0.2664E-2    -.9508       0.1460E-1    -.8818       0.2664E-2    -.9508   
    12.28       0.2729E-2    -.9504       0.1525E-1    -.8796       0.2729E-2    -.9504   
    12.30       0.2797E-2    -.9500       0.1594E-1    -.8774       0.2796E-2    -.9500   
    12.31       0.2867E-2    -.9496       0.1668E-1    -.8751       0.2866E-2    -.9496   
    12.33       0.2940E-2    -.9491       0.1747E-1    -.8727       0.2939E-2    -.9491   
    12.34       0.3016E-2    -.9487       0.1832E-1    -.8701       0.3015E-2    -.9487   
    12.36       0.3095E-2    -.9483       0.1924E-1    -.8674       0.3095E-2    -.9483   
    12.37       0.3178E-2    -.9478       0.2023E-1    -.8647       0.3177E-2    -.9478   
    12.39       0.3264E-2    -.9473       0.2130E-1    -.8617       0.3263E-2    -.9473   
    12.40       0.3354E-2    -.9468       0.2245E-1    -.8587       0.3353E-2    -.9468   
    12.42       0.3448E-2    -.9463       0.2370E-1    -.8554       0.3447E-2    -.9463   
    12.43       0.3546E-2    -.9458       0.2506E-1    -.8520       0.3546E-2    -.9458   
    12.45       0.3649E-2    -.9453       0.2654E-1    -.8485       0.3648E-2    -.9453   
    12.46       0.3757E-2    -.9447       0.2816E-1    -.8447       0.3756E-2    -.9447   
    12.48       0.3870E-2    -.9442       0.2993E-1    -.8407       0.3869E-2    -.9442   
    12.49       0.3988E-2    -.9436       0.3187E-1    -.8365       0.3987E-2    -.9436   
    12.51       0.4112E-2    -.9430       0.3400E-1    -.8321       0.4112E-2    -.9430   
    12.52       0.4243E-2    -.9424       0.3636E-1    -.8274       0.4242E-2    -.9424   
    12.54       0.4380E-2    -.9418       0.3897E-1    -.8224       0.4379E-2    -.9418   
    12.55       0.4524E-2    -.9411       0.4186E-1    -.8170       0.4523E-2    -.9411   
    12.57       0.4676E-2    -.9404       0.4509E-1    -.8114       0.4675E-2    -.9404   
    12.58       0.4837E-2    -.9397       0.4870E-1    -.8053       0.4836E-2    -.9397   
    12.60       0.5006E-2    -.9390       0.5275E-1    -.7989       0.5005E-2    -.9390   
    12.61       0.5184E-2    -.9383       0.5731E-1    -.7921       0.5183E-2    -.9383   
    12.63       0.5373E-2    -.9375       0.6248E-1    -.7847       0.5372E-2    -.9375   
    12.64       0.5573E-2    -.9367       0.6836E-1    -.7769       0.5572E-2    -.9367   
    12.66       0.5785E-2    -.9359       0.7508E-1    -.7685       0.5784E-2    -.9359   
    12.67       0.6010E-2    -.9350       0.8279E-1    -.7596       0.6009E-2    -.9350   
    12.69       0.6249E-2    -.9342       0.9170E-1    -.7500       0.6247E-2    -.9342   
    12.70       0.6503E-2    -.9332       0.1020       -.7398       0.6501E-2    -.9332   
    12.72       0.6773E-2    -.9323       0.1141       -.7291       0.6772E-2    -.9323   
    12.73       0.7062E-2    -.9313       0.1282       -.7178       0.7060E-2    -.9313   
    12.75       0.7370E-2    -.9302       0.1449       -.7060       0.7368E-2    -.9302   
    12.76       0.7700E-2    -.9292       0.1647       -.6940       0.7697E-2    -.9292   
    12.78       0.8053E-2    -.9280       0.1883       -.6821       0.8050E-2    -.9280   
    12.79       0.8432E-2    -.9269       0.2164       -.6710       0.8429E-2    -.9269   
    12.81       0.8839E-2    -.9256       0.2499       -.6615       0.8836E-2    -.9256   
    12.82       0.9278E-2    -.9243       0.2897       -.6552       0.9274E-2    -.9244   
    12.84       0.9750E-2    -.9230       0.3365       -.6543       0.9747E-2    -.9230   
    12.85       0.1026E-1    -.9216       0.3902       -.6620       0.1026E-1    -.9216   
    12.87       0.1082E-1    -.9201       0.4497       -.6821       0.1081E-1    -.9201   
    12.88       0.1142E-1    -.9186       0.5113       -.7189       0.1141E-1    -.9186   
    12.90       0.1207E-1    -.9169       0.5687       -.7757       0.1206E-1    -.9169   
    12.91       0.1278E-1    -.9152       0.6128       -.8523       0.1278E-1    -.9152   
    12.92793      0.01356     -0.91340      0.63442     -0.94310      0.01355     -0.91341
    12.94294      0.01441     -0.91149      0.62839     -1.03743      0.01441     -0.91150
    12.95796      0.01535     -0.90947      0.59620     -1.12320      0.01534     -0.90948
    12.97297      0.01638     -0.90733      0.54525     -1.19166      0.01637     -0.90735
    12.98799      0.01752     -0.90507      0.48510     -1.23969      0.01751     -0.90508
    13.00300      0.01879     -0.90266      0.42384     -1.26885      0.01878     -0.90268
    13.01802      0.02020     -0.90011      0.36659     -1.28306      0.02018     -0.90013
    13.03303      0.02177     -0.89739      0.31581     -1.28658      0.02175     -0.89741
    13.04805      0.02353     -0.89450      0.27210     -1.28304      0.02351     -0.89452
    13.06306      0.02551     -0.89141      0.23510     -1.27515      0.02549     -0.89144
    13.07808      0.02775     -0.88812      0.20402     -1.26478      0.02773     -0.88815
    13.09309      0.03029     -0.88461      0.17799     -1.25318      0.03027     -0.88463
    13.10811      0.03319     -0.88085      0.15616     -1.24114      0.03316     -0.88088
    13.12312      0.03652     -0.87684      0.13779     -1.22916      0.03648     -0.87687
    13.13814      0.04034     -0.87256      0.12227     -1.21751      0.04030     -0.87259
    13.15315      0.04477     -0.86800      0.10909     -1.20636      0.04472     -0.86803
    13.16817      0.04993     -0.86316      0.09784     -1.19579      0.04987     -0.86320
    13.18318      0.05597     -0.85806      0.08817     -1.18582      0.05590     -0.85810
    13.19820      0.06309     -0.85273      0.07983     -1.17647      0.06300     -0.85277
    13.21321      0.07150     -0.84725      0.07260     -1.16769      0.07140     -0.84729
    13.22823      0.08150     -0.84175      0.06628     -1.15947      0.08138     -0.84178
    13.24324      0.09342     -0.83645      0.06075     -1.15178      0.09327     -0.83648
    13.25826      0.10765     -0.83173      0.05588     -1.14456      0.10747     -0.83175
    13.27327      0.12459     -0.82815      0.05158     -1.13780      0.12437     -0.82815
    13.28829      0.14459     -0.82659      0.04776     -1.13146      0.14433     -0.82654
    13.30330      0.16780     -0.82828      0.04435     -1.12549      0.16750     -0.82817
    13.31832      0.19393     -0.83489      0.04130     -1.11988      0.19361     -0.83470
    13.33333      0.22183     -0.84836      0.03856     -1.11459      0.22151     -0.84806
    13.34835      0.24913     -0.87045      0.03610     -1.10960      0.24885     -0.87003
    13.36336      0.27210     -0.90183      0.03388     -1.10488      0.27193     -0.90128
    13.37838      0.28642     -0.94098      0.03186     -1.10041      0.28641     -0.94037
    13.39339      0.28876     -0.98386      0.03003     -1.09618      0.28893     -0.98325
    13.40841      0.27854     -1.02495      0.02836     -1.09216      0.27888     -1.02442
    13.42342      0.25823     -1.05946      0.02684     -1.08834      0.25869     -1.05906
    13.43844      0.23204     -1.08492      0.02545     -1.08470      0.23254     -1.08467
    13.45345      0.20402     -1.10134      0.02417     -1.08124      0.20452     -1.10122
    13.46847      0.17708     -1.11019      0.02300     -1.07792      0.17753     -1.11018
    13.48348      0.15276     -1.11343      0.02192     -1.07476      0.15316     -1.11349
    13.49850      0.13161     -1.11286      0.02093     -1.07173      0.13196     -1.11297
    13.51351      0.11362     -1.10987      0.02001     -1.06882      0.11391     -1.11000
    13.52853      0.09848     -1.10546      0.01917     -1.06604      0.09872     -1.10560
    13.54354      0.08579     -1.10029      0.01838     -1.06336      0.08599     -1.10044
    13.55856      0.07515     -1.09480      0.01765     -1.06078      0.07533     -1.09495
    13.57357      0.06622     -1.08926      0.01698     -1.05829      0.06637     -1.08941
    13.58859      0.05868     -1.08383      0.01635     -1.05590      0.05881     -1.08397
    13.60360      0.05230     -1.07860      0.01577     -1.05358      0.05241     -1.07873
    13.61862      0.04686     -1.07362      0.01523     -1.05134      0.04695     -1.07375
    13.63363      0.04220     -1.06891      0.01472     -1.04918      0.04228     -1.06903
    13.64865      0.03819     -1.06448      0.01425     -1.04708      0.03826     -1.06460
    13.66366      0.03472     -1.06032      0.01381     -1.04504      0.03478     -1.06043
    13.68       0.3169E-1    -1.056       0.1340E-1    -1.043       0.3175E-1    -1.057   
    13.69       0.2905E-1    -1.053       0.1302E-1    -1.041       0.2910E-1    -1.053   
    13.71       0.2673E-1    -1.049       0.1267E-1    -1.039       0.2677E-1    -1.049   
    13.72       0.2468E-1    -1.046       0.1234E-1    -1.037       0.2472E-1    -1.046   
    13.74       0.2286E-1    -1.043       0.1203E-1    -1.036       0.2290E-1    -1.043   
    13.75       0.2125E-1    -1.040       0.1174E-1    -1.034       0.2128E-1    -1.040   
    13.77       0.1981E-1    -1.038       0.1147E-1    -1.032       0.1983E-1    -1.038   
    13.78       0.1852E-1    -1.035       0.1123E-1    -1.031       0.1854E-1    -1.035   
    13.80       0.1736E-1    -1.033       0.1099E-1    -1.029       0.1738E-1    -1.033   
    13.81       0.1631E-1    -1.030       0.1078E-1    -1.027       0.1633E-1    -1.030   
    13.83       0.1536E-1    -1.028       0.1058E-1    -1.026       0.1538E-1    -1.028   
    13.84       0.1451E-1    -1.026       0.1040E-1    -1.024       0.1452E-1    -1.026   
    13.86       0.1373E-1    -1.024       0.1023E-1    -1.023       0.1374E-1    -1.024   
    13.87       0.1302E-1    -1.022       0.1008E-1    -1.021       0.1303E-1    -1.022   
    13.89       0.1237E-1    -1.021       0.9939E-2    -1.020       0.1238E-1    -1.021   
    13.90       0.1178E-1    -1.019       0.9811E-2    -1.018       0.1179E-1    -1.019   
    13.92       0.1123E-1    -1.017       0.9697E-2    -1.017       0.1124E-1    -1.017   
    13.93       0.1073E-1    -1.016       0.9595E-2    -1.015       0.1074E-1    -1.016   
    13.95       0.1028E-1    -1.014       0.9504E-2    -1.014       0.1028E-1    -1.014   
    13.96       0.9853E-2    -1.013       0.9425E-2    -1.013       0.9860E-2    -1.013   
    13.98       0.9463E-2    -1.011       0.9358E-2    -1.011       0.9470E-2    -1.011   
    13.99       0.9104E-2    -1.010       0.9302E-2    -1.010       0.9110E-2    -1.010   
    14.01       0.8772E-2    -1.009       0.9258E-2    -1.009       0.8777E-2    -1.009   
    14.02       0.8465E-2    -1.008       0.9224E-2    -1.007       0.8469E-2    -1.008   
    14.04       0.8180E-2    -1.006       0.9201E-2    -1.006       0.8184E-2    -1.006   
    14.05       0.7917E-2    -1.005       0.9190E-2    -1.004       0.7920E-2    -1.005   
    14.07       0.7672E-2    -1.004       0.9190E-2    -1.003       0.7675E-2    -1.004   
    14.08       0.7446E-2    -1.003       0.9201E-2    -1.002       0.7448E-2    -1.003   
    14.10       0.7236E-2    -1.002       0.9224E-2    -1.000       0.7238E-2    -1.002   
    14.11       0.7041E-2    -1.001       0.9258E-2    -.9990       0.7043E-2    -1.001   
    14.13       0.6861E-2    -.9998       0.9304E-2    -.9976       0.6862E-2    -.9999   
    14.14       0.6693E-2    -.9989       0.9362E-2    -.9963       0.6694E-2    -.9989   
    14.16       0.6538E-2    -.9979       0.9433E-2    -.9949       0.6538E-2    -.9979   
    14.17       0.6395E-2    -.9969       0.9517E-2    -.9935       0.6395E-2    -.9970   
    14.19       0.6262E-2    -.9960       0.9615E-2    -.9921       0.6261E-2    -.9961   
    14.20       0.6139E-2    -.9951       0.9726E-2    -.9907       0.6138E-2    -.9952   
    14.22       0.6026E-2    -.9942       0.9853E-2    -.9892       0.6025E-2    -.9943   
    14.23       0.5922E-2    -.9933       0.9995E-2    -.9878       0.5921E-2    -.9934   
    14.25       0.5827E-2    -.9925       0.1015E-1    -.9863       0.5825E-2    -.9925   
    14.26       0.5740E-2    -.9916       0.1033E-1    -.9848       0.5737E-2    -.9917   
    14.28       0.5660E-2    -.9908       0.1052E-1    -.9833       0.5658E-2    -.9908   
    14.29       0.5588E-2    -.9900       0.1074E-1    -.9817       0.5585E-2    -.9900   
    14.31       0.5523E-2    -.9891       0.1097E-1    -.9802       0.5520E-2    -.9892   
    14.32       0.5465E-2    -.9883       0.1123E-1    -.9785       0.5461E-2    -.9884   
    14.34       0.5413E-2    -.9875       0.1151E-1    -.9769       0.5409E-2    -.9876   
    14.35       0.5368E-2    -.9867       0.1181E-1    -.9752       0.5364E-2    -.9868   
    14.37       0.5329E-2    -.9859       0.1215E-1    -.9735       0.5324E-2    -.9860   
    14.38       0.5296E-2    -.9852       0.1251E-1    -.9717       0.5291E-2    -.9852   
    14.40       0.5269E-2    -.9844       0.1291E-1    -.9699       0.5264E-2    -.9844   
    14.41       0.5248E-2    -.9836       0.1335E-1    -.9680       0.5242E-2    -.9837   
    14.43       0.5232E-2    -.9828       0.1382E-1    -.9660       0.5226E-2    -.9829   
    14.44       0.5222E-2    -.9821       0.1434E-1    -.9640       0.5215E-2    -.9821   
    14.46       0.5218E-2    -.9813       0.1490E-1    -.9619       0.5210E-2    -.9814   
    14.47       0.5219E-2    -.9805       0.1552E-1    -.9598       0.5211E-2    -.9806   
    14.49       0.5225E-2    -.9797       0.1619E-1    -.9576       0.5217E-2    -.9798   
    14.50       0.5237E-2    -.9790       0.1693E-1    -.9552       0.5228E-2    -.9790   
    14.52       0.5254E-2    -.9782       0.1774E-1    -.9528       0.5245E-2    -.9783   
    14.53       0.5278E-2    -.9774       0.1863E-1    -.9503       0.5268E-2    -.9775   
    14.55       0.5306E-2    -.9766       0.1961E-1    -.9476       0.5296E-2    -.9767   
    14.56       0.5341E-2    -.9759       0.2069E-1    -.9449       0.5329E-2    -.9759   
    14.58       0.5381E-2    -.9751       0.2189E-1    -.9420       0.5369E-2    -.9751   
    14.59       0.5427E-2    -.9743       0.2322E-1    -.9389       0.5415E-2    -.9743   
    14.61       0.5479E-2    -.9735       0.2469E-1    -.9357       0.5466E-2    -.9735   
    14.62       0.5538E-2    -.9726       0.2633E-1    -.9323       0.5524E-2    -.9727   
    14.64       0.5603E-2    -.9718       0.2817E-1    -.9287       0.5588E-2    -.9719   
    14.65       0.5675E-2    -.9710       0.3023E-1    -.9249       0.5659E-2    -.9711   
    14.67       0.5754E-2    -.9701       0.3255E-1    -.9209       0.5737E-2    -.9702   
    14.68       0.5840E-2    -.9693       0.3518E-1    -.9166       0.5822E-2    -.9694   
    14.70       0.5934E-2    -.9684       0.3816E-1    -.9121       0.5915E-2    -.9685   
    14.71       0.6036E-2    -.9675       0.4155E-1    -.9073       0.6016E-2    -.9676   
    14.73       0.6146E-2    -.9667       0.4543E-1    -.9022       0.6125E-2    -.9668   
    14.74       0.6265E-2    -.9657       0.4991E-1    -.8967       0.6242E-2    -.9658   
    14.76       0.6393E-2    -.9648       0.5508E-1    -.8909       0.6369E-2    -.9649   
    14.77       0.6531E-2    -.9639       0.6108E-1    -.8848       0.6505E-2    -.9640   
    14.79       0.6679E-2    -.9629       0.6811E-1    -.8783       0.6652E-2    -.9630   
    14.80       0.6839E-2    -.9619       0.7636E-1    -.8715       0.6810E-2    -.9620   
    14.82       0.7010E-2    -.9609       0.8611E-1    -.8645       0.6980E-2    -.9610   
    14.83       0.7194E-2    -.9599       0.9767E-1    -.8573       0.7162E-2    -.9600   
    14.85       0.7392E-2    -.9588       0.1115       -.8503       0.7357E-2    -.9589   
    14.86       0.7604E-2    -.9577       0.1279       -.8437       0.7567E-2    -.9578   
    14.88       0.7831E-2    -.9566       0.1475       -.8381       0.7792E-2    -.9567   
    14.89       0.8076E-2    -.9554       0.1708       -.8345       0.8033E-2    -.9556   
    14.91       0.8338E-2    -.9542       0.1981       -.8342       0.8293E-2    -.9544   
    14.92       0.8620E-2    -.9530       0.2294       -.8390       0.8572E-2    -.9532   
    14.94       0.8924E-2    -.9518       0.2639       -.8512       0.8871E-2    -.9519   
    14.95       0.9250E-2    -.9504       0.2993       -.8733       0.9194E-2    -.9506   
    14.97       0.9602E-2    -.9491       0.3319       -.9070       0.9542E-2    -.9493   
    14.98       0.9982E-2    -.9477       0.3562       -.9519       0.9916E-2    -.9479   
    15.00       0.1039E-1    -.9462       0.3672       -1.005       0.1032E-1    -.9464   
# 
# 07/24/2018 at 09:14 YAMBO @ NewLaptop [start]
# 07/24/2018 at 09:14                   [end]
#  
# Timing   [Min/Max/Average]: 01s/01s/01s
#
# .-Input file : yambo.in
# | optics                         # [R OPT] Optics
# | bse                            # [R BSE] Bethe Salpeter Equation.
# | bsk                            # [R BSK] Bethe Salpeter Equation kernel
# | bss                            # [R BSS] Bethe Salpeter Equation solver
# | BoseTemp= 0.000000     eV      # Bosonic Temperature
# | FFTGvecs=  4945        RL      # [FFT] Plane-waves
# | NonPDirs= "XYZ"                # [X/BSS] Non periodic chartesian directions (X,Y,Z,XY...)
# | BSEmod= "retarded"             # [BSE] resonant/retarded/coupling
# | BSKmod= "Hartree"              # [BSE] IP/Hartree/HF/ALDA/SEX/BSfxc
# | BSSmod= "hd"                   # [BSS] (h)aydock/(d)iagonalization/(i)nversion/(t)ddft`
# | BSENGexx=  4067        RL      # [BSK] Exchange components
# | % BEnRange
# |   0.00000 | 15.00000 | eV      # [BSS] Energy range
# | %
# | % BDmRange
# |   0.10000 |  0.10000 | eV      # [BSS] Damping range
# | %
# | BEnSteps= 1000                 # [BSS] Energy steps
# | % BLongDir
# | 0.1000E-4 | 0.000    | 0.000    |        # [BSS] [cc] Electric Field
# | %
# | % BSEBands
# |    1 |  50 |                   # [BSK] Bands range
# | %
# | BSHayTrs=0.1000E-2             # [BSS] Relative [o/o] Haydock treshold. Strict(>0)/Average(<0)
