#                                                           
#  /$$     /$$ /$$$$$$  /$$      /$$ /$$$$$$$   /$$$$$$     
# |  $$   /$$//$$__  $$| $$$    /$$$| $$__  $$ /$$__  $$    
#  \  $$ /$$/| $$  \ $$| $$$$  /$$$$| $$  \ $$| $$  \ $$    
#   \  $$$$/ | $$$$$$$$| $$ $$/$$ $$| $$$$$$$ | $$  | $$    
#    \  $$/  | $$__  $$| $$  $$$| $$| $$__  $$| $$  | $$    
#     | $$   | $$  | $$| $$\  $ | $$| $$  \ $$| $$  | $$    
#     | $$   | $$  | $$| $$ \/  | $$| $$$$$$$/|  $$$$$$/    
#     |__/   |__/  |__/|__/     |__/|_______/  \______/     
#                                                           
#       Version 4.3.0 Revision 15624 Hash 7ed12fb           
#                     MPI+SLK Build                         
#               http://www.yambo-code.org                   
#
# EELS @ Q(1)  [q->0 direction]:0.1000E-4  0.000     0.000   
#
#
# - Energies      are Teter 93(XC)
# - Wavefunctions are Teter 93(XC)
#
# - The Green`s function is Retarded -
# - Using the Length Gauge -
# - [r,Vnl] *is* included -
#
#   BSK|Identifier              :7592
#      |Dimension               :49
#      |Bands                   :1 - 50
#      |Exchange           [res]: yes
#      |Correlation        [res]: no
#      |Kernel`s coupling       : no
#      |Exchange           [cpl]: no
#      |Correlation        [cpl]: no
#      |W interaction is bare   : no
#      |ALDA kernel in R-space  : yes
#      |RL vectors    [exchange]:4067
#      |E/h energy range    [ev]:-1.000000 - -1.000000
#      |Coupling range     [o/o]: 100.0000 -  100.0000
#
#    E/ev[1]      EEL-Im[2]    EEL-Re[3]    EELo-Im[4]   EELo-Re[5]
#
    0.000000    -0.000000    -0.982332    -0.000000    -0.980822
   0.1502E-1    0.2250E-6    -.9823       0.2779E-6    -.9808   
   0.3003E-1    0.4499E-6    -.9823       0.5557E-6    -.9808   
   0.4505E-1    0.6749E-6    -.9823       0.8336E-6    -.9808   
   0.6006E-1    0.8999E-6    -.9823       0.1111E-5    -.9808   
   0.7508E-1    0.1125E-5    -.9823       0.1389E-5    -.9808   
   0.9009E-1    0.1350E-5    -.9823       0.1667E-5    -.9808   
   0.1051       0.1575E-5    -.9823       0.1945E-5    -.9808   
   0.1201       0.1800E-5    -.9823       0.2223E-5    -.9808   
   0.1351       0.2025E-5    -.9823       0.2501E-5    -.9808   
   0.1502       0.2250E-5    -.9823       0.2779E-5    -.9808   
   0.1652       0.2475E-5    -.9823       0.3057E-5    -.9808   
   0.1802       0.2700E-5    -.9823       0.3335E-5    -.9808   
   0.1952       0.2926E-5    -.9823       0.3614E-5    -.9808   
   0.2102       0.3151E-5    -.9823       0.3892E-5    -.9808   
   0.2252       0.3376E-5    -.9823       0.4170E-5    -.9808   
   0.2402       0.3602E-5    -.9823       0.4448E-5    -.9808   
   0.2553       0.3827E-5    -.9823       0.4727E-5    -.9808   
   0.2703       0.4052E-5    -.9823       0.5005E-5    -.9808   
   0.2853       0.4278E-5    -.9823       0.5284E-5    -.9808   
   0.3003       0.4503E-5    -.9823       0.5562E-5    -.9808   
   0.3153       0.4729E-5    -.9823       0.5841E-5    -.9808   
   0.3303       0.4955E-5    -.9823       0.6120E-5    -.9808   
   0.3453       0.5180E-5    -.9823       0.6399E-5    -.9808   
   0.3604       0.5406E-5    -.9823       0.6677E-5    -.9808   
   0.3754       0.5632E-5    -.9823       0.6956E-5    -.9808   
   0.3904       0.5858E-5    -.9823       0.7236E-5    -.9808   
   0.4054       0.6084E-5    -.9823       0.7515E-5    -.9808   
   0.4204       0.6310E-5    -.9823       0.7794E-5    -.9808   
   0.4354       0.6536E-5    -.9823       0.8074E-5    -.9808   
   0.4505       0.6762E-5    -.9823       0.8353E-5    -.9808   
   0.4655       0.6989E-5    -.9823       0.8633E-5    -.9808   
   0.4805       0.7215E-5    -.9823       0.8913E-5    -.9808   
   0.4955       0.7441E-5    -.9823       0.9193E-5    -.9808   
   0.5105       0.7668E-5    -.9823       0.9473E-5    -.9808   
   0.5255       0.7895E-5    -.9823       0.9753E-5    -.9808   
   0.5405       0.8122E-5    -.9823       0.1003E-4    -.9808   
   0.5556       0.8349E-5    -.9823       0.1031E-4    -.9808   
   0.5706       0.8576E-5    -.9823       0.1059E-4    -.9808   
   0.5856       0.8803E-5    -.9823       0.1087E-4    -.9808   
   0.6006       0.9030E-5    -.9823       0.1116E-4    -.9808   
   0.6156       0.9257E-5    -.9823       0.1144E-4    -.9808   
   0.6306       0.9485E-5    -.9823       0.1172E-4    -.9808   
   0.6456       0.9712E-5    -.9823       0.1200E-4    -.9808   
   0.6607       0.9940E-5    -.9823       0.1228E-4    -.9808   
   0.6757       0.1017E-4    -.9823       0.1256E-4    -.9808   
   0.6907       0.1040E-4    -.9823       0.1284E-4    -.9808   
   0.7057       0.1062E-4    -.9823       0.1313E-4    -.9808   
   0.7207       0.1085E-4    -.9823       0.1341E-4    -.9808   
   0.7357       0.1108E-4    -.9823       0.1369E-4    -.9808   
   0.7508       0.1131E-4    -.9823       0.1397E-4    -.9808   
   0.7658       0.1154E-4    -.9823       0.1426E-4    -.9808   
   0.7808       0.1177E-4    -.9823       0.1454E-4    -.9808   
   0.7958       0.1200E-4    -.9823       0.1482E-4    -.9808   
   0.8108       0.1223E-4    -.9823       0.1511E-4    -.9808   
   0.8258       0.1245E-4    -.9823       0.1539E-4    -.9808   
   0.8408       0.1268E-4    -.9823       0.1567E-4    -.9808   
   0.8559       0.1291E-4    -.9823       0.1596E-4    -.9808   
   0.8709       0.1314E-4    -.9823       0.1624E-4    -.9808   
   0.8859       0.1337E-4    -.9823       0.1653E-4    -.9807   
   0.9009       0.1360E-4    -.9823       0.1681E-4    -.9807   
   0.9159       0.1383E-4    -.9823       0.1710E-4    -.9807   
   0.9309       0.1406E-4    -.9823       0.1738E-4    -.9807   
   0.9459       0.1429E-4    -.9823       0.1767E-4    -.9807   
   0.9610       0.1453E-4    -.9823       0.1795E-4    -.9807   
   0.9760       0.1476E-4    -.9823       0.1824E-4    -.9807   
   0.9910       0.1499E-4    -.9823       0.1853E-4    -.9807   
    1.006       0.1522E-4    -.9823       0.1881E-4    -.9807   
    1.021       0.1545E-4    -.9823       0.1910E-4    -.9807   
    1.036       0.1568E-4    -.9823       0.1939E-4    -.9807   
    1.051       0.1592E-4    -.9822       0.1967E-4    -.9807   
    1.066       0.1615E-4    -.9822       0.1996E-4    -.9807   
    1.081       0.1638E-4    -.9822       0.2025E-4    -.9807   
    1.096       0.1661E-4    -.9822       0.2054E-4    -.9807   
    1.111       0.1685E-4    -.9822       0.2083E-4    -.9807   
    1.126       0.1708E-4    -.9822       0.2112E-4    -.9807   
    1.141       0.1731E-4    -.9822       0.2141E-4    -.9807   
    1.156       0.1755E-4    -.9822       0.2170E-4    -.9807   
    1.171       0.1778E-4    -.9822       0.2198E-4    -.9807   
    1.186       0.1801E-4    -.9822       0.2228E-4    -.9807   
    1.201       0.1825E-4    -.9822       0.2257E-4    -.9807   
    1.216       0.1848E-4    -.9822       0.2286E-4    -.9807   
    1.231       0.1872E-4    -.9822       0.2315E-4    -.9807   
    1.246       0.1895E-4    -.9822       0.2344E-4    -.9807   
    1.261       0.1919E-4    -.9822       0.2373E-4    -.9807   
    1.276       0.1942E-4    -.9822       0.2402E-4    -.9807   
    1.291       0.1966E-4    -.9822       0.2432E-4    -.9807   
    1.306       0.1990E-4    -.9822       0.2461E-4    -.9807   
    1.321       0.2013E-4    -.9822       0.2490E-4    -.9807   
    1.336       0.2037E-4    -.9822       0.2519E-4    -.9807   
    1.351       0.2061E-4    -.9822       0.2549E-4    -.9807   
    1.366       0.2084E-4    -.9822       0.2578E-4    -.9806   
    1.381       0.2108E-4    -.9822       0.2608E-4    -.9806   
    1.396       0.2132E-4    -.9822       0.2637E-4    -.9806   
    1.411       0.2156E-4    -.9822       0.2667E-4    -.9806   
    1.426       0.2179E-4    -.9822       0.2696E-4    -.9806   
    1.441       0.2203E-4    -.9822       0.2726E-4    -.9806   
    1.456       0.2227E-4    -.9822       0.2756E-4    -.9806   
    1.471       0.2251E-4    -.9822       0.2785E-4    -.9806   
    1.486       0.2275E-4    -.9822       0.2815E-4    -.9806   
    1.502       0.2299E-4    -.9822       0.2845E-4    -.9806   
    1.517       0.2323E-4    -.9822       0.2875E-4    -.9806   
    1.532       0.2347E-4    -.9822       0.2905E-4    -.9806   
    1.547       0.2371E-4    -.9822       0.2934E-4    -.9806   
    1.562       0.2395E-4    -.9821       0.2964E-4    -.9806   
    1.577       0.2419E-4    -.9821       0.2994E-4    -.9806   
    1.592       0.2443E-4    -.9821       0.3024E-4    -.9806   
    1.607       0.2468E-4    -.9821       0.3054E-4    -.9806   
    1.622       0.2492E-4    -.9821       0.3085E-4    -.9806   
    1.637       0.2516E-4    -.9821       0.3115E-4    -.9806   
    1.652       0.2540E-4    -.9821       0.3145E-4    -.9806   
    1.667       0.2565E-4    -.9821       0.3175E-4    -.9806   
    1.682       0.2589E-4    -.9821       0.3206E-4    -.9806   
    1.697       0.2614E-4    -.9821       0.3236E-4    -.9806   
    1.712       0.2638E-4    -.9821       0.3266E-4    -.9805   
    1.727       0.2662E-4    -.9821       0.3297E-4    -.9805   
    1.742       0.2687E-4    -.9821       0.3327E-4    -.9805   
    1.757       0.2712E-4    -.9821       0.3358E-4    -.9805   
    1.772       0.2736E-4    -.9821       0.3388E-4    -.9805   
    1.787       0.2761E-4    -.9821       0.3419E-4    -.9805   
    1.802       0.2785E-4    -.9821       0.3450E-4    -.9805   
    1.817       0.2810E-4    -.9821       0.3481E-4    -.9805   
    1.832       0.2835E-4    -.9821       0.3511E-4    -.9805   
    1.847       0.2860E-4    -.9821       0.3542E-4    -.9805   
    1.862       0.2884E-4    -.9821       0.3573E-4    -.9805   
    1.877       0.2909E-4    -.9821       0.3604E-4    -.9805   
    1.892       0.2934E-4    -.9821       0.3635E-4    -.9805   
    1.907       0.2959E-4    -.9821       0.3666E-4    -.9805   
    1.922       0.2984E-4    -.9821       0.3697E-4    -.9805   
    1.937       0.3009E-4    -.9820       0.3728E-4    -.9805   
    1.952       0.3034E-4    -.9820       0.3760E-4    -.9805   
    1.967       0.3059E-4    -.9820       0.3791E-4    -.9805   
    1.982       0.3084E-4    -.9820       0.3822E-4    -.9805   
    1.997       0.3109E-4    -.9820       0.3854E-4    -.9804   
    2.012       0.3135E-4    -.9820       0.3885E-4    -.9804   
    2.027       0.3160E-4    -.9820       0.3917E-4    -.9804   
    2.042       0.3185E-4    -.9820       0.3948E-4    -.9804   
    2.057       0.3211E-4    -.9820       0.3980E-4    -.9804   
    2.072       0.3236E-4    -.9820       0.4012E-4    -.9804   
    2.087       0.3261E-4    -.9820       0.4043E-4    -.9804   
    2.102       0.3287E-4    -.9820       0.4075E-4    -.9804   
    2.117       0.3312E-4    -.9820       0.4107E-4    -.9804   
    2.132       0.3338E-4    -.9820       0.4139E-4    -.9804   
    2.147       0.3364E-4    -.9820       0.4171E-4    -.9804   
    2.162       0.3389E-4    -.9820       0.4203E-4    -.9804   
    2.177       0.3415E-4    -.9820       0.4235E-4    -.9804   
    2.192       0.3441E-4    -.9820       0.4268E-4    -.9804   
    2.207       0.3467E-4    -.9820       0.4300E-4    -.9804   
    2.222       0.3493E-4    -.9820       0.4332E-4    -.9804   
    2.237       0.3518E-4    -.9819       0.4365E-4    -.9803   
    2.252       0.3544E-4    -.9819       0.4397E-4    -.9803   
    2.267       0.3570E-4    -.9819       0.4430E-4    -.9803   
    2.282       0.3596E-4    -.9819       0.4462E-4    -.9803   
    2.297       0.3623E-4    -.9819       0.4495E-4    -.9803   
    2.312       0.3649E-4    -.9819       0.4528E-4    -.9803   
    2.327       0.3675E-4    -.9819       0.4560E-4    -.9803   
    2.342       0.3701E-4    -.9819       0.4593E-4    -.9803   
    2.357       0.3728E-4    -.9819       0.4626E-4    -.9803   
    2.372       0.3754E-4    -.9819       0.4659E-4    -.9803   
    2.387       0.3780E-4    -.9819       0.4692E-4    -.9803   
    2.402       0.3807E-4    -.9819       0.4725E-4    -.9803   
    2.417       0.3833E-4    -.9819       0.4759E-4    -.9803   
    2.432       0.3860E-4    -.9819       0.4792E-4    -.9803   
    2.447       0.3887E-4    -.9819       0.4825E-4    -.9803   
    2.462       0.3913E-4    -.9819       0.4859E-4    -.9802   
    2.477       0.3940E-4    -.9819       0.4892E-4    -.9802   
    2.492       0.3967E-4    -.9819       0.4926E-4    -.9802   
    2.508       0.3994E-4    -.9818       0.4960E-4    -.9802   
    2.523       0.4021E-4    -.9818       0.4993E-4    -.9802   
    2.538       0.4048E-4    -.9818       0.5027E-4    -.9802   
    2.553       0.4075E-4    -.9818       0.5061E-4    -.9802   
    2.568       0.4102E-4    -.9818       0.5095E-4    -.9802   
    2.583       0.4129E-4    -.9818       0.5129E-4    -.9802   
    2.598       0.4156E-4    -.9818       0.5164E-4    -.9802   
    2.613       0.4183E-4    -.9818       0.5198E-4    -.9802   
    2.628       0.4211E-4    -.9818       0.5232E-4    -.9802   
    2.643       0.4238E-4    -.9818       0.5267E-4    -.9802   
    2.658       0.4266E-4    -.9818       0.5301E-4    -.9801   
    2.673       0.4293E-4    -.9818       0.5336E-4    -.9801   
    2.688       0.4321E-4    -.9818       0.5370E-4    -.9801   
    2.703       0.4348E-4    -.9818       0.5405E-4    -.9801   
    2.718       0.4376E-4    -.9818       0.5440E-4    -.9801   
    2.733       0.4404E-4    -.9818       0.5475E-4    -.9801   
    2.748       0.4432E-4    -.9817       0.5510E-4    -.9801   
    2.763       0.4459E-4    -.9817       0.5545E-4    -.9801   
    2.778       0.4487E-4    -.9817       0.5580E-4    -.9801   
    2.793       0.4515E-4    -.9817       0.5615E-4    -.9801   
    2.808       0.4544E-4    -.9817       0.5651E-4    -.9801   
    2.823       0.4572E-4    -.9817       0.5686E-4    -.9801   
    2.838       0.4600E-4    -.9817       0.5722E-4    -.9800   
    2.853       0.4628E-4    -.9817       0.5757E-4    -.9800   
    2.868       0.4657E-4    -.9817       0.5793E-4    -.9800   
    2.883       0.4685E-4    -.9817       0.5829E-4    -.9800   
    2.898       0.4714E-4    -.9817       0.5865E-4    -.9800   
    2.913       0.4742E-4    -.9817       0.5901E-4    -.9800   
    2.928       0.4771E-4    -.9817       0.5937E-4    -.9800   
    2.943       0.4799E-4    -.9817       0.5973E-4    -.9800   
    2.958       0.4828E-4    -.9816       0.6010E-4    -.9800   
    2.973       0.4857E-4    -.9816       0.6046E-4    -.9800   
    2.988       0.4886E-4    -.9816       0.6082E-4    -.9800   
    3.003       0.4915E-4    -.9816       0.6119E-4    -.9799   
    3.018       0.4944E-4    -.9816       0.6156E-4    -.9799   
    3.033       0.4973E-4    -.9816       0.6193E-4    -.9799   
    3.048       0.5002E-4    -.9816       0.6229E-4    -.9799   
    3.063       0.5032E-4    -.9816       0.6266E-4    -.9799   
    3.078       0.5061E-4    -.9816       0.6304E-4    -.9799   
    3.093       0.5091E-4    -.9816       0.6341E-4    -.9799   
    3.108       0.5120E-4    -.9816       0.6378E-4    -.9799   
    3.123       0.5150E-4    -.9816       0.6416E-4    -.9799   
    3.138       0.5179E-4    -.9816       0.6453E-4    -.9799   
    3.153       0.5209E-4    -.9816       0.6491E-4    -.9799   
    3.168       0.5239E-4    -.9815       0.6529E-4    -.9798   
    3.183       0.5269E-4    -.9815       0.6566E-4    -.9798   
    3.198       0.5299E-4    -.9815       0.6604E-4    -.9798   
    3.213       0.5329E-4    -.9815       0.6642E-4    -.9798   
    3.228       0.5359E-4    -.9815       0.6681E-4    -.9798   
    3.243       0.5389E-4    -.9815       0.6719E-4    -.9798   
    3.258       0.5420E-4    -.9815       0.6757E-4    -.9798   
    3.273       0.5450E-4    -.9815       0.6796E-4    -.9798   
    3.288       0.5481E-4    -.9815       0.6835E-4    -.9798   
    3.303       0.5511E-4    -.9815       0.6873E-4    -.9798   
    3.318       0.5542E-4    -.9815       0.6912E-4    -.9797   
    3.333       0.5573E-4    -.9815       0.6951E-4    -.9797   
    3.348       0.5604E-4    -.9814       0.6990E-4    -.9797   
    3.363       0.5634E-4    -.9814       0.7030E-4    -.9797   
    3.378       0.5665E-4    -.9814       0.7069E-4    -.9797   
    3.393       0.5697E-4    -.9814       0.7108E-4    -.9797   
    3.408       0.5728E-4    -.9814       0.7148E-4    -.9797   
    3.423       0.5759E-4    -.9814       0.7188E-4    -.9797   
    3.438       0.5790E-4    -.9814       0.7228E-4    -.9797   
    3.453       0.5822E-4    -.9814       0.7267E-4    -.9796   
    3.468       0.5853E-4    -.9814       0.7308E-4    -.9796   
    3.483       0.5885E-4    -.9814       0.7348E-4    -.9796   
    3.498       0.5917E-4    -.9814       0.7388E-4    -.9796   
    3.514       0.5949E-4    -.9813       0.7429E-4    -.9796   
    3.529       0.5981E-4    -.9813       0.7469E-4    -.9796   
    3.544       0.6013E-4    -.9813       0.7510E-4    -.9796   
    3.559       0.6045E-4    -.9813       0.7551E-4    -.9796   
    3.574       0.6077E-4    -.9813       0.7592E-4    -.9796   
    3.589       0.6109E-4    -.9813       0.7633E-4    -.9795   
    3.604       0.6142E-4    -.9813       0.7674E-4    -.9795   
    3.619       0.6174E-4    -.9813       0.7716E-4    -.9795   
    3.634       0.6207E-4    -.9813       0.7757E-4    -.9795   
    3.649       0.6239E-4    -.9813       0.7799E-4    -.9795   
    3.664       0.6272E-4    -.9813       0.7841E-4    -.9795   
    3.679       0.6305E-4    -.9812       0.7883E-4    -.9795   
    3.694       0.6338E-4    -.9812       0.7925E-4    -.9795   
    3.709       0.6371E-4    -.9812       0.7967E-4    -.9795   
    3.724       0.6404E-4    -.9812       0.8009E-4    -.9794   
    3.739       0.6438E-4    -.9812       0.8052E-4    -.9794   
    3.754       0.6471E-4    -.9812       0.8094E-4    -.9794   
    3.769       0.6505E-4    -.9812       0.8137E-4    -.9794   
    3.784       0.6538E-4    -.9812       0.8180E-4    -.9794   
    3.799       0.6572E-4    -.9812       0.8223E-4    -.9794   
    3.814       0.6606E-4    -.9812       0.8267E-4    -.9794   
    3.829       0.6640E-4    -.9812       0.8310E-4    -.9794   
    3.844       0.6674E-4    -.9811       0.8354E-4    -.9793   
    3.859       0.6708E-4    -.9811       0.8397E-4    -.9793   
    3.874       0.6742E-4    -.9811       0.8441E-4    -.9793   
    3.889       0.6777E-4    -.9811       0.8485E-4    -.9793   
    3.904       0.6811E-4    -.9811       0.8529E-4    -.9793   
    3.919       0.6846E-4    -.9811       0.8574E-4    -.9793   
    3.934       0.6881E-4    -.9811       0.8618E-4    -.9793   
    3.949       0.6915E-4    -.9811       0.8663E-4    -.9793   
    3.964       0.6950E-4    -.9811       0.8707E-4    -.9792   
    3.979       0.6986E-4    -.9810       0.8752E-4    -.9792   
    3.994       0.7021E-4    -.9810       0.8797E-4    -.9792   
    4.009       0.7056E-4    -.9810       0.8843E-4    -.9792   
    4.024       0.7091E-4    -.9810       0.8888E-4    -.9792   
    4.039       0.7127E-4    -.9810       0.8934E-4    -.9792   
    4.054       0.7163E-4    -.9810       0.8980E-4    -.9792   
    4.069       0.7199E-4    -.9810       0.9026E-4    -.9791   
    4.084       0.7234E-4    -.9810       0.9072E-4    -.9791   
    4.099       0.7270E-4    -.9810       0.9118E-4    -.9791   
    4.114       0.7307E-4    -.9810       0.9164E-4    -.9791   
    4.129       0.7343E-4    -.9809       0.9211E-4    -.9791   
    4.144       0.7379E-4    -.9809       0.9258E-4    -.9791   
    4.159       0.7416E-4    -.9809       0.9305E-4    -.9791   
    4.174       0.7453E-4    -.9809       0.9352E-4    -.9790   
    4.189       0.7489E-4    -.9809       0.9399E-4    -.9790   
    4.204       0.7526E-4    -.9809       0.9447E-4    -.9790   
    4.219       0.7563E-4    -.9809       0.9494E-4    -.9790   
    4.234       0.7601E-4    -.9809       0.9542E-4    -.9790   
    4.249       0.7638E-4    -.9809       0.9590E-4    -.9790   
    4.264       0.7675E-4    -.9808       0.9639E-4    -.9790   
    4.279       0.7713E-4    -.9808       0.9687E-4    -.9789   
    4.294       0.7751E-4    -.9808       0.9736E-4    -.9789   
    4.309       0.7789E-4    -.9808       0.9784E-4    -.9789   
    4.324       0.7827E-4    -.9808       0.9833E-4    -.9789   
    4.339       0.7865E-4    -.9808       0.9883E-4    -.9789   
    4.354       0.7903E-4    -.9808       0.9932E-4    -.9789   
    4.369       0.7941E-4    -.9808       0.9982E-4    -.9789   
    4.384       0.7980E-4    -.9807       0.1003E-3    -.9788   
    4.399       0.8019E-4    -.9807       0.1008E-3    -.9788   
    4.414       0.8058E-4    -.9807       0.1013E-3    -.9788   
    4.429       0.8096E-4    -.9807       0.1018E-3    -.9788   
    4.444       0.8136E-4    -.9807       0.1023E-3    -.9788   
    4.459       0.8175E-4    -.9807       0.1028E-3    -.9788   
    4.474       0.8214E-4    -.9807       0.1033E-3    -.9788   
    4.489       0.8254E-4    -.9807       0.1039E-3    -.9787   
    4.505       0.8294E-4    -.9806       0.1044E-3    -.9787   
    4.520       0.8334E-4    -.9806       0.1049E-3    -.9787   
    4.535       0.8374E-4    -.9806       0.1054E-3    -.9787   
    4.550       0.8414E-4    -.9806       0.1059E-3    -.9787   
    4.565       0.8454E-4    -.9806       0.1064E-3    -.9787   
    4.580       0.8495E-4    -.9806       0.1070E-3    -.9786   
    4.595       0.8535E-4    -.9806       0.1075E-3    -.9786   
    4.610       0.8576E-4    -.9806       0.1080E-3    -.9786   
    4.625       0.8617E-4    -.9805       0.1086E-3    -.9786   
    4.640       0.8658E-4    -.9805       0.1091E-3    -.9786   
    4.655       0.8699E-4    -.9805       0.1096E-3    -.9786   
    4.670       0.8741E-4    -.9805       0.1102E-3    -.9785   
    4.685       0.8782E-4    -.9805       0.1107E-3    -.9785   
    4.700       0.8824E-4    -.9805       0.1112E-3    -.9785   
    4.715       0.8866E-4    -.9805       0.1118E-3    -.9785   
    4.730       0.8908E-4    -.9805       0.1123E-3    -.9785   
    4.745       0.8951E-4    -.9804       0.1129E-3    -.9785   
    4.760       0.8993E-4    -.9804       0.1134E-3    -.9784   
    4.775       0.9036E-4    -.9804       0.1140E-3    -.9784   
    4.790       0.9078E-4    -.9804       0.1145E-3    -.9784   
    4.805       0.9121E-4    -.9804       0.1151E-3    -.9784   
    4.820       0.9164E-4    -.9804       0.1157E-3    -.9784   
    4.835       0.9208E-4    -.9804       0.1162E-3    -.9784   
    4.850       0.9251E-4    -.9803       0.1168E-3    -.9783   
    4.865       0.9295E-4    -.9803       0.1174E-3    -.9783   
    4.880       0.9339E-4    -.9803       0.1179E-3    -.9783   
    4.895       0.9383E-4    -.9803       0.1185E-3    -.9783   
    4.910       0.9427E-4    -.9803       0.1191E-3    -.9783   
    4.925       0.9471E-4    -.9803       0.1197E-3    -.9783   
    4.940       0.9516E-4    -.9803       0.1202E-3    -.9782   
    4.955       0.9561E-4    -.9802       0.1208E-3    -.9782   
    4.970       0.9606E-4    -.9802       0.1214E-3    -.9782   
    4.985       0.9651E-4    -.9802       0.1220E-3    -.9782   
    5.000       0.9696E-4    -.9802       0.1226E-3    -.9782   
    5.015       0.9742E-4    -.9802       0.1232E-3    -.9781   
    5.030       0.9787E-4    -.9802       0.1238E-3    -.9781   
    5.045       0.9833E-4    -.9802       0.1244E-3    -.9781   
    5.060       0.9879E-4    -.9801       0.1250E-3    -.9781   
    5.075       0.9926E-4    -.9801       0.1256E-3    -.9781   
    5.090       0.9972E-4    -.9801       0.1262E-3    -.9780   
    5.105       0.1002E-3    -.9801       0.1268E-3    -.9780   
    5.120       0.1007E-3    -.9801       0.1274E-3    -.9780   
    5.135       0.1011E-3    -.9801       0.1280E-3    -.9780   
    5.150       0.1016E-3    -.9801       0.1287E-3    -.9780   
    5.165       0.1021E-3    -.9800       0.1293E-3    -.9780   
    5.180       0.1026E-3    -.9800       0.1299E-3    -.9779   
    5.195       0.1030E-3    -.9800       0.1305E-3    -.9779   
    5.210       0.1035E-3    -.9800       0.1312E-3    -.9779   
    5.225       0.1040E-3    -.9800       0.1318E-3    -.9779   
    5.240       0.1045E-3    -.9800       0.1324E-3    -.9779   
    5.255       0.1050E-3    -.9799       0.1331E-3    -.9778   
    5.270       0.1055E-3    -.9799       0.1337E-3    -.9778   
    5.285       0.1060E-3    -.9799       0.1344E-3    -.9778   
    5.300       0.1064E-3    -.9799       0.1350E-3    -.9778   
    5.315       0.1069E-3    -.9799       0.1357E-3    -.9778   
    5.330       0.1074E-3    -.9799       0.1363E-3    -.9777   
    5.345       0.1079E-3    -.9798       0.1370E-3    -.9777   
    5.360       0.1084E-3    -.9798       0.1377E-3    -.9777   
    5.375       0.1090E-3    -.9798       0.1383E-3    -.9777   
    5.390       0.1095E-3    -.9798       0.1390E-3    -.9777   
    5.405       0.1100E-3    -.9798       0.1397E-3    -.9776   
    5.420       0.1105E-3    -.9798       0.1403E-3    -.9776   
    5.435       0.1110E-3    -.9798       0.1410E-3    -.9776   
    5.450       0.1115E-3    -.9797       0.1417E-3    -.9776   
    5.465       0.1120E-3    -.9797       0.1424E-3    -.9775   
    5.480       0.1126E-3    -.9797       0.1431E-3    -.9775   
    5.495       0.1131E-3    -.9797       0.1438E-3    -.9775   
    5.511       0.1136E-3    -.9797       0.1445E-3    -.9775   
    5.526       0.1141E-3    -.9797       0.1452E-3    -.9775   
    5.541       0.1147E-3    -.9796       0.1459E-3    -.9774   
    5.556       0.1152E-3    -.9796       0.1466E-3    -.9774   
    5.571       0.1157E-3    -.9796       0.1473E-3    -.9774   
    5.586       0.1163E-3    -.9796       0.1480E-3    -.9774   
    5.601       0.1168E-3    -.9796       0.1487E-3    -.9773   
    5.616       0.1174E-3    -.9795       0.1494E-3    -.9773   
    5.631       0.1179E-3    -.9795       0.1501E-3    -.9773   
    5.646       0.1185E-3    -.9795       0.1509E-3    -.9773   
    5.661       0.1190E-3    -.9795       0.1516E-3    -.9773   
    5.676       0.1196E-3    -.9795       0.1523E-3    -.9772   
    5.691       0.1201E-3    -.9795       0.1531E-3    -.9772   
    5.706       0.1207E-3    -.9794       0.1538E-3    -.9772   
    5.721       0.1213E-3    -.9794       0.1546E-3    -.9772   
    5.736       0.1218E-3    -.9794       0.1553E-3    -.9771   
    5.751       0.1224E-3    -.9794       0.1561E-3    -.9771   
    5.766       0.1230E-3    -.9794       0.1568E-3    -.9771   
    5.781       0.1235E-3    -.9793       0.1576E-3    -.9771   
    5.796       0.1241E-3    -.9793       0.1584E-3    -.9771   
    5.811       0.1247E-3    -.9793       0.1591E-3    -.9770   
    5.826       0.1253E-3    -.9793       0.1599E-3    -.9770   
    5.841       0.1259E-3    -.9793       0.1607E-3    -.9770   
    5.856       0.1265E-3    -.9793       0.1615E-3    -.9770   
    5.871       0.1270E-3    -.9792       0.1623E-3    -.9769   
    5.886       0.1276E-3    -.9792       0.1631E-3    -.9769   
    5.901       0.1282E-3    -.9792       0.1639E-3    -.9769   
    5.916       0.1288E-3    -.9792       0.1647E-3    -.9769   
    5.931       0.1294E-3    -.9792       0.1655E-3    -.9768   
    5.946       0.1301E-3    -.9791       0.1663E-3    -.9768   
    5.961       0.1307E-3    -.9791       0.1671E-3    -.9768   
    5.976       0.1313E-3    -.9791       0.1679E-3    -.9768   
    5.991       0.1319E-3    -.9791       0.1687E-3    -.9767   
    6.006       0.1325E-3    -.9791       0.1695E-3    -.9767   
    6.021       0.1331E-3    -.9790       0.1704E-3    -.9767   
    6.036       0.1338E-3    -.9790       0.1712E-3    -.9767   
    6.051       0.1344E-3    -.9790       0.1721E-3    -.9766   
    6.066       0.1350E-3    -.9790       0.1729E-3    -.9766   
    6.081       0.1357E-3    -.9790       0.1738E-3    -.9766   
    6.096       0.1363E-3    -.9789       0.1746E-3    -.9766   
    6.111       0.1369E-3    -.9789       0.1755E-3    -.9765   
    6.126       0.1376E-3    -.9789       0.1763E-3    -.9765   
    6.141       0.1382E-3    -.9789       0.1772E-3    -.9765   
    6.156       0.1389E-3    -.9789       0.1781E-3    -.9764   
    6.171       0.1395E-3    -.9788       0.1790E-3    -.9764   
    6.186       0.1402E-3    -.9788       0.1798E-3    -.9764   
    6.201       0.1409E-3    -.9788       0.1807E-3    -.9764   
    6.216       0.1415E-3    -.9788       0.1816E-3    -.9763   
    6.231       0.1422E-3    -.9787       0.1825E-3    -.9763   
    6.246       0.1429E-3    -.9787       0.1834E-3    -.9763   
    6.261       0.1436E-3    -.9787       0.1843E-3    -.9763   
    6.276       0.1442E-3    -.9787       0.1853E-3    -.9762   
    6.291       0.1449E-3    -.9787       0.1862E-3    -.9762   
    6.306       0.1456E-3    -.9786       0.1871E-3    -.9762   
    6.321       0.1463E-3    -.9786       0.1880E-3    -.9761   
    6.336       0.1470E-3    -.9786       0.1890E-3    -.9761   
    6.351       0.1477E-3    -.9786       0.1899E-3    -.9761   
    6.366       0.1484E-3    -.9786       0.1909E-3    -.9761   
    6.381       0.1491E-3    -.9785       0.1918E-3    -.9760   
    6.396       0.1498E-3    -.9785       0.1928E-3    -.9760   
    6.411       0.1506E-3    -.9785       0.1938E-3    -.9760   
    6.426       0.1513E-3    -.9785       0.1947E-3    -.9759   
    6.441       0.1520E-3    -.9784       0.1957E-3    -.9759   
    6.456       0.1527E-3    -.9784       0.1967E-3    -.9759   
    6.471       0.1535E-3    -.9784       0.1977E-3    -.9759   
    6.486       0.1542E-3    -.9784       0.1987E-3    -.9758   
    6.502       0.1549E-3    -.9783       0.1997E-3    -.9758   
    6.517       0.1557E-3    -.9783       0.2007E-3    -.9758   
    6.532       0.1564E-3    -.9783       0.2017E-3    -.9757   
    6.547       0.1572E-3    -.9783       0.2027E-3    -.9757   
    6.562       0.1579E-3    -.9783       0.2037E-3    -.9757   
    6.577       0.1587E-3    -.9782       0.2048E-3    -.9756   
    6.592       0.1595E-3    -.9782       0.2058E-3    -.9756   
    6.607       0.1603E-3    -.9782       0.2069E-3    -.9756   
    6.622       0.1610E-3    -.9782       0.2079E-3    -.9755   
    6.637       0.1618E-3    -.9781       0.2090E-3    -.9755   
    6.652       0.1626E-3    -.9781       0.2100E-3    -.9755   
    6.667       0.1634E-3    -.9781       0.2111E-3    -.9755   
    6.682       0.1642E-3    -.9781       0.2122E-3    -.9754   
    6.697       0.1650E-3    -.9780       0.2133E-3    -.9754   
    6.712       0.1658E-3    -.9780       0.2144E-3    -.9754   
    6.727       0.1666E-3    -.9780       0.2154E-3    -.9753   
    6.742       0.1674E-3    -.9780       0.2166E-3    -.9753   
    6.757       0.1682E-3    -.9779       0.2177E-3    -.9753   
    6.772       0.1690E-3    -.9779       0.2188E-3    -.9752   
    6.787       0.1699E-3    -.9779       0.2199E-3    -.9752   
    6.802       0.1707E-3    -.9779       0.2210E-3    -.9752   
    6.817       0.1715E-3    -.9778       0.2222E-3    -.9751   
    6.832       0.1724E-3    -.9778       0.2233E-3    -.9751   
    6.847       0.1732E-3    -.9778       0.2245E-3    -.9751   
    6.862       0.1741E-3    -.9778       0.2257E-3    -.9750   
    6.877       0.1750E-3    -.9777       0.2268E-3    -.9750   
    6.892       0.1758E-3    -.9777       0.2280E-3    -.9750   
    6.907       0.1767E-3    -.9777       0.2292E-3    -.9749   
    6.922       0.1776E-3    -.9777       0.2304E-3    -.9749   
    6.937       0.1784E-3    -.9776       0.2316E-3    -.9749   
    6.952       0.1793E-3    -.9776       0.2328E-3    -.9748   
    6.967       0.1802E-3    -.9776       0.2340E-3    -.9748   
    6.982       0.1811E-3    -.9775       0.2353E-3    -.9748   
    6.997       0.1820E-3    -.9775       0.2365E-3    -.9747   
    7.012       0.1829E-3    -.9775       0.2377E-3    -.9747   
    7.027       0.1838E-3    -.9775       0.2390E-3    -.9746   
    7.042       0.1848E-3    -.9774       0.2402E-3    -.9746   
    7.057       0.1857E-3    -.9774       0.2415E-3    -.9746   
    7.072       0.1866E-3    -.9774       0.2428E-3    -.9745   
    7.087       0.1876E-3    -.9773       0.2441E-3    -.9745   
    7.102       0.1885E-3    -.9773       0.2454E-3    -.9745   
    7.117       0.1895E-3    -.9773       0.2467E-3    -.9744   
    7.132       0.1904E-3    -.9773       0.2480E-3    -.9744   
    7.147       0.1914E-3    -.9772       0.2493E-3    -.9744   
    7.162       0.1924E-3    -.9772       0.2506E-3    -.9743   
    7.177       0.1933E-3    -.9772       0.2520E-3    -.9743   
    7.192       0.1943E-3    -.9771       0.2533E-3    -.9742   
    7.207       0.1953E-3    -.9771       0.2547E-3    -.9742   
    7.222       0.1963E-3    -.9771       0.2561E-3    -.9742   
    7.237       0.1973E-3    -.9771       0.2574E-3    -.9741   
    7.252       0.1983E-3    -.9770       0.2588E-3    -.9741   
    7.267       0.1993E-3    -.9770       0.2602E-3    -.9740   
    7.282       0.2003E-3    -.9770       0.2616E-3    -.9740   
    7.297       0.2014E-3    -.9769       0.2631E-3    -.9740   
    7.312       0.2024E-3    -.9769       0.2645E-3    -.9739   
    7.327       0.2034E-3    -.9769       0.2659E-3    -.9739   
    7.342       0.2045E-3    -.9769       0.2674E-3    -.9738   
    7.357       0.2055E-3    -.9768       0.2688E-3    -.9738   
    7.372       0.2066E-3    -.9768       0.2703E-3    -.9738   
    7.387       0.2077E-3    -.9768       0.2718E-3    -.9737   
    7.402       0.2088E-3    -.9767       0.2733E-3    -.9737   
    7.417       0.2098E-3    -.9767       0.2748E-3    -.9736   
    7.432       0.2109E-3    -.9767       0.2763E-3    -.9736   
    7.447       0.2120E-3    -.9766       0.2778E-3    -.9736   
    7.462       0.2131E-3    -.9766       0.2794E-3    -.9735   
    7.477       0.2143E-3    -.9766       0.2809E-3    -.9735   
    7.492       0.2154E-3    -.9765       0.2825E-3    -.9734   
    7.508       0.2165E-3    -.9765       0.2840E-3    -.9734   
    7.523       0.2177E-3    -.9765       0.2856E-3    -.9734   
    7.538       0.2188E-3    -.9764       0.2872E-3    -.9733   
    7.553       0.2200E-3    -.9764       0.2888E-3    -.9733   
    7.568       0.2211E-3    -.9764       0.2904E-3    -.9732   
    7.583       0.2223E-3    -.9763       0.2921E-3    -.9732   
    7.598       0.2235E-3    -.9763       0.2937E-3    -.9731   
    7.613       0.2247E-3    -.9763       0.2954E-3    -.9731   
    7.628       0.2259E-3    -.9762       0.2970E-3    -.9730   
    7.643       0.2271E-3    -.9762       0.2987E-3    -.9730   
    7.658       0.2283E-3    -.9762       0.3004E-3    -.9730   
    7.673       0.2295E-3    -.9761       0.3021E-3    -.9729   
    7.688       0.2307E-3    -.9761       0.3038E-3    -.9729   
    7.703       0.2320E-3    -.9761       0.3056E-3    -.9728   
    7.718       0.2332E-3    -.9760       0.3073E-3    -.9728   
    7.733       0.2345E-3    -.9760       0.3091E-3    -.9727   
    7.748       0.2358E-3    -.9760       0.3108E-3    -.9727   
    7.763       0.2370E-3    -.9759       0.3126E-3    -.9726   
    7.778       0.2383E-3    -.9759       0.3144E-3    -.9726   
    7.793       0.2396E-3    -.9759       0.3162E-3    -.9725   
    7.808       0.2409E-3    -.9758       0.3181E-3    -.9725   
    7.823       0.2422E-3    -.9758       0.3199E-3    -.9724   
    7.838       0.2436E-3    -.9757       0.3218E-3    -.9724   
    7.853       0.2449E-3    -.9757       0.3236E-3    -.9723   
    7.868       0.2463E-3    -.9757       0.3255E-3    -.9723   
    7.883       0.2476E-3    -.9756       0.3274E-3    -.9722   
    7.898       0.2490E-3    -.9756       0.3294E-3    -.9722   
    7.913       0.2504E-3    -.9756       0.3313E-3    -.9722   
    7.928       0.2518E-3    -.9755       0.3332E-3    -.9721   
    7.943       0.2532E-3    -.9755       0.3352E-3    -.9721   
    7.958       0.2546E-3    -.9754       0.3372E-3    -.9720   
    7.973       0.2560E-3    -.9754       0.3392E-3    -.9719   
    7.988       0.2574E-3    -.9754       0.3412E-3    -.9719   
    8.003       0.2589E-3    -.9753       0.3432E-3    -.9718   
    8.018       0.2603E-3    -.9753       0.3453E-3    -.9718   
    8.033       0.2618E-3    -.9753       0.3474E-3    -.9717   
    8.048       0.2633E-3    -.9752       0.3495E-3    -.9717   
    8.063       0.2647E-3    -.9752       0.3516E-3    -.9716   
    8.078       0.2662E-3    -.9751       0.3537E-3    -.9716   
    8.093       0.2678E-3    -.9751       0.3558E-3    -.9715   
    8.108       0.2693E-3    -.9751       0.3580E-3    -.9715   
    8.123       0.2708E-3    -.9750       0.3601E-3    -.9714   
    8.138       0.2724E-3    -.9750       0.3623E-3    -.9714   
    8.153       0.2739E-3    -.9749       0.3645E-3    -.9713   
    8.168       0.2755E-3    -.9749       0.3668E-3    -.9713   
    8.183       0.2771E-3    -.9748       0.3690E-3    -.9712   
    8.198       0.2787E-3    -.9748       0.3713E-3    -.9712   
    8.213       0.2803E-3    -.9748       0.3736E-3    -.9711   
    8.228       0.2819E-3    -.9747       0.3759E-3    -.9710   
    8.243       0.2836E-3    -.9747       0.3782E-3    -.9710   
    8.258       0.2852E-3    -.9746       0.3806E-3    -.9709   
    8.273       0.2869E-3    -.9746       0.3829E-3    -.9709   
    8.288       0.2886E-3    -.9746       0.3853E-3    -.9708   
    8.303       0.2903E-3    -.9745       0.3877E-3    -.9708   
    8.318       0.2920E-3    -.9745       0.3902E-3    -.9707   
    8.333       0.2937E-3    -.9744       0.3926E-3    -.9706   
    8.348       0.2955E-3    -.9744       0.3951E-3    -.9706   
    8.363       0.2972E-3    -.9743       0.3976E-3    -.9705   
    8.378       0.2990E-3    -.9743       0.4001E-3    -.9705   
    8.393       0.3008E-3    -.9742       0.4027E-3    -.9704   
    8.408       0.3026E-3    -.9742       0.4053E-3    -.9703   
    8.423       0.3044E-3    -.9742       0.4078E-3    -.9703   
    8.438       0.3062E-3    -.9741       0.4105E-3    -.9702   
    8.453       0.3080E-3    -.9741       0.4131E-3    -.9702   
    8.468       0.3099E-3    -.9740       0.4158E-3    -.9701   
    8.483       0.3118E-3    -.9740       0.4185E-3    -.9700   
    8.498       0.3137E-3    -.9739       0.4212E-3    -.9700   
    8.514       0.3156E-3    -.9739       0.4239E-3    -.9699   
    8.529       0.3175E-3    -.9738       0.4267E-3    -.9698   
    8.544       0.3195E-3    -.9738       0.4295E-3    -.9698   
    8.559       0.3214E-3    -.9737       0.4323E-3    -.9697   
    8.574       0.3234E-3    -.9737       0.4351E-3    -.9696   
    8.589       0.3254E-3    -.9736       0.4380E-3    -.9696   
    8.604       0.3274E-3    -.9736       0.4409E-3    -.9695   
    8.619       0.3295E-3    -.9735       0.4438E-3    -.9694   
    8.634       0.3315E-3    -.9735       0.4468E-3    -.9694   
    8.649       0.3336E-3    -.9734       0.4498E-3    -.9693   
    8.664       0.3357E-3    -.9734       0.4528E-3    -.9692   
    8.679       0.3378E-3    -.9733       0.4558E-3    -.9692   
    8.694       0.3399E-3    -.9733       0.4589E-3    -.9691   
    8.709       0.3421E-3    -.9732       0.4620E-3    -.9690   
    8.724       0.3442E-3    -.9732       0.4651E-3    -.9690   
    8.739       0.3464E-3    -.9731       0.4683E-3    -.9689   
    8.754       0.3486E-3    -.9731       0.4715E-3    -.9688   
    8.769       0.3509E-3    -.9730       0.4747E-3    -.9688   
    8.784       0.3531E-3    -.9730       0.4780E-3    -.9687   
    8.799       0.3554E-3    -.9729       0.4813E-3    -.9686   
    8.814       0.3577E-3    -.9729       0.4846E-3    -.9685   
    8.829       0.3600E-3    -.9728       0.4879E-3    -.9685   
    8.844       0.3623E-3    -.9728       0.4913E-3    -.9684   
    8.859       0.3647E-3    -.9727       0.4948E-3    -.9683   
    8.874       0.3671E-3    -.9726       0.4982E-3    -.9682   
    8.889       0.3695E-3    -.9726       0.5017E-3    -.9682   
    8.904       0.3719E-3    -.9725       0.5053E-3    -.9681   
    8.919       0.3744E-3    -.9725       0.5088E-3    -.9680   
    8.934       0.3768E-3    -.9724       0.5124E-3    -.9679   
    8.949       0.3793E-3    -.9724       0.5161E-3    -.9679   
    8.964       0.3819E-3    -.9723       0.5198E-3    -.9678   
    8.979       0.3844E-3    -.9723       0.5235E-3    -.9677   
    8.994       0.3870E-3    -.9722       0.5273E-3    -.9676   
    9.009       0.3896E-3    -.9721       0.5311E-3    -.9676   
    9.024       0.3922E-3    -.9721       0.5349E-3    -.9675   
    9.039       0.3949E-3    -.9720       0.5388E-3    -.9674   
    9.054       0.3976E-3    -.9720       0.5427E-3    -.9673   
    9.069       0.4003E-3    -.9719       0.5467E-3    -.9672   
    9.084       0.4030E-3    -.9718       0.5507E-3    -.9671   
    9.099       0.4058E-3    -.9718       0.5547E-3    -.9671   
    9.114       0.4086E-3    -.9717       0.5588E-3    -.9670   
    9.129       0.4114E-3    -.9717       0.5630E-3    -.9669   
    9.144       0.4142E-3    -.9716       0.5672E-3    -.9668   
    9.159       0.4171E-3    -.9715       0.5714E-3    -.9667   
    9.174       0.4200E-3    -.9715       0.5757E-3    -.9666   
    9.189       0.4230E-3    -.9714       0.5800E-3    -.9666   
    9.204       0.4259E-3    -.9713       0.5844E-3    -.9665   
    9.219       0.4289E-3    -.9713       0.5888E-3    -.9664   
    9.234       0.4320E-3    -.9712       0.5933E-3    -.9663   
    9.249       0.4350E-3    -.9711       0.5978E-3    -.9662   
    9.264       0.4381E-3    -.9711       0.6024E-3    -.9661   
    9.279       0.4413E-3    -.9710       0.6070E-3    -.9660   
    9.294       0.4445E-3    -.9709       0.6117E-3    -.9659   
    9.309       0.4477E-3    -.9709       0.6165E-3    -.9658   
    9.324       0.4509E-3    -.9708       0.6213E-3    -.9657   
    9.339       0.4542E-3    -.9707       0.6261E-3    -.9656   
    9.354       0.4575E-3    -.9707       0.6310E-3    -.9656   
    9.369       0.4608E-3    -.9706       0.6360E-3    -.9655   
    9.384       0.4642E-3    -.9705       0.6410E-3    -.9654   
    9.399       0.4676E-3    -.9705       0.6461E-3    -.9653   
    9.414       0.4711E-3    -.9704       0.6512E-3    -.9652   
    9.429       0.4746E-3    -.9703       0.6565E-3    -.9651   
    9.444       0.4781E-3    -.9703       0.6617E-3    -.9650   
    9.459       0.4817E-3    -.9702       0.6671E-3    -.9649   
    9.474       0.4853E-3    -.9701       0.6725E-3    -.9648   
    9.489       0.4890E-3    -.9700       0.6779E-3    -.9647   
    9.505       0.4927E-3    -.9700       0.6834E-3    -.9646   
    9.520       0.4964E-3    -.9699       0.6890E-3    -.9645   
    9.535       0.5002E-3    -.9698       0.6947E-3    -.9644   
    9.550       0.5041E-3    -.9697       0.7004E-3    -.9643   
    9.565       0.5079E-3    -.9697       0.7063E-3    -.9642   
    9.580       0.5119E-3    -.9696       0.7121E-3    -.9640   
    9.595       0.5158E-3    -.9695       0.7181E-3    -.9639   
    9.610       0.5199E-3    -.9694       0.7241E-3    -.9638   
    9.625       0.5239E-3    -.9694       0.7302E-3    -.9637   
    9.640       0.5280E-3    -.9693       0.7364E-3    -.9636   
    9.655       0.5322E-3    -.9692       0.7427E-3    -.9635   
    9.670       0.5364E-3    -.9691       0.7490E-3    -.9634   
    9.685       0.5407E-3    -.9690       0.7555E-3    -.9633   
    9.700       0.5450E-3    -.9690       0.7620E-3    -.9632   
    9.715       0.5494E-3    -.9689       0.7686E-3    -.9630   
    9.730       0.5538E-3    -.9688       0.7753E-3    -.9629   
    9.745       0.5583E-3    -.9687       0.7820E-3    -.9628   
    9.760       0.5628E-3    -.9686       0.7889E-3    -.9627   
    9.775       0.5674E-3    -.9685       0.7959E-3    -.9626   
    9.790       0.5721E-3    -.9685       0.8029E-3    -.9625   
    9.805       0.5768E-3    -.9684       0.8101E-3    -.9623   
    9.820       0.5816E-3    -.9683       0.8173E-3    -.9622   
    9.835       0.5864E-3    -.9682       0.8247E-3    -.9621   
    9.850       0.5913E-3    -.9681       0.8321E-3    -.9620   
    9.865       0.5963E-3    -.9680       0.8396E-3    -.9618   
    9.880       0.6013E-3    -.9679       0.8473E-3    -.9617   
    9.895       0.6064E-3    -.9678       0.8550E-3    -.9616   
    9.910       0.6115E-3    -.9677       0.8629E-3    -.9615   
    9.925       0.6168E-3    -.9677       0.8709E-3    -.9613   
    9.940       0.6221E-3    -.9676       0.8790E-3    -.9612   
    9.955       0.6274E-3    -.9675       0.8872E-3    -.9611   
    9.970       0.6329E-3    -.9674       0.8955E-3    -.9609   
    9.985       0.6384E-3    -.9673       0.9039E-3    -.9608   
    10.00       0.6440E-3    -.9672       0.9125E-3    -.9607   
    10.02       0.6496E-3    -.9671       0.9212E-3    -.9605   
    10.03       0.6554E-3    -.9670       0.9300E-3    -.9604   
    10.05       0.6612E-3    -.9669       0.9389E-3    -.9602   
    10.06       0.6671E-3    -.9668       0.9480E-3    -.9601   
    10.08       0.6731E-3    -.9667       0.9572E-3    -.9600   
    10.09       0.6791E-3    -.9666       0.9666E-3    -.9598   
    10.11       0.6853E-3    -.9665       0.9761E-3    -.9597   
    10.12       0.6915E-3    -.9664       0.9857E-3    -.9595   
    10.14       0.6979E-3    -.9663       0.9955E-3    -.9594   
    10.15       0.7043E-3    -.9662       0.1005E-2    -.9592   
    10.17       0.7108E-3    -.9661       0.1015E-2    -.9591   
    10.18       0.7174E-3    -.9660       0.1026E-2    -.9589   
    10.20       0.7241E-3    -.9659       0.1036E-2    -.9588   
    10.21       0.7309E-3    -.9657       0.1047E-2    -.9586   
    10.23       0.7378E-3    -.9656       0.1057E-2    -.9585   
    10.24       0.7448E-3    -.9655       0.1068E-2    -.9583   
    10.26       0.7519E-3    -.9654       0.1079E-2    -.9581   
    10.27       0.7591E-3    -.9653       0.1091E-2    -.9580   
    10.29       0.7665E-3    -.9652       0.1102E-2    -.9578   
    10.30       0.7739E-3    -.9651       0.1114E-2    -.9576   
    10.32       0.7814E-3    -.9649       0.1125E-2    -.9575   
    10.33       0.7891E-3    -.9648       0.1137E-2    -.9573   
    10.35       0.7969E-3    -.9647       0.1150E-2    -.9571   
    10.36       0.8048E-3    -.9646       0.1162E-2    -.9570   
    10.38       0.8128E-3    -.9645       0.1175E-2    -.9568   
    10.39       0.8210E-3    -.9643       0.1187E-2    -.9566   
    10.41       0.8292E-3    -.9642       0.1200E-2    -.9564   
    10.42       0.8377E-3    -.9641       0.1214E-2    -.9563   
    10.44       0.8462E-3    -.9640       0.1227E-2    -.9561   
    10.45       0.8549E-3    -.9638       0.1241E-2    -.9559   
    10.47       0.8637E-3    -.9637       0.1255E-2    -.9557   
    10.48       0.8727E-3    -.9636       0.1269E-2    -.9555   
    10.50       0.8818E-3    -.9635       0.1283E-2    -.9553   
    10.51       0.8911E-3    -.9633       0.1298E-2    -.9551   
    10.53       0.9005E-3    -.9632       0.1313E-2    -.9549   
    10.54       0.9101E-3    -.9631       0.1328E-2    -.9547   
    10.56       0.9198E-3    -.9629       0.1344E-2    -.9545   
    10.57       0.9297E-3    -.9628       0.1360E-2    -.9543   
    10.59       0.9398E-3    -.9626       0.1376E-2    -.9541   
    10.60       0.9501E-3    -.9625       0.1392E-2    -.9539   
    10.62       0.9605E-3    -.9624       0.1409E-2    -.9537   
    10.63       0.9711E-3    -.9622       0.1426E-2    -.9535   
    10.65       0.9819E-3    -.9621       0.1443E-2    -.9533   
    10.66       0.9929E-3    -.9619       0.1461E-2    -.9531   
    10.68       0.1004E-2    -.9618       0.1479E-2    -.9528   
    10.69       0.1015E-2    -.9616       0.1497E-2    -.9526   
    10.71       0.1027E-2    -.9615       0.1515E-2    -.9524   
    10.72       0.1039E-2    -.9613       0.1534E-2    -.9522   
    10.74       0.1051E-2    -.9612       0.1554E-2    -.9519   
    10.75       0.1063E-2    -.9610       0.1574E-2    -.9517   
    10.77       0.1076E-2    -.9608       0.1594E-2    -.9515   
    10.78       0.1088E-2    -.9607       0.1614E-2    -.9512   
    10.80       0.1101E-2    -.9605       0.1635E-2    -.9510   
    10.81       0.1114E-2    -.9603       0.1657E-2    -.9507   
    10.83       0.1128E-2    -.9602       0.1679E-2    -.9505   
    10.84       0.1142E-2    -.9600       0.1701E-2    -.9502   
    10.86       0.1155E-2    -.9598       0.1724E-2    -.9500   
    10.87       0.1170E-2    -.9597       0.1747E-2    -.9497   
    10.89       0.1184E-2    -.9595       0.1771E-2    -.9495   
    10.90       0.1199E-2    -.9593       0.1795E-2    -.9492   
    10.92       0.1214E-2    -.9591       0.1820E-2    -.9489   
    10.93       0.1229E-2    -.9589       0.1845E-2    -.9486   
    10.95       0.1245E-2    -.9588       0.1871E-2    -.9484   
    10.96       0.1261E-2    -.9586       0.1897E-2    -.9481   
    10.98       0.1278E-2    -.9584       0.1924E-2    -.9478   
    10.99       0.1294E-2    -.9582       0.1952E-2    -.9475   
    11.01       0.1311E-2    -.9580       0.1980E-2    -.9472   
    11.02       0.1329E-2    -.9578       0.2009E-2    -.9469   
    11.04       0.1346E-2    -.9576       0.2038E-2    -.9466   
    11.05       0.1365E-2    -.9574       0.2068E-2    -.9463   
    11.07       0.1383E-2    -.9572       0.2099E-2    -.9460   
    11.08       0.1402E-2    -.9570       0.2131E-2    -.9457   
    11.10       0.1421E-2    -.9568       0.2163E-2    -.9454   
    11.11       0.1441E-2    -.9566       0.2196E-2    -.9450   
    11.13       0.1461E-2    -.9563       0.2230E-2    -.9447   
    11.14       0.1482E-2    -.9561       0.2265E-2    -.9444   
    11.16       0.1503E-2    -.9559       0.2301E-2    -.9440   
    11.17       0.1525E-2    -.9557       0.2337E-2    -.9437   
    11.19       0.1547E-2    -.9554       0.2375E-2    -.9433   
    11.20       0.1570E-2    -.9552       0.2413E-2    -.9430   
    11.22       0.1593E-2    -.9550       0.2452E-2    -.9426   
    11.23       0.1616E-2    -.9547       0.2492E-2    -.9422   
    11.25       0.1641E-2    -.9545       0.2534E-2    -.9419   
    11.26       0.1666E-2    -.9542       0.2576E-2    -.9415   
    11.28       0.1691E-2    -.9540       0.2620E-2    -.9411   
    11.29       0.1717E-2    -.9537       0.2664E-2    -.9407   
    11.31       0.1744E-2    -.9535       0.2710E-2    -.9403   
    11.32       0.1771E-2    -.9532       0.2757E-2    -.9399   
    11.34       0.1799E-2    -.9529       0.2806E-2    -.9395   
    11.35       0.1828E-2    -.9527       0.2856E-2    -.9391   
    11.37       0.1858E-2    -.9524       0.2907E-2    -.9386   
    11.38       0.1888E-2    -.9521       0.2959E-2    -.9382   
    11.40       0.1919E-2    -.9518       0.3013E-2    -.9377   
    11.41       0.1951E-2    -.9515       0.3069E-2    -.9373   
    11.43       0.1984E-2    -.9513       0.3126E-2    -.9368   
    11.44       0.2017E-2    -.9510       0.3185E-2    -.9364   
    11.46       0.2052E-2    -.9507       0.3246E-2    -.9359   
    11.47       0.2088E-2    -.9503       0.3308E-2    -.9354   
    11.49       0.2124E-2    -.9500       0.3373E-2    -.9349   
    11.50       0.2162E-2    -.9497       0.3439E-2    -.9344   
    11.52       0.2200E-2    -.9494       0.3507E-2    -.9339   
    11.53       0.2240E-2    -.9491       0.3578E-2    -.9333   
    11.55       0.2281E-2    -.9487       0.3651E-2    -.9328   
    11.56       0.2323E-2    -.9484       0.3726E-2    -.9323   
    11.58       0.2366E-2    -.9480       0.3803E-2    -.9317   
    11.59       0.2411E-2    -.9477       0.3883E-2    -.9311   
    11.61       0.2456E-2    -.9473       0.3966E-2    -.9305   
    11.62       0.2504E-2    -.9469       0.4051E-2    -.9300   
    11.64       0.2552E-2    -.9466       0.4140E-2    -.9293   
    11.65       0.2603E-2    -.9462       0.4231E-2    -.9287   
    11.67       0.2655E-2    -.9458       0.4325E-2    -.9281   
    11.68       0.2708E-2    -.9454       0.4423E-2    -.9274   
    11.70       0.2763E-2    -.9450       0.4525E-2    -.9268   
    11.71       0.2820E-2    -.9446       0.4630E-2    -.9261   
    11.73       0.2879E-2    -.9441       0.4739E-2    -.9254   
    11.74       0.2940E-2    -.9437       0.4851E-2    -.9247   
    11.76       0.3003E-2    -.9433       0.4968E-2    -.9240   
    11.77       0.3068E-2    -.9428       0.5090E-2    -.9232   
    11.79       0.3136E-2    -.9424       0.5216E-2    -.9225   
    11.80       0.3206E-2    -.9419       0.5347E-2    -.9217   
    11.82       0.3278E-2    -.9414       0.5483E-2    -.9209   
    11.83       0.3353E-2    -.9409       0.5625E-2    -.9201   
    11.85       0.3430E-2    -.9404       0.5773E-2    -.9192   
    11.86       0.3511E-2    -.9399       0.5926E-2    -.9183   
    11.88       0.3594E-2    -.9394       0.6086E-2    -.9175   
    11.89       0.3681E-2    -.9388       0.6253E-2    -.9165   
    11.91       0.3771E-2    -.9383       0.6427E-2    -.9156   
    11.92       0.3864E-2    -.9377       0.6608E-2    -.9147   
    11.94       0.3961E-2    -.9371       0.6798E-2    -.9137   
    11.95       0.4062E-2    -.9365       0.6996E-2    -.9126   
    11.97       0.4167E-2    -.9359       0.7203E-2    -.9116   
    11.98       0.4277E-2    -.9353       0.7419E-2    -.9105   
    12.00       0.4391E-2    -.9347       0.7646E-2    -.9094   
    12.01       0.4510E-2    -.9340       0.7884E-2    -.9083   
    12.03       0.4634E-2    -.9333       0.8133E-2    -.9071   
    12.04       0.4763E-2    -.9326       0.8395E-2    -.9059   
    12.06       0.4898E-2    -.9319       0.8670E-2    -.9046   
    12.07       0.5039E-2    -.9312       0.8959E-2    -.9034   
    12.09       0.5187E-2    -.9305       0.9263E-2    -.9020   
    12.10       0.5342E-2    -.9297       0.9583E-2    -.9006   
    12.12       0.5504E-2    -.9289       0.9920E-2    -.8992   
    12.13       0.5673E-2    -.9281       0.1028E-1    -.8977   
    12.15       0.5851E-2    -.9272       0.1065E-1    -.8962   
    12.16       0.6038E-2    -.9263       0.1105E-1    -.8946   
    12.18       0.6235E-2    -.9254       0.1147E-1    -.8930   
    12.19       0.6441E-2    -.9245       0.1192E-1    -.8913   
    12.21       0.6659E-2    -.9236       0.1239E-1    -.8896   
    12.22       0.6887E-2    -.9226       0.1289E-1    -.8877   
    12.24       0.7129E-2    -.9215       0.1343E-1    -.8858   
    12.25       0.7384E-2    -.9205       0.1399E-1    -.8838   
    12.27       0.7653E-2    -.9194       0.1460E-1    -.8818   
    12.28       0.7937E-2    -.9183       0.1525E-1    -.8796   
    12.30       0.8239E-2    -.9171       0.1594E-1    -.8774   
    12.31       0.8558E-2    -.9159       0.1668E-1    -.8751   
    12.33       0.8897E-2    -.9146       0.1747E-1    -.8727   
    12.34       0.9257E-2    -.9133       0.1832E-1    -.8701   
    12.36       0.9640E-2    -.9119       0.1924E-1    -.8674   
    12.37       0.1005E-1    -.9105       0.2023E-1    -.8647   
    12.39       0.1048E-1    -.9090       0.2130E-1    -.8617   
    12.40       0.1095E-1    -.9075       0.2245E-1    -.8587   
    12.42       0.1145E-1    -.9059       0.2370E-1    -.8554   
    12.43       0.1198E-1    -.9042       0.2506E-1    -.8520   
    12.44745      0.01255     -0.90247      0.02654     -0.84847
    12.46246      0.01316     -0.90064      0.02816     -0.84470
    12.47748      0.01382     -0.89873      0.02993     -0.84073
    12.49249      0.01454     -0.89673      0.03187     -0.83652
    12.50751      0.01531     -0.89463      0.03400     -0.83207
    12.52252      0.01614     -0.89243      0.03636     -0.82736
    12.53754      0.01705     -0.89011      0.03897     -0.82235
    12.55255      0.01803     -0.88767      0.04186     -0.81703
    12.56757      0.01911     -0.88511      0.04509     -0.81137
    12.58258      0.02028     -0.88240      0.04870     -0.80535
    12.59760      0.02157     -0.87954      0.05275     -0.79892
    12.61261      0.02298     -0.87652      0.05731     -0.79206
    12.62763      0.02453     -0.87332      0.06248     -0.78473
    12.64264      0.02625     -0.86992      0.06836     -0.77689
    12.65766      0.02816     -0.86632      0.07508     -0.76851
    12.67267      0.03028     -0.86250      0.08279     -0.75956
    12.68769      0.03264     -0.85842      0.09170     -0.75001
    12.70270      0.03529     -0.85408      0.10203     -0.73985
    12.71772      0.03827     -0.84945      0.11409     -0.72908
    12.73273      0.04164     -0.84451      0.12825     -0.71776
    12.74775      0.04546     -0.83923      0.14494     -0.70599
    12.76276      0.04981     -0.83358      0.16474     -0.69399
    12.77778      0.05480     -0.82755      0.18830     -0.68211
    12.79279      0.06054     -0.82111      0.21641     -0.67095
    12.80781      0.06718     -0.81425      0.24993     -0.66149
    12.82282      0.07491     -0.80696      0.28975     -0.65522
    12.83784      0.08396     -0.79926      0.33651     -0.65434
    12.85285      0.09460     -0.79121      0.39024     -0.66196
    12.86787      0.10718     -0.78291      0.44967     -0.68205
    12.88288      0.12213     -0.77455      0.51130     -0.71890
    12.89790      0.13995     -0.76645      0.56867     -0.77571
    12.91291      0.16121     -0.75914      0.61276     -0.85231
    12.92793      0.18654     -0.75345      0.63442     -0.94310
    12.94294      0.21648     -0.75065      0.62839     -1.03743
    12.95796      0.25134     -0.75255      0.59620     -1.12320
    12.97297      0.29076     -0.76162      0.54525     -1.19166
    12.98799      0.33320     -0.78081      0.48510     -1.23969
    13.00300      0.37527     -0.81289      0.42384     -1.26885
    13.01802      0.41152     -0.85918      0.36659     -1.28306
    13.03303      0.43533     -0.91785      0.31581     -1.28658
    13.04805      0.44129     -0.98314      0.27210     -1.28304
    13.06306      0.42790     -1.04674      0.23510     -1.27515
    13.07808      0.39846     -1.10101      0.20402     -1.26478
    13.09309      0.35918     -1.14173      0.17799     -1.25318
    13.10811      0.31645     -1.16846      0.15616     -1.24114
    13.12312      0.27492     -1.18330      0.13779     -1.22916
    13.13814      0.23721     -1.18921      0.12227     -1.21751
    13.15315      0.20430     -1.18899      0.10909     -1.20636
    13.16817      0.17625     -1.18484      0.09784     -1.19579
    13.18318      0.15261     -1.17837      0.08817     -1.18582
    13.19820      0.13280     -1.17064      0.07983     -1.17647
    13.21321      0.11619     -1.16235      0.07260     -1.16769
    13.22823      0.10225     -1.15394      0.06628     -1.15947
    13.24324      0.09049     -1.14568      0.06075     -1.15178
    13.25826      0.08054     -1.13772      0.05588     -1.14456
    13.27327      0.07206     -1.13013      0.05158     -1.13780
    13.28829      0.06481     -1.12296      0.04776     -1.13146
    13.30330      0.05856     -1.11621      0.04435     -1.12549
    13.31832      0.05316     -1.10987      0.04130     -1.11988
    13.33333      0.04846     -1.10394      0.03856     -1.11459
    13.34835      0.04435     -1.09837      0.03610     -1.10960
    13.36336      0.04074     -1.09316      0.03388     -1.10488
    13.37838      0.03755     -1.08827      0.03186     -1.10041
    13.39339      0.03473     -1.08368      0.03003     -1.09618
    13.40841      0.03223     -1.07937      0.02836     -1.09216
    13.42342      0.02999     -1.07531      0.02684     -1.08834
    13.43844      0.02798     -1.07149      0.02545     -1.08470
    13.45345      0.02618     -1.06788      0.02417     -1.08124
    13.46847      0.02455     -1.06447      0.02300     -1.07792
    13.48348      0.02308     -1.06124      0.02192     -1.07476
    13.49850      0.02175     -1.05819      0.02093     -1.07173
    13.51351      0.02053     -1.05528      0.02001     -1.06882
    13.52853      0.01943     -1.05252      0.01917     -1.06604
    13.54354      0.01842     -1.04989      0.01838     -1.06336
    13.55856      0.01749     -1.04739      0.01765     -1.06078
    13.57357      0.01665     -1.04499      0.01698     -1.05829
    13.58859      0.01587     -1.04270      0.01635     -1.05590
    13.60360      0.01515     -1.04051      0.01577     -1.05358
    13.61862      0.01449     -1.03841      0.01523     -1.05134
    13.63363      0.01388     -1.03639      0.01472     -1.04918
    13.65       0.1331E-1    -1.034       0.1425E-1    -1.047   
    13.66       0.1279E-1    -1.033       0.1381E-1    -1.045   
    13.68       0.1230E-1    -1.031       0.1340E-1    -1.043   
    13.69       0.1185E-1    -1.029       0.1302E-1    -1.041   
    13.71       0.1144E-1    -1.027       0.1267E-1    -1.039   
    13.72       0.1105E-1    -1.026       0.1234E-1    -1.037   
    13.74       0.1069E-1    -1.024       0.1203E-1    -1.036   
    13.75       0.1035E-1    -1.023       0.1174E-1    -1.034   
    13.77       0.1004E-1    -1.021       0.1147E-1    -1.032   
    13.78       0.9746E-2    -1.020       0.1123E-1    -1.031   
    13.80       0.9475E-2    -1.018       0.1099E-1    -1.029   
    13.81       0.9221E-2    -1.017       0.1078E-1    -1.027   
    13.83       0.8986E-2    -1.016       0.1058E-1    -1.026   
    13.84       0.8766E-2    -1.014       0.1040E-1    -1.024   
    13.86       0.8562E-2    -1.013       0.1023E-1    -1.023   
    13.87       0.8371E-2    -1.012       0.1008E-1    -1.021   
    13.89       0.8195E-2    -1.011       0.9939E-2    -1.020   
    13.90       0.8031E-2    -1.009       0.9811E-2    -1.018   
    13.92       0.7879E-2    -1.008       0.9697E-2    -1.017   
    13.93       0.7738E-2    -1.007       0.9595E-2    -1.015   
    13.95       0.7608E-2    -1.006       0.9504E-2    -1.014   
    13.96       0.7489E-2    -1.005       0.9425E-2    -1.013   
    13.98       0.7379E-2    -1.004       0.9358E-2    -1.011   
    13.99       0.7279E-2    -1.003       0.9302E-2    -1.010   
    14.01       0.7188E-2    -1.002       0.9258E-2    -1.009   
    14.02       0.7105E-2    -1.001       0.9224E-2    -1.007   
    14.04       0.7031E-2    -.9995       0.9201E-2    -1.006   
    14.05       0.6966E-2    -.9985       0.9190E-2    -1.004   
    14.07       0.6908E-2    -.9975       0.9190E-2    -1.003   
    14.08       0.6858E-2    -.9965       0.9201E-2    -1.002   
    14.10       0.6816E-2    -.9955       0.9224E-2    -1.000   
    14.11       0.6782E-2    -.9945       0.9258E-2    -.9990   
    14.13       0.6755E-2    -.9935       0.9304E-2    -.9976   
    14.14       0.6735E-2    -.9925       0.9362E-2    -.9963   
    14.16       0.6722E-2    -.9915       0.9433E-2    -.9949   
    14.17       0.6717E-2    -.9905       0.9517E-2    -.9935   
    14.19       0.6719E-2    -.9895       0.9615E-2    -.9921   
    14.20       0.6729E-2    -.9885       0.9726E-2    -.9907   
    14.22       0.6746E-2    -.9875       0.9853E-2    -.9892   
    14.23       0.6770E-2    -.9865       0.9995E-2    -.9878   
    14.25       0.6802E-2    -.9855       0.1015E-1    -.9863   
    14.26       0.6842E-2    -.9845       0.1033E-1    -.9848   
    14.28       0.6890E-2    -.9835       0.1052E-1    -.9833   
    14.29       0.6946E-2    -.9825       0.1074E-1    -.9817   
    14.31       0.7011E-2    -.9814       0.1097E-1    -.9802   
    14.32       0.7084E-2    -.9804       0.1123E-1    -.9785   
    14.34       0.7166E-2    -.9793       0.1151E-1    -.9769   
    14.35       0.7257E-2    -.9783       0.1181E-1    -.9752   
    14.37       0.7359E-2    -.9772       0.1215E-1    -.9735   
    14.38       0.7470E-2    -.9761       0.1251E-1    -.9717   
    14.40       0.7593E-2    -.9750       0.1291E-1    -.9699   
    14.41       0.7727E-2    -.9739       0.1335E-1    -.9680   
    14.43       0.7873E-2    -.9727       0.1382E-1    -.9660   
    14.44       0.8031E-2    -.9716       0.1434E-1    -.9640   
    14.46       0.8204E-2    -.9704       0.1490E-1    -.9619   
    14.47       0.8390E-2    -.9692       0.1552E-1    -.9598   
    14.49       0.8592E-2    -.9679       0.1619E-1    -.9576   
    14.50       0.8810E-2    -.9667       0.1693E-1    -.9552   
    14.52       0.9047E-2    -.9654       0.1774E-1    -.9528   
    14.53       0.9302E-2    -.9640       0.1863E-1    -.9503   
    14.55       0.9577E-2    -.9627       0.1961E-1    -.9476   
    14.56       0.9875E-2    -.9613       0.2069E-1    -.9449   
    14.58       0.1020E-1    -.9598       0.2189E-1    -.9420   
    14.59       0.1055E-1    -.9583       0.2322E-1    -.9389   
    14.61       0.1092E-1    -.9568       0.2469E-1    -.9357   
    14.62       0.1133E-1    -.9552       0.2633E-1    -.9323   
    14.64       0.1177E-1    -.9535       0.2817E-1    -.9287   
    14.65       0.1225E-1    -.9518       0.3023E-1    -.9249   
    14.67       0.1277E-1    -.9500       0.3255E-1    -.9209   
    14.68       0.1334E-1    -.9482       0.3518E-1    -.9166   
    14.70       0.1395E-1    -.9463       0.3816E-1    -.9121   
    14.71       0.1463E-1    -.9443       0.4155E-1    -.9073   
    14.72973      0.01536     -0.94217      0.04543     -0.90218
    14.74475      0.01616     -0.93998      0.04991     -0.89672
    14.75976      0.01705     -0.93768      0.05508     -0.89093
    14.77478      0.01801     -0.93527      0.06108     -0.88479
    14.78979      0.01908     -0.93273      0.06811     -0.87831
    14.80481      0.02026     -0.93007      0.07636     -0.87151
    14.81982      0.02157     -0.92725      0.08611     -0.86447
    14.83484      0.02302     -0.92428      0.09767     -0.85732
    14.84985      0.02464     -0.92114      0.11145     -0.85027
    14.86487      0.02645     -0.91781      0.12789     -0.84368
    14.87988      0.02848     -0.91427      0.14751     -0.83815
    14.89490      0.03077     -0.91052      0.17080     -0.83455
    14.90991      0.03336     -0.90652      0.19811     -0.83422
    14.92492      0.03630     -0.90227      0.22941     -0.83899
    14.93994      0.03965     -0.89773      0.26387     -0.85119
    14.95496      0.04349     -0.89290      0.29931     -0.87326
    14.96997      0.04792     -0.88776      0.33185     -0.90695
    14.98499      0.05305     -0.88229      0.35621     -0.95188
    15.00000      0.05902     -0.87649      0.36721     -1.00452
# 
# 07/24/2018 at 09:14 YAMBO @ NewLaptop [start]
# 07/24/2018 at 09:14                   [end]
#
# .-Input file : yambo.in
# | optics                         # [R OPT] Optics
# | bse                            # [R BSE] Bethe Salpeter Equation.
# | bsk                            # [R BSK] Bethe Salpeter Equation kernel
# | bss                            # [R BSS] Bethe Salpeter Equation solver
# | tddft                          # [R   K] Use TDDFT kernel
# | BoseTemp= 0.000000     eV      # Bosonic Temperature
# | FFTGvecs=  4945        RL      # [FFT] Plane-waves
# | NonPDirs= "XYZ"                # [X/BSS] Non periodic chartesian directions (X,Y,Z,XY...)
# | BSEmod= "retarded"             # [BSE] resonant/retarded/coupling
# | BSKmod= "ALDA"                 # [BSE] IP/Hartree/HF/ALDA/SEX/BSfxc
# | BSSmod= "d"                    # [BSS] (h)aydock/(d)iagonalization/(i)nversion/(t)ddft`
# | BSENGexx=  4067        RL      # [BSK] Exchange components
# | % BEnRange
# |   0.00000 | 15.00000 | eV      # [BSS] Energy range
# | %
# | % BDmRange
# |   0.10000 |  0.10000 | eV      # [BSS] Damping range
# | %
# | BEnSteps= 1000                 # [BSS] Energy steps
# | % BLongDir
# | 0.1000E-4 | 0.000    | 0.000    |        # [BSS] [cc] Electric Field
# | %
# | % BSEBands
# |    1 |  50 |                   # [BSK] Bands range
# | %
