#                                                           
#  ____  ____     _       ____    ____  ______      ___     
# |_  _||_  _|   / \     |_   \  /   _||_   _ \   ."   `.   
#   \ \  / /    / _ \      |   \/   |    | |_) | /  .-.  \  
#    \ \/ /    / ___ \     | |\  /| |    |  __". | |   | |  
#    _|  |_  _/ /   \ \_  _| |_\/_| |_  _| |__) |\  `-"  /  
#   |______||____| |____||_____||_____||_______/  `.___."   
#                                                           
#                                                           
#                                                           
#        Version 4.2.0 Revision 14319 Hash 8432f48          
#                   MPI+SLK+OpenMP Build                    
#                http://www.yambo-code.org                  
#
# Polarizability ( -<<X>> ) [volume @ Q(1) [q->0 direction]0.1000E-4  0.000     0.000   
#
#
# - Energies      are Teter 93(XC)
# - Wavefunctions are Teter 93(XC)
#
# - The Green`s function is Retarded -
# - Using the Length Gauge -
# - [r,Vnl] *is* included -
#
#   BSK|Identifier              :3730
#      |Dimension               :199
#      |Bands                   :1 - 200
#      |Exchange           [res]: yes
#      |Correlation        [res]: no
#      |Kernel`s coupling       : no
#      |Exchange           [cpl]: no
#      |Correlation        [cpl]: no
#      |W interaction is bare   : no
#      |ALDA kernel in R-space  : yes
#      |RL vectors    [exchange]:9045
#      |E/h energy range    [ev]:-1.000000 - -1.000000
#      |Coupling range     [o/o]: 100.0000 -  100.0000
#
#  E/ev[1]    ALPHA-Im[2]ALPHA-Re[3]ALPHAo-Im[4ALPHAo-Re[5]
#
   0.00000    0.00000   14.94912    0.00000   20.54934
 0.1502E-1  0.3848E-3   14.95     0.9184E-3   20.55   
 0.3003E-1  0.7697E-3   14.95     0.1837E-2   20.55   
 0.4505E-1  0.1155E-2   14.95     0.2755E-2   20.55   
 0.6006E-1  0.1539E-2   14.95     0.3674E-2   20.55   
 0.7508E-1  0.1924E-2   14.95     0.4593E-2   20.55   
 0.9009E-1  0.2309E-2   14.95     0.5512E-2   20.55   
 0.1051     0.2694E-2   14.95     0.6431E-2   20.55   
 0.1201     0.3080E-2   14.95     0.7351E-2   20.55   
 0.1351     0.3465E-2   14.95     0.8270E-2   20.55   
 0.1502     0.3850E-2   14.95     0.9191E-2   20.56   
 0.1652     0.4235E-2   14.95     0.1011E-1   20.56   
 0.1802     0.4621E-2   14.95     0.1103E-1   20.56   
 0.1952     0.5006E-2   14.95     0.1195E-1   20.56   
 0.2102     0.5392E-2   14.95     0.1288E-1   20.56   
 0.2252     0.5778E-2   14.96     0.1380E-1   20.56   
 0.2402     0.6164E-2   14.96     0.1472E-1   20.57   
 0.2553     0.6550E-2   14.96     0.1564E-1   20.57   
 0.2703     0.6937E-2   14.96     0.1657E-1   20.57   
 0.2853     0.7323E-2   14.96     0.1749E-1   20.57   
 0.3003     0.7710E-2   14.96     0.1842E-1   20.58   
 0.3153     0.8097E-2   14.96     0.1935E-1   20.58   
 0.3303     0.8484E-2   14.96     0.2027E-1   20.58   
 0.3453     0.8871E-2   14.96     0.2120E-1   20.59   
 0.3604     0.9259E-2   14.97     0.2213E-1   20.59   
 0.3754     0.9647E-2   14.97     0.2306E-1   20.59   
 0.3904     0.1003E-1   14.97     0.2399E-1   20.60   
 0.4054     0.1042E-1   14.97     0.2492E-1   20.60   
 0.4204     0.1081E-1   14.97     0.2585E-1   20.60   
 0.4354     0.1120E-1   14.97     0.2679E-1   20.61   
 0.4505     0.1159E-1   14.98     0.2772E-1   20.61   
 0.4655     0.1198E-1   14.98     0.2866E-1   20.62   
 0.4805     0.1237E-1   14.98     0.2960E-1   20.62   
 0.4955     0.1276E-1   14.98     0.3053E-1   20.62   
 0.5105     0.1315E-1   14.98     0.3147E-1   20.63   
 0.5255     0.1354E-1   14.98     0.3241E-1   20.63   
 0.5405     0.1393E-1   14.99     0.3336E-1   20.64   
 0.5556     0.1432E-1   14.99     0.3430E-1   20.64   
 0.5706     0.1471E-1   14.99     0.3525E-1   20.65   
 0.5856     0.1511E-1   14.99     0.3619E-1   20.65   
 0.6006     0.1550E-1   15.00     0.3714E-1   20.66   
 0.6156     0.1589E-1   15.00     0.3809E-1   20.67   
 0.6306     0.1629E-1   15.00     0.3904E-1   20.67   
 0.6456     0.1668E-1   15.00     0.3999E-1   20.68   
 0.6607     0.1707E-1   15.01     0.4095E-1   20.68   
 0.6757     0.1747E-1   15.01     0.4190E-1   20.69   
 0.6907     0.1786E-1   15.01     0.4286E-1   20.70   
 0.7057     0.1826E-1   15.01     0.4382E-1   20.70   
 0.7207     0.1866E-1   15.02     0.4478E-1   20.71   
 0.7357     0.1905E-1   15.02     0.4575E-1   20.72   
 0.7508     0.1945E-1   15.02     0.4671E-1   20.72   
 0.7658     0.1985E-1   15.02     0.4768E-1   20.73   
 0.7808     0.2024E-1   15.03     0.4865E-1   20.74   
 0.7958     0.2064E-1   15.03     0.4962E-1   20.74   
   0.81081    0.02104   15.03390    0.05059   20.75226
   0.82583    0.02144   15.03709    0.05157   20.76004
   0.84084    0.02184   15.04027    0.05255   20.76775
   0.85586    0.02224   15.04361    0.05353   20.77575
   0.87087    0.02265   15.04694    0.05451   20.78383
   0.88589    0.02305   15.05043    0.05549   20.79213
   0.90090    0.02345   15.05391    0.05648   20.80043
   0.91592    0.02385   15.05747    0.05747   20.80903
   0.93093    0.02426   15.06110    0.05846   20.81777
   0.94595    0.02466   15.06473    0.05946   20.82667
   0.96096    0.02507   15.06851    0.06045   20.83556
   0.97598    0.02547   15.07229    0.06145   20.84475
   0.99099    0.02588   15.07615    0.06245   20.85401
   1.00601    0.02629   15.08007    0.06346   20.86350
   1.02102    0.02669   15.08400    0.06447   20.87306
   1.03604    0.02710   15.08800    0.06548   20.88284
   1.05105    0.02751   15.09208    0.06649   20.89270
   1.06607    0.02792   15.09630    0.06750   20.90278
   1.08108    0.02833   15.10045    0.06852   20.91293
   1.09610    0.02874   15.10483    0.06955   20.92338
   1.11111    0.02916   15.10913    0.07057   20.93383
   1.12613    0.02957   15.11350    0.07160   20.94458
   1.14114    0.02998   15.11794    0.07263   20.95533
   1.15616    0.03040   15.12261    0.07366   20.96637
   1.17117    0.03081   15.12706    0.07470   20.97741
   1.18619    0.03123   15.13188    0.07574   20.98867
   1.20120    0.03165   15.13647    0.07678   21.00016
   1.21622    0.03207   15.14122    0.07783   21.01180
   1.23123    0.03248   15.14618    0.07888   21.02351
   1.24625    0.03290   15.15107    0.07993   21.03544
   1.26126    0.03333   15.15604    0.08099   21.04760
   1.27628    0.03375   15.16108    0.08205   21.05975
   1.29129    0.03417   15.16612    0.08312   21.07205
   1.30631    0.03459   15.17131    0.08419   21.08465
   1.32132    0.03502   15.17657    0.08526   21.09740
   1.33634    0.03544   15.18190    0.08633   21.11029
   1.35135    0.03587   15.18724    0.08741   21.12334
   1.36637    0.03630   15.19258    0.08850   21.13653
   1.38138    0.03672   15.19806    0.08958   21.14987
   1.39640    0.03715   15.20362    0.09067   21.16343
   1.41141    0.03758   15.20925    0.09177   21.17707
   1.42643    0.03801   15.21488    0.09287   21.19093
   1.44144    0.03845   15.22066    0.09397   21.20501
   1.45646    0.03888   15.22644    0.09508   21.21916
   1.47147    0.03931   15.23237    0.09619   21.23347
   1.48649    0.03975   15.23830    0.09731   21.24800
   1.50150    0.04019   15.24423    0.09843   21.26274
   1.51652    0.04062   15.25031    0.09956   21.27757
   1.53153    0.04106   15.25639    0.10069   21.29261
   1.54655    0.04150   15.26261    0.10182   21.30780
   1.56156    0.04194   15.26898    0.10296   21.32314
   1.57658    0.04239   15.27514    0.10410   21.33863
   1.59159    0.04283   15.28166    0.10525   21.35435
   1.60661    0.04327   15.28803    0.10640   21.37021
   1.62162    0.04372   15.29455    0.10756   21.38629
   1.63664    0.04417   15.30122    0.10873   21.40259
   1.65165    0.04462   15.30782    0.10989   21.41890
   1.66667    0.04506   15.31464    0.11107   21.43550
   1.68168    0.04552   15.32146    0.11225   21.45225
   1.69670    0.04597   15.32827    0.11343   21.46915
   1.71171    0.04642   15.33517    0.11462   21.48634
   1.72673    0.04688   15.34213    0.11581   21.50353
   1.74174    0.04733   15.34917    0.11701   21.52095
   1.75676    0.04779   15.35644    0.11822   21.53874
   1.77177    0.04825   15.36363    0.11943   21.55645
   1.78679    0.04871   15.37089    0.12065   21.57453
   1.80180    0.04917   15.37830    0.12187   21.59269
   1.81682    0.04963   15.38564    0.12310   21.61115
   1.83183    0.05010   15.39312    0.12433   21.62960
   1.84685    0.05056   15.40068    0.12557   21.64835
   1.86186    0.05103   15.40832    0.12682   21.66740
   1.87688    0.05150   15.41602    0.12807   21.68644
   1.89189    0.05197   15.42381    0.12933   21.70571
   1.90691    0.05244   15.43159    0.13059   21.72535
   1.92192    0.05291   15.43959    0.13186   21.74492
   1.93694    0.05339   15.44752    0.13314   21.76485
   1.95195    0.05386   15.45545    0.13442   21.78486
   1.96697    0.05434   15.46368    0.13571   21.80517
   1.98198    0.05482   15.47183    0.13701   21.82563
   1.99700    0.05530   15.48006    0.13831   21.84623
   2.01201    0.05578   15.48843    0.13962   21.86713
   2.02703    0.05627   15.49681    0.14094   21.88818
   2.04204    0.05675   15.50533    0.14226   21.90945
   2.05706    0.05724   15.51385    0.14359   21.93094
   2.07207    0.05773   15.52252    0.14493   21.95251
   2.08709    0.05822   15.53120    0.14628   21.97444
   2.10210    0.05871   15.54001    0.14763   21.99645
   2.11712    0.05921   15.54883    0.14899   22.01861
   2.13213    0.05970   15.55780    0.15036   22.04107
   2.14715    0.06020   15.56677    0.15173   22.06382
   2.16216    0.06070   15.57588    0.15311   22.08672
   2.17718    0.06120   15.58500    0.15450   22.10970
   2.19219    0.06170   15.59426    0.15590   22.13304
   2.20721    0.06221   15.60345    0.15731   22.15646
   2.22222    0.06272   15.61287    0.15872   22.18018
   2.23724    0.06322   15.62228    0.16015   22.20427
   2.25225    0.06374   15.63184    0.16158   22.22828
   2.26727    0.06425   15.64147    0.16302   22.25266
   2.28228    0.06476   15.65118    0.16446   22.27712
   2.29730    0.06528   15.66089    0.16592   22.30202
   2.31231    0.06580   15.67067    0.16739   22.32707
   2.32733    0.06632   15.68068    0.16886   22.35219
   2.34234    0.06684   15.69061    0.17034   22.37761
   2.35736    0.06736   15.70076    0.17183   22.40333
   2.37237    0.06789   15.71084    0.17333   22.42927
   2.38739    0.06842   15.72115    0.17484   22.45536
   2.40240    0.06895   15.73137    0.17636   22.48167
   2.41742    0.06948   15.74175    0.17789   22.50827
   2.43243    0.07002   15.75220    0.17943   22.53510
   2.44745    0.07056   15.76272    0.18098   22.56215
   2.46246    0.07110   15.77339    0.18253   22.58943
   2.47748    0.07164   15.78414    0.18410   22.61685
   2.49249    0.07218   15.79496    0.18568   22.64457
   2.50751    0.07273   15.80578    0.18727   22.67258
   2.52252    0.07328   15.81675    0.18886   22.70074
   2.53754    0.07383   15.82772    0.19047   22.72928
   2.55255    0.07438   15.83883    0.19209   22.75803
   2.56757    0.07493   15.85017    0.19372   22.78686
   2.58258    0.07549   15.86144    0.19536   22.81599
   2.59760    0.07605   15.87285    0.19701   22.84556
   2.61261    0.07662   15.88426    0.19867   22.87513
   2.62763    0.07718   15.89583    0.20035   22.90515
   2.64264    0.07775   15.90732    0.20203   22.93524
   2.65766    0.07832   15.91902    0.20373   22.96569
   2.67267    0.07889   15.93088    0.20544   22.99638
   2.68769    0.07947   15.94274    0.20715   23.02736
   2.70270    0.08004   15.95475    0.20889   23.05863
   2.71772    0.08062   15.96683    0.21063   23.09006
   2.73273    0.08121   15.97898    0.21238   23.12178
   2.74775    0.08179   15.99114    0.21415   23.15372
   2.76276    0.08238   16.00351    0.21593   23.18596
   2.77778    0.08297   16.01596    0.21772   23.21857
   2.79279    0.08357   16.02841    0.21953   23.25133
   2.80781    0.08416   16.04094    0.22135   23.28445
   2.82282    0.08476   16.05369    0.22318   23.31773
   2.83784    0.08536   16.06636    0.22503   23.35138
   2.85285    0.08597   16.07926    0.22688   23.38524
   2.86787    0.08658   16.09222    0.22875   23.41949
   2.88288    0.08719   16.10519    0.23064   23.45387
   2.89790    0.08780   16.11839    0.23254   23.48871
   2.91291    0.08842   16.13165    0.23445   23.52361
   2.92793    0.08904   16.14492    0.23638   23.55904
   2.94294    0.08966   16.15833    0.23832   23.59469
   2.95796    0.09028   16.17197    0.24028   23.63048
   2.97297    0.09091   16.18553    0.24225   23.66672
   2.98799    0.09154   16.19909    0.24424   23.70326
   3.00300    0.09218   16.21295    0.24624   23.74002
   3.01802    0.09282   16.22681    0.24826   23.77708
   3.03303    0.09346   16.24082    0.25029   23.81443
   3.04805    0.09410   16.25483    0.25234   23.85208
   3.06306    0.09475   16.26913    0.25440   23.89017
   3.07808    0.09540   16.28329    0.25649   23.92856
   3.09309    0.09606   16.29766    0.25858   23.96717
   3.10811    0.09671   16.31212    0.26070   24.00608
   3.12312    0.09737   16.32672    0.26283   24.04529
   3.13814    0.09804   16.34146    0.26498   24.08494
   3.15315    0.09871   16.35614    0.26714   24.12481
   3.16817    0.09938   16.37104    0.26932   24.16505
   3.18318    0.10005   16.38586    0.27152   24.20567
   3.19820    0.10073   16.40105    0.27374   24.24650
   3.21321    0.10141   16.41617    0.27598   24.28771
   3.22823    0.10210   16.43151    0.27823   24.32929
   3.24324    0.10279   16.44678    0.28051   24.37123
   3.25826    0.10348   16.46227    0.28280   24.41355
   3.27327    0.10418   16.47783    0.28511   24.45609
   3.28829    0.10488   16.49354    0.28744   24.49900
   3.30330    0.10559   16.50940    0.28979   24.54229
   3.31832    0.10629   16.52534    0.29216   24.58587
   3.33333    0.10701   16.54135    0.29455   24.62989
   3.34835    0.10772   16.55735    0.29696   24.67443
   3.36336    0.10844   16.57366    0.29939   24.71919
   3.37838    0.10917   16.58996    0.30185   24.76433
   3.39339    0.10990   16.60642    0.30432   24.80976
   3.40841    0.11063   16.62287    0.30682   24.85556
   3.42342    0.11137   16.63962    0.30933   24.90166
   3.43844    0.11211   16.65629    0.31187   24.94835
   3.45345    0.11285   16.67319    0.31443   24.99533
   3.46847    0.11360   16.69024    0.31702   25.04262
   3.48348    0.11435   16.70728    0.31962   25.09042
   3.49850    0.11511   16.72455    0.32226   25.13852
   3.51351    0.11588   16.74189    0.32491   25.18699
   3.52853    0.11664   16.75931    0.32759   25.23598
   3.54354    0.11741   16.77695    0.33029   25.28534
   3.55856    0.11819   16.79451    0.33302   25.33514
   3.57357    0.11897   16.81230    0.33577   25.38516
   3.58859    0.11976   16.83031    0.33855   25.43586
   3.60360    0.12055   16.84832    0.34135   25.48670
   3.61862    0.12134   16.86640    0.34418   25.53821
   3.63363    0.12214   16.88471    0.34704   25.58994
   3.64865    0.12295   16.90316    0.34992   25.64226
   3.66366    0.12375   16.92161    0.35283   25.69488
   3.67868    0.12457   16.94022    0.35576   25.74809
   3.69369    0.12539   16.95897    0.35873   25.80168
   3.70871    0.12621   16.97787    0.36172   25.85563
   3.72372    0.12704   16.99691    0.36474   25.91025
   3.73874    0.12788   17.01604    0.36780   25.96509
   3.75375    0.12872   17.03523    0.37088   26.02053
   3.76877    0.12956   17.05457    0.37399   26.07634
   3.78378    0.13041   17.07414    0.37713   26.13259
   3.79880    0.13127   17.09378    0.38030   26.18943
   3.81381    0.13213   17.11349    0.38350   26.24664
   3.82883    0.13300   17.13343    0.38674   26.30445
   3.84384    0.13387   17.15344    0.39000   26.36271
   3.85886    0.13475   17.17367    0.39330   26.42148
   3.87387    0.13563   17.19383    0.39663   26.48069
   3.88889    0.13652   17.21428    0.40000   26.54043
   3.90390    0.13741   17.23489    0.40340   26.60068
   3.91892    0.13831   17.25549    0.40683   26.66138
   3.93393    0.13922   17.27639    0.41030   26.72274
   3.94895    0.14013   17.29729    0.41381   26.78441
   3.96396    0.14105   17.31834    0.41735   26.84673
   3.97898    0.14198   17.33968    0.42093   26.90958
   3.99399    0.14291   17.36103    0.42454   26.97302
   4.00901    0.14385   17.38252    0.42819   27.03683
   4.02402    0.14479   17.40423    0.43188   27.10138
   4.03904    0.14574   17.42602    0.43561   27.16645
   4.05405    0.14670   17.44789    0.43938   27.23197
   4.06907    0.14766   17.46997    0.44319   27.29823
   4.08408    0.14863   17.49228    0.44704   27.36500
   4.09910    0.14961   17.51466    0.45093   27.43229
   4.11411    0.15059   17.53712    0.45487   27.50026
   4.12913    0.15158   17.55987    0.45884   27.56866
   4.14414    0.15258   17.58262    0.46286   27.63773
   4.15916    0.15358   17.60552    0.46693   27.70740
   4.17417    0.15459   17.62872    0.47103   27.77781
   4.18919    0.15561   17.65192    0.47519   27.84866
   4.20420    0.15663   17.67541    0.47939   27.92018
   4.21922    0.15767   17.69905    0.48363   27.99244
   4.23423    0.15871   17.72277    0.48792   28.06521
   4.24925    0.15975   17.74656    0.49227   28.13873
   4.26426    0.16081   17.77057    0.49666   28.21292
   4.27928    0.16187   17.79481    0.50110   28.28762
   4.29429    0.16294   17.81926    0.50559   28.36307
   4.30931    0.16402   17.84380    0.51013   28.43941
   4.32432    0.16510   17.86855    0.51472   28.51626
   4.33934    0.16620   17.89330    0.51937   28.59378
   4.35435    0.16730   17.91835    0.52407   28.67197
   4.36937    0.16841   17.94355    0.52883   28.75090
   4.38438    0.16953   17.96890    0.53364   28.83057
   4.39940    0.17065   17.99439    0.53851   28.91091
   4.41441    0.17179   18.02011    0.54344   28.99191
   4.42943    0.17293   18.04590    0.54842   29.07381
   4.44444    0.17409   18.07199    0.55347   29.15637
   4.45946    0.17525   18.09815    0.55857   29.23975
   4.47447    0.17642   18.12446    0.56374   29.32379
   4.48949    0.17760   18.15114    0.56897   29.40872
   4.50450    0.17878   18.17789    0.57426   29.49439
   4.51952    0.17998   18.20480    0.57962   29.58096
   4.53453    0.18119   18.23185    0.58504   29.66826
   4.54955    0.18240   18.25905    0.59053   29.75624
   4.56456    0.18363   18.28654    0.59609   29.84517
   4.57958    0.18486   18.31419    0.60171   29.93499
   4.59459    0.18611   18.34205    0.60741   30.02563
   4.60961    0.18736   18.37014    0.61318   30.11709
   4.62462    0.18863   18.39838    0.61902   30.20936
   4.63964    0.18990   18.42669    0.62494   30.30259
   4.65465    0.19119   18.45530    0.63093   30.39671
   4.66967    0.19248   18.48405    0.63700   30.49165
   4.68468    0.19379   18.51303    0.64315   30.58770
   4.69970    0.19510   18.54223    0.64937   30.68442
   4.71472    0.19643   18.57150    0.65568   30.78239
   4.72973    0.19777   18.60115    0.66207   30.88111
   4.74474    0.19911   18.63094    0.66854   30.98087
   4.75976    0.20047   18.66088    0.67510   31.08151
   4.77478    0.20184   18.69105    0.68175   31.18319
   4.78979    0.20323   18.72136    0.68849   31.28591
   4.80480    0.20462   18.75204    0.69531   31.38960
   4.81982    0.20603   18.78280    0.70223   31.49424
   4.83483    0.20744   18.81385    0.70924   31.59992
   4.84985    0.20887   18.84505    0.71635   31.70680
   4.86487    0.21031   18.87655    0.72355   31.81463
   4.87988    0.21177   18.90812    0.73085   31.92365
   4.89490    0.21323   18.94006    0.73826   32.03371
   4.90991    0.21471   18.97208    0.74576   32.14480
   4.92492    0.21620   19.00447    0.75338   32.25723
   4.93994    0.21771   19.03708    0.76109   32.37054
   4.95496    0.21923   19.06983    0.76892   32.48512
   4.96997    0.22076   19.10274    0.77686   32.60111
   4.98499    0.22230   19.13609    0.78491   32.71820
   5.00000    0.22386   19.16944    0.79308   32.83634
   5.01502    0.22543   19.20324    0.80136   32.95574
   5.03003    0.22701   19.23711    0.80977   33.07639
   5.04505    0.22861   19.27127    0.81829   33.19831
   5.06006    0.23023   19.30566    0.82694   33.32155
   5.07508    0.23186   19.34042    0.83572   33.44606
   5.09009    0.23350   19.37533    0.84463   33.57198
   5.10511    0.23516   19.41053    0.85367   33.69908
   5.12012    0.23683   19.44581    0.86285   33.82774
   5.13514    0.23852   19.48145    0.87216   33.95758
   5.15015    0.24022   19.51732    0.88162   34.08913
   5.16517    0.24194   19.55356    0.89122   34.22187
   5.18018    0.24368   19.59003    0.90096   34.35601
   5.19520    0.24543   19.62664    0.91086   34.49171
   5.21021    0.24720   19.66355    0.92090   34.62882
   5.22522    0.24898   19.70083    0.93111   34.76749
   5.24024    0.25078   19.73833    0.94147   34.90786
   5.25526    0.25260   19.77605    0.95200   35.04948
   5.27027    0.25443   19.81414    0.96269   35.19281
   5.28529    0.25629   19.85246    0.97355   35.33793
   5.30030    0.25816   19.89092    0.98459   35.48459
   5.31532    0.26005   19.92983    0.99580   35.63282
   5.33033    0.26195   19.96896    1.00720   35.78275
   5.34535    0.26388   20.00847    1.01877   35.93438
   5.36036    0.26582   20.04819    1.03054   36.08787
   5.37538    0.26779   20.08806    1.04251   36.24298
   5.39039    0.26977   20.12838    1.05467   36.40010
   5.40541    0.27177   20.16914    1.06703   36.55893
   5.42042    0.27379   20.20998    1.07960   36.71960
   5.43544    0.27584   20.25118    1.09238   36.88220
   5.45045    0.27790   20.29276    1.10537   37.04659
   5.46547    0.27998   20.33449    1.11859   37.21304
   5.48048    0.28209   20.37666    1.13204   37.38165
   5.49550    0.28421   20.41912    1.14571   37.55218
   5.51051    0.28636   20.46196    1.15963   37.72457
   5.52553    0.28853   20.50502    1.17378   37.89917
   5.54054    0.29072   20.54845    1.18819   38.07593
   5.55556    0.29293   20.59232    1.20285   38.25506
   5.57057    0.29517   20.63634    1.21776   38.43604
   5.58559    0.29743   20.68089    1.23295   38.61947
   5.60060    0.29972   20.72580    1.24841   38.80512
   5.61562    0.30202   20.77094    1.26415   38.99314
   5.63063    0.30436   20.81636    1.28018   39.18354
   5.64565    0.30671   20.86217    1.29650   39.37631
   5.66066    0.30910   20.90834    1.31312   39.57145
   5.67568    0.31150   20.95488    1.33005   39.76925
   5.69069    0.31394   21.00172    1.34729   39.96950
   5.70571    0.31640   21.04900    1.36486   40.17242
   5.72072    0.31889   21.09658    1.38277   40.37786
   5.73574    0.32140   21.14453    1.40101   40.58619
   5.75075    0.32394   21.19300    1.41961   40.79718
   5.76577    0.32651   21.24177    1.43856   41.01078
   5.78078    0.32911   21.29090    1.45788   41.22756
   5.79580    0.33173   21.34049    1.47759   41.44693
   5.81081    0.33439   21.39044    1.49767   41.66949
   5.82583    0.33708   21.44084    1.51816   41.89501
   5.84084    0.33979   21.49153    1.53906   42.12357
   5.85586    0.34254   21.54274    1.56038   42.35547
   5.87087    0.34532   21.59425    1.58213   42.59026
   5.88589    0.34813   21.64620    1.60432   42.82853
   5.90090    0.35097   21.69860    1.62697   43.06999
   5.91592    0.35384   21.75151    1.65009   43.31501
   5.93093    0.35675   21.80473    1.67369   43.56350
   5.94595    0.35969   21.85838    1.69778   43.81534
   5.96096    0.36267   21.91263    1.72238   44.07110
   5.97598    0.36568   21.96725    1.74751   44.33027
   5.99099    0.36873   22.02232    1.77318   44.59351
   6.00601    0.37181   22.07783    1.79940   44.86047
   6.02102    0.37493   22.13371    1.82619   45.13128
   6.03604    0.37809   22.19019    1.85357   45.40630
   6.05105    0.38128   22.24710    1.88156   45.68526
   6.06607    0.38452   22.30461    1.91016   45.96852
   6.08108    0.38779   22.36235    1.93941   46.25615
   6.09610    0.39110   22.42082    1.96932   46.54808
   6.11111    0.39446   22.47967    1.99992   46.84438
   6.12613    0.39785   22.53910    2.03121   47.14542
   6.14114    0.40129   22.59899    2.06323   47.45121
   6.15616    0.40477   22.65946    2.09599   47.76181
   6.17117    0.40830   22.72031    2.12953   48.07738
   6.18619    0.41187   22.78175    2.16386   48.39785
   6.20120    0.41548   22.84385    2.19901   48.72350
   6.21622    0.41914   22.90641    2.23500   49.05448
   6.23123    0.42285   22.96940    2.27187   49.39088
   6.24625    0.42661   23.03306    2.30964   49.73276
   6.26126    0.43041   23.09732    2.34835   50.08027
   6.27628    0.43426   23.16217    2.38802   50.43364
   6.29129    0.43817   23.22753    2.42868   50.79293
   6.30631    0.44212   23.29350    2.47038   51.15853
   6.32132    0.44613   23.36012    2.51314   51.53020
   6.33634    0.45019   23.42719    2.55699   51.90825
   6.35135    0.45431   23.49493    2.60200   52.29304
   6.36637    0.45848   23.56341    2.64817   52.68443
   6.38138    0.46270   23.63248    2.69558   53.08278
   6.39640    0.46699   23.70208    2.74424   53.48840
   6.41141    0.47133   23.77241    2.79422   53.90105
   6.42643    0.47573   23.84341    2.84555   54.32150
   6.44144    0.48020   23.91500    2.89830   54.74957
   6.45646    0.48472   23.98726    2.95250   55.18542
   6.47147    0.48931   24.06026    3.00822   55.62936
   6.48649    0.49396   24.13393    3.06551   56.08189
   6.50150    0.49868   24.20834    3.12443   56.54286
   6.51652    0.50347   24.28341    3.18505   57.01251
   6.53153    0.50832   24.35923    3.24742   57.49150
   6.54655    0.51325   24.43586    3.31163   57.97982
   6.56156    0.51824   24.51308    3.37773   58.47771
   6.57658    0.52331   24.59113    3.44582   58.98546
   6.59159    0.52845   24.66991    3.51596   59.50335
   6.60661    0.53367   24.74950    3.58824   60.03170
   6.62162    0.53897   24.82992    3.66275   60.57109
   6.63664    0.54434   24.91107    3.73958   61.12130
   6.65165    0.54980   24.99289    3.81883   61.68322
   6.66667    0.55533   25.07575    3.90060   62.25699
   6.68168    0.56095   25.15942    3.98500   62.84307
   6.69670    0.56666   25.24376    4.07215   63.44153
   6.71171    0.57245   25.32914    4.16216   64.05325
   6.72673    0.57834   25.41533    4.25516   64.67817
   6.74174    0.58431   25.50241    4.35129   65.31724
   6.75676    0.59038   25.59038    4.45069   65.97061
   6.77177    0.59654   25.67924    4.55351   66.63866
   6.78679    0.60280   25.76907    4.65990   67.32212
   6.80180    0.60916   25.85978    4.77003   68.02145
   6.81682    0.61563   25.95160    4.88409   68.73730
   6.83183    0.62219   26.04425    5.00226   69.46989
   6.84685    0.62887   26.13785    5.12473   70.22036
   6.86186    0.63565   26.23256    5.25173   70.98891
   6.87688    0.64254   26.32832    5.38348   71.77634
   6.89189    0.64955   26.42503    5.52021   72.58344
   6.90691    0.65667   26.52286    5.66218   73.41082
   6.92192    0.66392   26.62180    5.80967   74.25933
   6.93694    0.67128   26.72171    5.96296   75.12971
   6.95195    0.67878   26.82287    6.12236   76.02291
   6.96697    0.68639   26.92507    6.28820   76.93968
   6.98198    0.69414   27.02831    6.46082   77.88113
   6.99700    0.70203   27.13288    6.64062   78.84799
   7.01201    0.71005   27.23849    6.82798   79.84170
   7.02703    0.71821   27.34544    7.02334   80.86296
   7.04204    0.72652   27.45357    7.22716   81.91320
   7.05706    0.73498   27.56303    7.43992   82.99346
   7.07207    0.74358   27.67368    7.66217   84.10522
   7.08709    0.75235   27.78566    7.89448   85.24960
   7.10210    0.76127   27.89883    8.13745   86.42835
   7.11712    0.77035   28.01341    8.39175   87.64297
   7.13213    0.77961   28.12954    8.65810   88.89473
   7.14715    0.78903   28.24686    8.93726   90.18569
   7.16216    0.79863   28.36567    9.23007   91.51772
   7.17718    0.80841   28.48595    9.53742   92.89257
   7.19219    0.81838   28.60764    9.86030   94.31242
   7.20721    0.82854   28.73082   10.19977   95.77954
   7.22222    0.83889   28.85562   10.55697   97.29618
   7.23724    0.84945   28.98191   10.93317   98.86491
    7.2523     0.8602    29.1097    11.3297   100.4883
    7.2673     0.8712    29.2392    11.7481   102.1691
    7.2823     0.8824    29.3705    12.1900   103.9109
    7.2973     0.8938    29.5033    12.6571   105.7168
    7.3123     0.9054    29.6379    13.1514   107.5899
    7.3273     0.9173    29.7742    13.6751   109.5341
    7.3423     0.9295    29.9121    14.2305   111.5537
    7.3574     0.9418    30.0522    14.8201   113.6531
    7.3724     0.9545    30.1939    15.4470   115.8368
    7.3874     0.9674    30.3375    16.1141   118.1096
    7.4024     0.9805    30.4832    16.8251   120.4778
    7.4174     0.9940    30.6308    17.5839   122.9462
    7.4324     1.0077    30.7805    18.3947   125.5221
    7.4474     1.0218    30.9321    19.2624   128.2118
    7.4625     1.0361    31.0859    20.1925   131.0233
    7.4775     1.0508    31.2418    21.1910   133.9644
    7.4925     1.0658    31.4000    22.2646   137.0439
    7.5075     1.0811    31.5604    23.4211   140.2715
    7.5225     1.0968    31.7231    24.6691   143.6580
    7.5375     1.1128    31.8882    26.0184   147.2147
    7.5526     1.1292    32.0556    27.4801   150.9538
    7.5676     1.1460    32.2257    29.0670   154.8896
    7.5826     1.1632    32.3981    30.7934   159.0365
    7.5976     1.1808    32.5731    32.6761   163.4113
    7.6126     1.1988    32.7507    34.7340   168.0321
    7.6276     1.2172    32.9313    36.9893   172.9184
    7.6426     1.2361    33.1145    39.4677   178.0921
    7.6577     1.2555    33.3004    42.1987   183.5773
    7.6727     1.2753    33.4894    45.2173   189.3997
    7.6877     1.2956    33.6813    48.5642   195.5884
    7.7027     1.3165    33.8761    52.2876   202.1745
    7.7177     1.3379    34.0743    56.4445   209.1922
    7.7327     1.3598    34.2755    61.1027   216.6787
    7.7477     1.3823    34.4801    66.3432   224.6734
    7.7628     1.4054    34.6880    72.2636   233.2184
    7.7778     1.4291    34.8993    78.9815   242.3576
    7.7928     1.4534    35.1142    86.6398   252.1349
    7.8078     1.4784    35.3329    95.4128   262.5929
    7.8228     1.5041    35.5552   105.5146   273.7690
    7.8378     1.5304    35.7815   117.2070   285.6874
    7.8529     1.5576    36.0115   130.8149   298.3531
    7.8679     1.5855    36.2457   146.7395   311.7350
    7.8829     1.6141    36.4842   165.4768   325.7430
    7.8979     1.6437    36.7269   187.6370   340.1919
    7.9129     1.6740    36.9740   213.9634   354.7457
    7.9279     1.7053    37.2256   245.3433   368.8339
    7.9429     1.7375    37.4820   282.7955   381.5272
    7.9580     1.7707    37.7431   327.4057   391.3628
    7.9730     1.8049    38.0091   380.1559   396.1197
    7.9880     1.8401    38.2804   441.5624   392.5811
    8.0030     1.8764    38.5570   511.0173   376.4095
    8.0180     1.9139    38.8389   585.7923   342.4206
    8.0330     1.9526    39.1264   659.9275   285.7079
    8.0480     1.9926    39.4197   723.8146   203.9560
    8.0631     2.0338    39.7189   765.7873   100.3708
    8.0781     2.0764    40.0245   776.3079   -14.8969
    8.0931     2.1205    40.3362   752.7386  -127.2121
    8.1081     2.1660    40.6546   700.8497  -223.1085
    8.1231     2.2131    40.9796   631.6250  -295.1052
    8.1381     2.2619    41.3119   556.2936  -342.4666
    8.1532     2.3123    41.6513   483.0886  -368.8637
    8.1682     2.3646    41.9982   416.5953  -379.5199
    8.1832     2.4188    42.3530   358.5780  -379.3639
    8.1982     2.4750    42.7157   309.1050  -372.2988
    8.2132     2.5332    43.0870   267.4192  -361.1270
    8.2282     2.5937    43.4667   232.4675  -347.7448
    8.2432     2.6565    43.8557   203.1774  -333.3823
    8.2583     2.7217    44.2536   178.5774  -318.8114
    8.2733     2.7896    44.6614   157.8369  -304.4984
    8.2883     2.8601    45.0794   140.2662  -290.7123
    8.3033     2.9335    45.5075   125.3022  -277.5960
    8.3183     3.0099    45.9468   112.4883  -265.2132
    8.3333     3.0895    46.3973   101.4550  -253.5786
    8.3483     3.1725    46.8594    91.9038  -242.6783
    8.3634     3.2591    47.3340    83.5918  -232.4812
    8.3784     3.3495    47.8212    76.3228  -222.9483
    8.3934     3.4439    48.3219    69.9352  -214.0365
    8.4084     3.5426    48.8364    64.2964  -205.7004
    8.4234     3.6459    49.3655    59.2974  -197.8981
    8.4384     3.7540    49.9096    54.8474  -190.5873
    8.4535     3.8672    50.4698    50.8709  -183.7300
    8.4685     3.9860    51.0465    47.3045  -177.2901
    8.4835     4.1106    51.6405    44.0949  -171.2344
    8.4985     4.2415    52.2528    41.1970  -165.5328
    8.5135     4.3791    52.8843    38.5724  -160.1575
    8.5285     4.5238    53.5358    36.1886  -155.0835
    8.5435     4.6763    54.2084    34.0173  -150.2876
    8.5586     4.8370    54.9030    32.0345  -145.7487
    8.5736     5.0066    55.6210    30.2193  -141.4478
    8.5886     5.1858    56.3637    28.5537  -137.3674
    8.6036     5.3752    57.1321    27.0219  -133.4918
    8.6186     5.5758    57.9278    25.6100  -129.8062
    8.6336     5.7885    58.7524    24.3063  -126.2977
    8.6486     6.0141    59.6073    23.1000  -122.9539
    8.6637     6.2538    60.4946    21.9818  -119.7640
    8.6787     6.5089    61.4162    20.9435  -116.7177
    8.6937     6.7807    62.3738    19.9778  -113.8054
    8.7087     7.0707    63.3699    19.0782  -111.0190
    8.7237     7.3806    64.4069    18.2388  -108.3502
    8.7387     7.7122    65.4874    17.4546  -105.7919
    8.7538     8.0677    66.6142    16.7208  -103.3373
    8.7688     8.4494    67.7904    16.0334  -100.9802
   8.78378    8.85994   69.01944   15.38864  -98.71506
   8.79880    9.30242   70.30499   14.78309  -96.53601
   8.81381    9.78020   71.65087   14.21377  -94.43893
   8.82883   10.29714   73.06160   13.67792  -92.41847
   8.84384   10.85766   74.54192   13.17305  -90.47066
   8.85886   11.46680   76.09702   12.69690  -88.59161
   8.87387   12.13033   77.73275   12.24742  -86.77764
   8.88889   12.85496   79.45527   11.82273  -85.02489
   8.90390   13.64832   81.27125   11.42117  -83.33067
   8.91892   14.51935   83.18853   11.04115  -81.69160
   8.93393   15.47844   85.21528   10.68126  -80.10501
   8.94895   16.53776   87.36060   10.34020  -78.56837
   8.96396   17.71157   89.63437   10.01678  -77.07871
   8.97898   19.01673   92.04740    9.70989  -75.63412
   8.99399   20.47318   94.61175    9.41856  -74.23221
   9.00901   22.10472   97.33960    9.14184  -72.87106
    9.0240    23.9398   100.2452     8.8789   -71.5484
    9.0390    26.0127   103.3426     8.6290   -70.2626
    9.0541    28.3648   106.6465     8.3913   -69.0119
    9.0691    31.0464   110.1723     8.1653   -67.7945
    9.0841    34.1189   113.9334     7.9503   -66.6090
    9.0991    37.6579   117.9419     7.7458   -65.4536
    9.1141    41.7560   122.2049     7.5512   -64.3272
    9.1291    46.5280   126.7219     7.3662   -63.2285
    9.1441    52.1156   131.4780     7.1902   -62.1556
    9.1592    58.6944   136.4372     7.0229   -61.1077
    9.1742    66.4787   141.5262     6.8639   -60.0836
    9.1892    75.7298   146.6160     6.7130   -59.0822
    9.2042    86.7569   151.4901     6.5698   -58.1023
    9.2192    99.9094   155.7985     6.4341   -57.1425
    9.2342   115.5495   158.9947     6.3057   -56.2023
    9.2492   133.9806   160.2581     6.1843   -55.2805
    9.2643   155.3049   158.4173     6.0699   -54.3760
    9.2793   179.1734   151.9325     5.9623   -53.4880
    9.2943   204.4292   139.0422     5.8613   -52.6156
    9.3093   228.7610   118.2388     5.7670   -51.7575
    9.3243   248.6917    89.1313     5.6794   -50.9132
    9.3393   260.3397    53.3842     5.5983   -50.0817
    9.3544   260.9757    14.9152     5.5239   -49.2620
    9.3694   250.4575   -21.2824     5.4563   -48.4533
    9.3844   231.3115   -51.1114     5.3956   -47.6546
    9.3994   207.3840   -72.6761     5.3421   -46.8652
    9.4144   182.2396   -86.2039     5.2959   -46.0838
    9.4294   158.3158   -93.1353     5.2573   -45.3097
    9.4444   136.8681   -95.2346     5.2269   -44.5419
    9.4595   118.3081   -94.0741     5.2051   -43.7795
    9.4745   102.5652   -90.8608     5.1924   -43.0213
   9.48949   89.34862  -86.44621    5.18968  -42.26624
   9.50451   78.29871  -81.39931    5.19773  -41.51311
   9.51952   69.06376  -76.08516    5.21762  -40.76087
   9.53453   61.33098  -70.73070    5.25060  -40.00819
   9.54955   54.83579  -65.47110    5.29819  -39.25387
   9.56456   49.35988  -60.38210    5.36221  -38.49630
   9.57958   44.72567  -55.50210    5.44487  -37.73427
   9.59459   40.78972  -50.84592    5.54884  -36.96603
   9.60961   37.43646  -46.41401    5.67737  -36.19022
   9.62462   34.57273  -42.19776    5.83440  -35.40537
   9.63964   32.12350  -38.18458    6.02479  -34.60985
   9.65465   30.02820  -34.35786    6.25450  -33.80232
   9.66967   28.23794  -30.70102    6.53087  -32.98190
   9.68469   26.71320  -27.19640    6.86302  -32.14814
   9.69970   25.42245  -23.82710    7.26217  -31.30162
   9.71472   24.34028  -20.57654    7.74226  -30.44474
   9.72973   23.44671  -17.42810    8.32046  -29.58266
   9.74475   22.72640  -14.36682    9.01765  -28.72444
   9.75976   22.16799  -11.37727    9.85879  -27.88594
   9.77478   21.76380   -8.44524   10.87252  -27.09338
   9.78979   21.50949   -5.55679   12.08932  -26.38783
   9.80480   21.40408   -2.69813   13.53668  -25.83169
   9.81982   21.44988    0.14363   15.22880  -25.51553
   9.83484   21.65274    2.98161   17.14802  -25.56177
   9.84985   22.02240    5.82864   19.21662  -26.11569
   9.86487   22.57294    8.69656   21.26580  -27.31468
   9.87988   23.32358   11.59687   23.02429  -29.22203
   9.89489   24.29961   14.54016   24.16412  -31.74511
   9.90991   25.53373   17.53452   24.41901  -34.59606
   9.92492   27.06762   20.58573   23.71799  -37.36238
   9.93994   28.95403   23.69407   22.22583  -39.66757
   9.95496   31.25941   26.85200   20.25207  -41.30338
   9.96997   34.06608   30.03890   18.11188  -42.25097
   9.98499   37.47582   33.21387   16.03516  -42.61457
  10.00000   41.61123   36.30502   14.14958  -42.54105
  10.01502   46.61488   39.19199   12.50392  -42.16812
  10.03003   52.64203   41.68253   11.09969  -41.60487
  10.04505   59.83945   43.48124    9.91546  -40.92970
  10.06006   68.29974   44.15447    8.92164  -40.19524
  10.07508   77.97522   43.10675    8.08814  -39.43560
  10.09009   88.54234   39.60532    7.38778  -38.67224
  10.10511   99.23816   32.91246    6.79732  -37.91778
   10.1201   108.7666    22.5883     6.2975   -37.1796
   10.1351   115.4583     8.9152     5.8726   -36.4613
   10.1502   117.8128    -6.8231     5.5100   -35.7647
   10.1652   115.2154   -22.5745     5.1993   -35.0895
   10.1802   108.2827   -36.2888     4.9324   -34.4355
  10.19520   98.51547  -46.68422    4.70253  -33.80114
  10.21021   87.58112  -53.48195    4.50437  -33.18512
  10.22523   76.77441  -57.12294    4.33358  -32.58584
  10.24024   66.85522  -58.34594    4.18663  -32.00184
  10.25526   58.14494  -57.88437    4.06069  -31.43132
  10.27027   50.68942  -56.33424    3.95345  -30.87296
  10.28529   44.39447  -54.12999    3.86311  -30.32512
  10.30030   39.11174  -51.56763    3.78820  -29.78647
  10.31532   34.68441  -48.84089    3.72761  -29.25538
  10.33033   30.96815  -46.07117    3.68051  -28.73052
  10.34535   27.83852  -43.33286    3.64632  -28.21070
  10.36036   25.19176  -40.66823    3.62470  -27.69428
  10.37538   22.94298  -38.10024    3.61553  -27.18024
  10.39039   21.02328  -35.63912    3.61889  -26.66723
  10.40541   19.37698  -33.28724    3.63510  -26.15364
  10.42042   17.95905  -31.04253    3.66471  -25.63856
  10.43544   16.73310  -28.89979    3.70851  -25.12021
  10.45045   15.66953  -26.85266    3.76755  -24.59728
  10.46547   14.74427  -24.89432    3.84322  -24.06826
  10.48048   13.93756  -23.01706    3.93728  -23.53154
  10.49550   13.23334  -21.21405    4.05189  -22.98578
  10.51051   12.61824  -19.47819    4.18977  -22.42905
  10.52553   12.08128  -17.80266    4.35423  -21.85987
  10.54054   11.61338  -16.18123    4.54940  -21.27645
  10.55556   11.20702  -14.60798    4.78034  -20.67718
  10.57057   10.85599  -13.07726    5.05330  -20.06042
  10.58559   10.55515  -11.58390    5.37603  -19.42528
  10.60060   10.30034  -10.12270    5.75811  -18.77086
  10.61562   10.08814   -8.68907    6.21146  -18.09793
  10.63063    9.91587   -7.27842    6.75082  -17.40838
  10.64565    9.78146   -5.88644    7.39440  -16.70669
  10.66066    9.68340   -4.50884    8.16449  -16.00233
  10.67568    9.62068   -3.14147    9.08791  -15.31056
  10.69069    9.59283   -1.78033   10.19582  -14.65749
  10.70571    9.59983   -0.42140   11.52234  -14.08386
  10.72072    9.64216    0.93945   13.10013  -13.65297
  10.73574    9.72080    2.30623   14.95092  -13.45746
  10.75075    9.83728    3.68323   17.06753  -13.62510
  10.76577    9.99371    5.07454   19.38446  -14.31523
  10.78078   10.19284    6.48460   21.74284  -15.69031
  10.79580   10.43819    7.91808   23.86740  -17.85424
  10.81081   10.73412    9.37965   25.39627  -20.75885
  10.82583   11.08601   10.87472   25.99414  -24.13882
  10.84084   11.50044   12.40818   25.50970  -27.55302
  10.85586   11.98543   13.98595   24.06019  -30.54761
  10.87087   12.55076   15.61376   21.96521  -32.82789
  10.88589   13.20836   17.29744   19.59138  -34.31903
  10.90090   13.97278   19.04323   17.22897  -35.11025
  10.91592   14.86185   20.85765   15.05183  -35.36105
  10.93093   15.89748   22.74558   13.13566  -35.23283
  10.94595   17.10665   24.71230   11.49359  -34.85857
  10.96096   18.52270   26.76076   10.10648  -34.33533
  10.97598   20.18692   28.89083    8.94239  -33.72984
  10.99099   22.15042   31.09715    7.96708  -33.08566
  11.00601   24.47650   33.36676    7.14877  -32.43036
  11.02102   27.24249   35.67210    6.46011  -31.78068
  11.03604   30.54243   37.96521    5.87818  -31.14628
  11.05105   34.48709   40.16590    5.38423  -30.53278
  11.06607   39.20089   42.14351    4.96306  -29.94211
  11.08108   44.81035   43.69587    4.60242  -29.37515
  11.09610   51.41672   44.52044    4.29242  -28.83146
  11.11111   59.04143   44.18827    4.02509  -28.31001
  11.12613   67.53283   42.14336    3.79398  -27.80916
  11.14114   76.43752   37.76570    3.59388  -27.32772
  11.15616   84.88547   30.55598    3.42057  -26.86378
  11.17117   91.61261   20.45381    3.27065  -26.41584
  11.18619   95.27075    8.15280    3.14133  -25.98229
  11.20120   94.99449   -4.88578    3.03043  -25.56177
  11.21622   90.86575  -16.90487    2.93618  -25.15253
  11.23123   83.86694  -26.54539    2.85723  -24.75321
  11.24625   75.36759  -33.24633    2.79256  -24.36264
  11.26126   66.58180  -37.16153    2.74148  -23.97933
  11.27628   58.30983  -38.82728    2.70357  -23.60210
  11.29129   50.94968  -38.86197    2.67872  -23.22976
  11.30631   44.61793  -37.80260    2.66709  -22.86127
  11.32132   39.27629  -36.05637    2.66916  -22.49530
  11.33634   34.81765  -33.90741    2.68574  -22.13097
  11.35135   31.11563  -31.54382    2.71801  -21.76708
  11.36637   28.04876  -29.08582    2.76763  -21.40274
  11.38138   25.51019  -26.60661    2.83675  -21.03707
  11.39640   23.41023  -24.14905    2.92819  -20.66948
  11.41141   21.67552  -21.73625    3.04554  -20.29965
  11.42643   20.24693  -19.37844    3.19338  -19.92776
  11.44144   19.07735  -17.07829    3.37741  -19.55482
  11.45646   18.12948  -14.83313    3.60476  -19.18308
  11.47147   17.37415  -12.63748    3.88409  -18.81696
  11.48649   16.78878  -10.48407    4.22570  -18.46345
  11.50150   16.35633   -8.36431    4.64122  -18.13469
  11.51652   16.06438   -6.26931    5.14253  -17.84965
  11.53153   15.90456   -4.18942    5.73930  -17.63635
  11.54655   15.87212   -2.11531    6.43374  -17.53512
  11.56156   15.96570   -0.03735    7.21209  -17.59796
  11.57658   16.18723    2.05469    8.03237  -17.88404
  11.59159   16.54202    4.16993    8.81328  -18.44106
  11.60661   17.03901    6.31859    9.43571  -19.27661
  11.62162   17.69120    8.50994    9.77113  -20.32767
  11.63664   18.51623   10.75295    9.73498  -21.45714
  11.65165   19.53728   13.05584    9.33178  -22.49827
  11.66667   20.78415   15.42536    8.65254  -23.31973
  11.68168   22.29481   17.86566    7.82683  -23.86579
  11.69670   24.11716   20.37606    6.97082  -24.14964
  11.71171   26.31126   22.94969    6.16175  -24.22108
  11.72673   28.95188   25.56793    5.43830  -24.13897
  11.74174   32.13104   28.19410    4.81215  -23.95473
  11.75676   35.95972   30.76409    4.27990  -23.70734
  11.77177   40.56741   33.17118    3.83139  -23.42423
  11.78679   46.09584   35.24462    3.45455  -23.12333
  11.80180   52.68131   36.72145    3.13767  -22.81666
  11.81682   60.41326   37.21497    2.87046  -22.51102
  11.83183   69.26093   36.19126    2.64419  -22.21071
  11.84685   78.95113   32.98724    2.45168  -21.91827
  11.86186   88.81892   26.92292    2.28711  -21.63457
  11.87688   97.71378   17.56632    2.14575  -21.36020
   11.8919   104.1236     5.1192     2.0238   -21.0950
   11.9069   106.6479    -9.3081     1.9182   -20.8386
   11.9219   104.6551   -23.8720     1.8264   -20.5906
  11.93694   98.63579  -36.67551    1.74648  -20.35035
  11.95195   89.92577  -46.48872    1.67678  -20.11719
  11.96697   80.05669  -52.99933    1.61598  -19.89085
  11.98198   70.24091  -56.57821    1.56301  -19.67029
  11.99700   61.20472  -57.89178    1.51700  -19.45522
  12.01201   53.26435  -57.61460    1.47728  -19.24489
  12.02703   46.47483  -56.30029    1.44329  -19.03900
  12.04204   40.75661  -54.35440    1.41462  -18.83668
  12.05706   35.97677  -52.05425    1.39097  -18.63791
  12.07207   31.99258  -49.58113    1.37212  -18.44181
  12.08709   28.67271  -47.04974    1.35798  -18.24823
  12.10210   25.90317  -44.52859    1.34854  -18.05627
  12.11712   23.58935  -42.05783    1.34388  -17.86595
  12.13213   21.65419  -39.65794    1.34419  -17.67667
  12.14715   20.03562  -37.33792    1.34978  -17.48798
  12.16216   18.68410  -35.09914    1.36108  -17.29959
  12.17718   17.56034  -32.93847    1.37869  -17.11075
  12.19219   16.63336  -30.84998    1.40337  -16.92147
  12.20721   15.87906  -28.82613    1.43612  -16.73115
  12.22222   15.27902  -26.85859    1.47819  -16.53979
  12.23724   14.81964  -24.93879    1.53118  -16.34724
  12.25225   14.49147  -23.05767    1.59708  -16.15322
  12.26727   14.28889  -21.20649    1.67841  -15.95860
  12.28228   14.20979  -19.37681    1.77825  -15.76398
  12.29730   14.25562  -17.56046    1.90038  -15.57129
  12.31231   14.43140  -15.74960    2.04932  -15.38364
  12.32733   14.74617  -13.93696    2.23018  -15.20592
  12.34234   15.21336  -12.11706    2.44826  -15.04628
  12.35736   15.85161  -10.28560    2.70811  -14.91629
  12.37237   16.68569   -8.44124    3.01137  -14.83313
  12.38739   17.74769   -6.58680    3.35317  -14.81949
  12.40240   19.07835   -4.73237    3.71690  -14.90117
  12.41742   20.72840   -2.89824    4.06899  -15.10097
  12.43243   22.75939   -1.12176    4.35843  -15.42544
  12.44745   25.24308    0.53516    4.52753  -15.85128
  12.46246   28.25723    1.97272    4.53474  -16.32131
  12.47748   31.87433    3.03727    4.37628  -16.76183
  12.49249   36.13707    3.50462    4.08834  -17.11090
  12.50751   41.01315    3.06825    3.72765  -17.33887
  12.52252   46.32491    1.35374    3.34748  -17.44855
  12.53754   51.66671   -2.00622    2.98462  -17.46041
  12.55255   56.36364   -7.21483    2.65825  -17.40083
  12.56757   59.56533  -14.09468    2.37483  -17.29321
  12.58258   60.53320  -21.95918    2.13349  -17.15566
  12.59760   58.99948  -29.75490    1.92998  -17.00062
  12.61261   55.31873  -36.46073    1.75898  -16.83713
  12.62763   50.26895  -41.46568    1.61525  -16.67023
  12.64264   44.68699  -44.66155    1.49411  -16.50348
  12.65766   39.20806  -46.28980    1.39161  -16.33895
  12.67267   34.19801  -46.72765    1.30448  -16.17768
  12.68769   29.80630  -46.34256    1.23005  -16.02026
  12.70270   26.04879  -45.42950    1.16616  -15.86700
  12.71772   22.87454  -44.20280    1.11107  -15.71773
  12.73273   20.20743  -42.80785    1.06339  -15.57248
  12.74775   17.96824  -41.33895    1.02197  -15.43092
  12.76276   16.08452  -39.85596    0.98589  -15.29292
  12.77778   14.49396  -38.39447    0.95440  -15.15789
  12.79279   13.14474  -36.97536    0.92689  -15.02582
  12.80781   11.99445  -35.60947    0.90287  -14.89657
  12.82282   11.00870  -34.30139    0.88191  -14.76969
  12.83784   10.15969  -33.05230    0.86369  -14.64489
  12.85285    9.42493  -31.86088    0.84794  -14.52201
  12.86787    8.78618  -30.72429    0.83443  -14.40091
  12.88288    8.22873  -29.63988    0.82300  -14.28114
  12.89790    7.74050  -28.60364    0.81351  -14.16271
  12.91291    7.31164  -27.61202    0.80584  -14.04532
  12.92793    6.93407  -26.66130    0.79994  -13.92896
  12.94294    6.60116  -25.74839    0.79575  -13.81320
  12.95796    6.30746  -24.86986    0.79326  -13.69788
  12.97297    6.04849  -24.02261    0.79248  -13.58300
  12.98799    5.82057  -23.20397    0.79345  -13.46813
  13.00300    5.62072  -22.41171    0.79623  -13.35340
  13.01802    5.44648  -21.64331    0.80092  -13.23823
  13.03303    5.29588  -20.89715    0.80765  -13.12292
  13.04805    5.16722  -20.17188    0.81660  -13.00686
  13.06306    5.05890  -19.46619    0.82797  -12.89035
  13.07808    4.96917  -18.78006    0.84201  -12.77296
  13.09309    4.89571  -18.11275    0.85900  -12.65467
  13.10811    4.83541  -17.46352    0.87924  -12.53565
  13.12312    4.78449  -16.83075    0.90300  -12.41588
  13.13814    4.73933  -16.21088    0.93046  -12.29538
  13.15315    4.69788  -15.59841    0.96161  -12.17443
  13.16817    4.66061  -14.98788    0.99626  -12.05318
  13.18318    4.63016  -14.37423    1.03406  -11.93089
  13.19820    4.61006  -13.75539    1.07490  -11.80653
  13.21321    4.60345  -13.13018    1.11929  -11.67876
  13.22823    4.61269  -12.49830    1.16868  -11.54610
  13.24324    4.63940  -11.85960    1.22528  -11.40736
  13.25826    4.68482  -11.21349    1.29176  -11.26210
  13.27327    4.75014  -10.55937    1.37097  -11.11062
  13.28829    4.83673   -9.89592    1.46596  -10.95335
  13.30330    4.94630   -9.22164    1.58017  -10.79134
  13.31832    5.08104   -8.53462    1.71758  -10.62607
  13.33333    5.24369   -7.83308    1.88299  -10.45962
  13.34835    5.43771   -7.11478    2.08213  -10.29568
  13.36336    5.66739   -6.37751    2.32161  -10.14049
  13.37838    5.93804   -5.61890    2.60865  -10.00294
  13.39339    6.25625   -4.83657    2.95001   -9.89710
  13.40841    6.63011   -4.02860    3.34980   -9.84359
  13.42342    7.06965   -3.19276    3.80548   -9.87027
  13.43844    7.58731   -2.32802    4.30142  -10.01138
  13.45345    8.19850   -1.43407    4.80136  -10.30116
  13.46847    8.92234   -0.51286    5.24429  -10.75918
  13.48348    9.78249    0.43104    5.55247  -11.37060
  13.49850   10.80804    1.38775    5.65721  -12.07438
  13.51351   12.03429    2.34017    5.53195  -12.77459
  13.52853   13.50311    3.25872    5.20728  -13.37697
  13.54354   15.26183    4.09626    4.75377  -13.82343
  13.55856   17.35938    4.77839    4.24856  -14.10283
  13.57357   19.83663    5.19349    3.75082  -14.23623
  13.58859   22.70686    5.18290    3.29503  -14.25846
  13.60360   25.92178    4.53745    2.89552  -14.20333
  13.61862   29.32312    3.01882    2.55410  -14.09809
  13.63363   32.59597    0.42377    2.26626  -13.96261
  13.64865   35.26748   -3.29726    2.02512  -13.81068
  13.66366   36.81301   -7.91579    1.82337  -13.65104
  13.67868   36.86596  -12.89702    1.65442  -13.48933
  13.69369   35.41179  -17.56565    1.51250  -13.32865
  13.70871   32.79646  -21.36850    1.39287  -13.17124
  13.72372   29.54109  -24.05344    1.29162  -13.01797
  13.73874   26.12798  -25.65308    1.20562  -12.86930
  13.75375   22.88422  -26.36426    1.13230  -12.72552
  13.76877   19.97923  -26.42533    1.06963  -12.58619
  13.78378   17.46734  -26.04884    1.01595  -12.45116
  13.79880   15.33915  -25.39739    0.96992  -12.32043
  13.81381   13.55561  -24.58616    0.93049  -12.19325
  13.82883   12.06815  -23.69163    0.89676  -12.06948
  13.84384   10.83016  -22.76315    0.86804  -11.94868
  13.85886    9.79988  -21.83200    0.84377  -11.83055
  13.87387    8.94270  -20.91716    0.82349  -11.71478
  13.88889    8.23003  -20.02959    0.80686  -11.60080
  13.90390    7.63907  -19.17715    0.79360  -11.48889
  13.91892    7.15109  -18.36429    0.78351  -11.37831
  13.93393    6.75055  -17.59529    0.77646  -11.26892
  13.94895    6.42303  -16.87433    0.77237  -11.16057
  13.96396    6.15378  -16.20584    0.77118  -11.05311
  13.97898    5.92589  -15.59174    0.77284  -10.94639
  13.99399    5.72053  -15.03057    0.77729  -10.84041
  14.00901    5.51953  -14.51267    0.78436  -10.73502
  14.02402    5.31066  -14.02219    0.79377  -10.63052
  14.03904    5.09145  -13.54061    0.80512  -10.52632
  14.05406    4.86831  -13.05355    0.81804  -10.42182
  14.06907    4.65144  -12.55492    0.83239  -10.31628
  14.08409    4.44971  -12.04443    0.84848  -10.20867
  14.09910    4.26847  -11.52579    0.86704  -10.09795
  14.11411    4.10961  -11.00316    0.88903   -9.98396
  14.12913    3.97280  -10.48037    0.91540   -9.86583
  14.14415    3.85645   -9.95951    0.94709   -9.74384
  14.15916    3.75863   -9.44250    0.98497   -9.61785
  14.17418    3.67733   -8.92935    1.02999   -9.48726
  14.18919    3.61078   -8.42049    1.08323   -9.35223
  14.20420    3.55742   -7.91519    1.14599   -9.21231
  14.21922    3.51598   -7.41301    1.21988   -9.06705
  14.23423    3.48541   -6.91334    1.30689   -8.91645
  14.24925    3.46489   -6.41516    1.40950   -8.76022
  14.26427    3.45376   -5.91757    1.53083   -8.59866
  14.27928    3.45152   -5.41983    1.67468   -8.43220
  14.29429    3.45782   -4.92091    1.84585   -8.26189
  14.30931    3.47241   -4.41991    2.05016   -8.09039
  14.32432    3.49515   -3.91550    2.29466   -7.92157
  14.33934    3.52600   -3.40724    2.58759   -7.76208
  14.35435    3.56500   -2.89379    2.93793   -7.62230
  14.36937    3.61229   -2.37441    3.35459   -7.51869
  14.38438    3.66808   -1.84777    3.84365   -7.47541
  14.39940    3.73268   -1.31268    4.40412   -7.52566
  14.41441    3.80646   -0.76854    5.02009   -7.71138
  14.42943    3.88992   -0.21359    5.65164   -8.07631
  14.44444    3.98361    0.35300    6.22770   -8.65039
  14.45946    4.08823    0.93300    6.65293   -9.42486
  14.47447    4.20456    1.52723    6.83568  -10.33392
  14.48949    4.33356    2.13770    6.73032  -11.26255
  14.50450    4.47628    2.76580    6.36247  -12.08757
  14.51952    4.63399    3.41324    5.81434  -12.72627
  14.53453    4.80810    4.08203    5.18430  -13.15419
  14.54955    5.00029    4.77387    4.55197  -13.39239
  14.56456    5.21246    5.49091    3.96629  -13.48281
  14.57958    5.44686    6.23596    3.44911  -13.46887
  14.59460    5.70603    7.01147    3.00500  -13.38675
  14.60961    5.99295    7.81959    2.62934  -13.26328
  14.62463    6.31113    8.66417    2.31368  -13.11684
  14.63964    6.66459    9.54796    2.04892  -12.95928
  14.65466    7.05818   10.47496    1.82645  -12.79845
  14.66967    7.49742   11.44901    1.63888  -12.63896
  14.68469    7.98908   12.47443    1.47996  -12.48362
  14.69970    8.54093   13.55573    1.34463  -12.33392
  14.71472    9.16254   14.69825    1.22870  -12.19058
  14.72973    9.86505   15.90709    1.12885  -12.05377
  14.74475   10.66225   17.18805    1.04235  -11.92363
  14.75976   11.57046   18.54668    0.96701  -11.79957
  14.77478   12.60994   19.98905    0.90104  -11.68173
  14.78979   13.80499   21.52013    0.84299  -11.56937
  14.80481   15.18600   23.14475    0.79165  -11.46236
  14.81982   16.78980   24.86467    0.74605  -11.36008
  14.83484   18.66262   26.67939    0.70536  -11.26255
  14.84985   20.86106   28.58215    0.66892  -11.16902
  14.86487   23.45488   30.55665    0.63614  -11.07934
  14.87988   26.53059   32.57213    0.60656  -10.99322
  14.89490   30.19143   34.57368    0.57977  -10.91052
  14.90991   34.56065   36.47095    0.55542  -10.83077
  14.92492   39.77436   38.11707    0.53322  -10.75384
  14.93994   45.97239   39.28611    0.51293  -10.67958
  14.95496   53.26274   39.64007    0.49433  -10.60769
  14.96997   61.66571   38.70174    0.47724  -10.53817
  14.98499   71.00352   35.85471    0.46148  -10.47058
  15.00000   80.76521   30.41717    0.44694  -10.40522
# 
# 03/01/2017 at 15:53 YAMBO @ anomaly [start]
# 03/01/2017 at 15:53                 [end]
#  
# Timing   [Min/Max/Average]: 04s/04s/04s
#
# .-Input file : yambo.in
# | optics                       # [R OPT] Optics
# | bse                          # [R BSE] Bethe Salpeter Equation.
# | bsk                          # [R BSK] Bethe Salpeter Equation kernel
# | bss                          # [R BSS] Bethe Salpeter Equation solver
# | tddft                        # [R   K] Use TDDFT kernel
# | BoseTemp= 0.000000     eV    # Bosonic Temperature
# | FFTGvecs=  9939        RL    # [FFT] Plane-waves
# | X_Threads= 1                 # [OPENMP/X] Number of threads for response functions
# | DIP_Threads= 1               # [OPENMP/X] Number of threads for dipoles
# | NonPDirs= "XYZ"              # [X/BSS] Non periodic chartesian directions (X,Y,Z,XY...)
# | BSEmod= "retarded"           # [BSE] resonant/retarded/coupling
# | BSKmod= "ALDA"               # [BSE] IP/Hartree/HF/ALDA/SEX/BSfxc
# | BSSmod= "d"                  # [BSS] (h)aydock/(d)iagonalization/(i)nversion/(t)ddft`
# | BSENGexx=  9045        RL    # [BSK] Exchange components
# | % BEnRange
# |   0.00000 | 15.00000 | eV    # [BSS] Energy range
# | %
# | % BDmRange
# |   0.10000 |  0.10000 | eV    # [BSS] Damping range
# | %
# | BEnSteps= 1000               # [BSS] Energy steps
# | % BLongDir
# | 0.1000E-4 | 0.000    | 0.000    |        # [BSS] [cc] Electric Field
# | %
# | % BSEBands
# |    1 | 200 |                 # [BSK] Bands range
# | %
