#                                                           
#  /$$     /$$ /$$$$$$  /$$      /$$ /$$$$$$$   /$$$$$$     
# |  $$   /$$//$$__  $$| $$$    /$$$| $$__  $$ /$$__  $$    
#  \  $$ /$$/| $$  \ $$| $$$$  /$$$$| $$  \ $$| $$  \ $$    
#   \  $$$$/ | $$$$$$$$| $$ $$/$$ $$| $$$$$$$ | $$  | $$    
#    \  $$/  | $$__  $$| $$  $$$| $$| $$__  $$| $$  | $$    
#     | $$   | $$  | $$| $$\  $ | $$| $$  \ $$| $$  | $$    
#     | $$   | $$  | $$| $$ \/  | $$| $$$$$$$/|  $$$$$$/    
#     |__/   |__/  |__/|__/     |__/|_______/  \______/     
#                                                           
#       Version 4.3.0 Revision 15624 Hash 7ed12fb           
#                     MPI+SLK Build                         
#               http://www.yambo-code.org                   
#
# Joint density of states @ Q(1) [q->0 direction] :0.1000E-4  0.000     0.000   
#
# - Energies      are Teter 93(XC)
# - The Green`s function is Retarded -
#
#   BSK|Identifier              :7592
#      |Dimension               :49
#      |Bands                   :1 - 50
#      |Exchange           [res]: yes
#      |Correlation        [res]: no
#      |Kernel`s coupling       : no
#      |Exchange           [cpl]: no
#      |Correlation        [cpl]: no
#      |W interaction is bare   : no
#      |ALDA kernel in R-space  : yes
#      |RL vectors    [exchange]:4067
#      |E/h energy range    [ev]:-1.000000 - -1.000000
#      |Coupling range     [o/o]: 100.0000 -  100.0000
#
#    E/ev[1]      jdos-Im[2]   jdos-Re[3]   jdoso-Im[4]  jdoso-Re[5]  jdos`-Im[6]  jdos`-Re[7]
#
    0.000000     0.000000     1.109314     0.000000     1.108381
   0.1502E-1    0.1175E-4     1.109       0.1175E-4     1.108   
   0.3003E-1    0.2350E-4     1.109       0.2349E-4     1.108   
   0.4505E-1    0.3525E-4     1.109       0.3524E-4     1.108   
   0.6006E-1    0.4700E-4     1.109       0.4698E-4     1.108   
   0.7508E-1    0.5875E-4     1.109       0.5873E-4     1.108   
   0.9009E-1    0.7050E-4     1.109       0.7048E-4     1.108   
   0.1051       0.8226E-4     1.109       0.8223E-4     1.108   
   0.1201       0.9401E-4     1.109       0.9397E-4     1.108   
   0.1351       0.1058E-3     1.109       0.1057E-3     1.108   
   0.1502       0.1175E-3     1.109       0.1175E-3     1.108   
   0.1652       0.1293E-3     1.109       0.1292E-3     1.108   
   0.1802       0.1410E-3     1.109       0.1410E-3     1.109   
   0.1952       0.1528E-3     1.109       0.1527E-3     1.109   
   0.2102       0.1646E-3     1.109       0.1645E-3     1.109   
   0.2252       0.1763E-3     1.110       0.1763E-3     1.109   
   0.2402       0.1881E-3     1.110       0.1880E-3     1.109   
   0.2553       0.1999E-3     1.110       0.1998E-3     1.109   
   0.2703       0.2116E-3     1.110       0.2115E-3     1.109   
   0.2853       0.2234E-3     1.110       0.2233E-3     1.109   
   0.3003       0.2352E-3     1.110       0.2351E-3     1.109   
   0.3153       0.2470E-3     1.110       0.2469E-3     1.109   
   0.3303       0.2587E-3     1.110       0.2586E-3     1.109   
   0.3453       0.2705E-3     1.110       0.2704E-3     1.109   
   0.3604       0.2823E-3     1.110       0.2822E-3     1.109   
   0.3754       0.2941E-3     1.110       0.2940E-3     1.109   
   0.3904       0.3059E-3     1.110       0.3058E-3     1.109   
   0.4054       0.3177E-3     1.110       0.3176E-3     1.109   
   0.4204       0.3295E-3     1.110       0.3294E-3     1.109   
   0.4354       0.3413E-3     1.110       0.3412E-3     1.109   
   0.4505       0.3531E-3     1.110       0.3530E-3     1.109   
   0.4655       0.3649E-3     1.110       0.3648E-3     1.109   
   0.4805       0.3767E-3     1.110       0.3766E-3     1.109   
   0.4955       0.3885E-3     1.110       0.3884E-3     1.109   
   0.5105       0.4004E-3     1.110       0.4002E-3     1.109   
   0.5255       0.4122E-3     1.110       0.4120E-3     1.109   
   0.5405       0.4240E-3     1.110       0.4239E-3     1.110   
   0.5556       0.4359E-3     1.111       0.4357E-3     1.110   
   0.5706       0.4477E-3     1.111       0.4475E-3     1.110   
   0.5856       0.4596E-3     1.111       0.4594E-3     1.110   
   0.6006       0.4714E-3     1.111       0.4712E-3     1.110   
   0.6156       0.4833E-3     1.111       0.4831E-3     1.110   
   0.6306       0.4951E-3     1.111       0.4949E-3     1.110   
   0.6456       0.5070E-3     1.111       0.5068E-3     1.110   
   0.6607       0.5189E-3     1.111       0.5187E-3     1.110   
   0.6757       0.5308E-3     1.111       0.5306E-3     1.110   
   0.6907       0.5426E-3     1.111       0.5424E-3     1.110   
   0.7057       0.5545E-3     1.111       0.5543E-3     1.110   
   0.7207       0.5664E-3     1.111       0.5662E-3     1.110   
   0.7357       0.5783E-3     1.111       0.5781E-3     1.111   
   0.7508       0.5903E-3     1.112       0.5900E-3     1.111   
   0.7658       0.6022E-3     1.112       0.6019E-3     1.111   
   0.7808       0.6141E-3     1.112       0.6139E-3     1.111   
   0.7958       0.6260E-3     1.112       0.6258E-3     1.111   
   0.8108       0.6380E-3     1.112       0.6377E-3     1.111   
   0.8258       0.6499E-3     1.112       0.6497E-3     1.111   
   0.8408       0.6619E-3     1.112       0.6616E-3     1.111   
   0.8559       0.6738E-3     1.112       0.6736E-3     1.111   
   0.8709       0.6858E-3     1.112       0.6855E-3     1.111   
   0.8859       0.6978E-3     1.112       0.6975E-3     1.111   
   0.9009       0.7098E-3     1.113       0.7095E-3     1.112   
   0.9159       0.7218E-3     1.113       0.7215E-3     1.112   
   0.9309       0.7338E-3     1.113       0.7335E-3     1.112   
   0.9459       0.7458E-3     1.113       0.7455E-3     1.112   
   0.9610       0.7578E-3     1.113       0.7575E-3     1.112   
   0.9760       0.7698E-3     1.113       0.7695E-3     1.112   
   0.9910       0.7819E-3     1.113       0.7816E-3     1.112   
    1.006       0.7939E-3     1.113       0.7936E-3     1.112   
    1.021       0.8060E-3     1.113       0.8057E-3     1.112   
    1.036       0.8180E-3     1.114       0.8177E-3     1.113   
    1.051       0.8301E-3     1.114       0.8298E-3     1.113   
    1.066       0.8422E-3     1.114       0.8419E-3     1.113   
    1.081       0.8543E-3     1.114       0.8539E-3     1.113   
    1.096       0.8664E-3     1.114       0.8660E-3     1.113   
    1.111       0.8785E-3     1.114       0.8782E-3     1.113   
    1.126       0.8906E-3     1.114       0.8903E-3     1.113   
    1.141       0.9027E-3     1.114       0.9024E-3     1.114   
    1.156       0.9149E-3     1.115       0.9145E-3     1.114   
    1.171       0.9270E-3     1.115       0.9267E-3     1.114   
    1.186       0.9392E-3     1.115       0.9388E-3     1.114   
    1.201       0.9514E-3     1.115       0.9510E-3     1.114   
    1.216       0.9635E-3     1.115       0.9632E-3     1.114   
    1.231       0.9757E-3     1.115       0.9754E-3     1.114   
    1.246       0.9879E-3     1.115       0.9876E-3     1.114   
    1.261       0.1000E-2     1.116       0.9998E-3     1.115   
    1.276       0.1012E-2     1.116       0.1012E-2     1.115   
    1.291       0.1025E-2     1.116       0.1024E-2     1.115   
    1.306       0.1037E-2     1.116       0.1037E-2     1.115   
    1.321       0.1049E-2     1.116       0.1049E-2     1.115   
    1.336       0.1061E-2     1.116       0.1061E-2     1.115   
    1.351       0.1074E-2     1.117       0.1073E-2     1.116   
    1.366       0.1086E-2     1.117       0.1086E-2     1.116   
    1.381       0.1098E-2     1.117       0.1098E-2     1.116   
    1.396       0.1111E-2     1.117       0.1110E-2     1.116   
    1.411       0.1123E-2     1.117       0.1123E-2     1.116   
    1.426       0.1135E-2     1.117       0.1135E-2     1.116   
    1.441       0.1148E-2     1.118       0.1147E-2     1.117   
    1.456       0.1160E-2     1.118       0.1160E-2     1.117   
    1.471       0.1172E-2     1.118       0.1172E-2     1.117   
    1.486       0.1185E-2     1.118       0.1184E-2     1.117   
    1.502       0.1197E-2     1.118       0.1197E-2     1.117   
    1.517       0.1210E-2     1.118       0.1209E-2     1.117   
    1.532       0.1222E-2     1.119       0.1222E-2     1.118   
    1.547       0.1235E-2     1.119       0.1234E-2     1.118   
    1.562       0.1247E-2     1.119       0.1247E-2     1.118   
    1.577       0.1260E-2     1.119       0.1259E-2     1.118   
    1.592       0.1272E-2     1.119       0.1272E-2     1.118   
    1.607       0.1285E-2     1.120       0.1284E-2     1.119   
    1.622       0.1297E-2     1.120       0.1297E-2     1.119   
    1.637       0.1310E-2     1.120       0.1309E-2     1.119   
    1.652       0.1322E-2     1.120       0.1322E-2     1.119   
    1.667       0.1335E-2     1.120       0.1334E-2     1.119   
    1.682       0.1347E-2     1.121       0.1347E-2     1.120   
    1.697       0.1360E-2     1.121       0.1360E-2     1.120   
    1.712       0.1373E-2     1.121       0.1372E-2     1.120   
    1.727       0.1385E-2     1.121       0.1385E-2     1.120   
    1.742       0.1398E-2     1.121       0.1398E-2     1.120   
    1.757       0.1411E-2     1.122       0.1410E-2     1.121   
    1.772       0.1423E-2     1.122       0.1423E-2     1.121   
    1.787       0.1436E-2     1.122       0.1436E-2     1.121   
    1.802       0.1449E-2     1.122       0.1448E-2     1.121   
    1.817       0.1462E-2     1.122       0.1461E-2     1.121   
    1.832       0.1474E-2     1.123       0.1474E-2     1.122   
    1.847       0.1487E-2     1.123       0.1487E-2     1.122   
    1.862       0.1500E-2     1.123       0.1499E-2     1.122   
    1.877       0.1513E-2     1.123       0.1512E-2     1.122   
    1.892       0.1526E-2     1.124       0.1525E-2     1.123   
    1.907       0.1538E-2     1.124       0.1538E-2     1.123   
    1.922       0.1551E-2     1.124       0.1551E-2     1.123   
    1.937       0.1564E-2     1.124       0.1564E-2     1.123   
    1.952       0.1577E-2     1.124       0.1577E-2     1.124   
    1.967       0.1590E-2     1.125       0.1590E-2     1.124   
    1.982       0.1603E-2     1.125       0.1602E-2     1.124   
    1.997       0.1616E-2     1.125       0.1615E-2     1.124   
    2.012       0.1629E-2     1.125       0.1628E-2     1.124   
    2.027       0.1642E-2     1.126       0.1641E-2     1.125   
    2.042       0.1655E-2     1.126       0.1654E-2     1.125   
    2.057       0.1668E-2     1.126       0.1667E-2     1.125   
    2.072       0.1681E-2     1.126       0.1681E-2     1.125   
    2.087       0.1694E-2     1.127       0.1694E-2     1.126   
    2.102       0.1707E-2     1.127       0.1707E-2     1.126   
    2.117       0.1720E-2     1.127       0.1720E-2     1.126   
    2.132       0.1733E-2     1.127       0.1733E-2     1.127   
    2.147       0.1747E-2     1.128       0.1746E-2     1.127   
    2.162       0.1760E-2     1.128       0.1759E-2     1.127   
    2.177       0.1773E-2     1.128       0.1773E-2     1.127   
    2.192       0.1786E-2     1.128       0.1786E-2     1.128   
    2.207       0.1799E-2     1.129       0.1799E-2     1.128   
    2.222       0.1813E-2     1.129       0.1812E-2     1.128   
    2.237       0.1826E-2     1.129       0.1826E-2     1.128   
    2.252       0.1839E-2     1.130       0.1839E-2     1.129   
    2.267       0.1853E-2     1.130       0.1852E-2     1.129   
    2.282       0.1866E-2     1.130       0.1866E-2     1.129   
    2.297       0.1879E-2     1.130       0.1879E-2     1.129   
    2.312       0.1893E-2     1.131       0.1892E-2     1.130   
    2.327       0.1906E-2     1.131       0.1906E-2     1.130   
    2.342       0.1920E-2     1.131       0.1919E-2     1.130   
    2.357       0.1933E-2     1.132       0.1933E-2     1.131   
    2.372       0.1947E-2     1.132       0.1946E-2     1.131   
    2.387       0.1960E-2     1.132       0.1960E-2     1.131   
    2.402       0.1974E-2     1.132       0.1973E-2     1.132   
    2.417       0.1987E-2     1.133       0.1987E-2     1.132   
    2.432       0.2001E-2     1.133       0.2000E-2     1.132   
    2.447       0.2014E-2     1.133       0.2014E-2     1.132   
    2.462       0.2028E-2     1.134       0.2028E-2     1.133   
    2.477       0.2042E-2     1.134       0.2041E-2     1.133   
    2.492       0.2055E-2     1.134       0.2055E-2     1.133   
    2.508       0.2069E-2     1.135       0.2069E-2     1.134   
    2.523       0.2083E-2     1.135       0.2083E-2     1.134   
    2.538       0.2097E-2     1.135       0.2096E-2     1.134   
    2.553       0.2111E-2     1.136       0.2110E-2     1.135   
    2.568       0.2124E-2     1.136       0.2124E-2     1.135   
    2.583       0.2138E-2     1.136       0.2138E-2     1.135   
    2.598       0.2152E-2     1.136       0.2152E-2     1.136   
    2.613       0.2166E-2     1.137       0.2166E-2     1.136   
    2.628       0.2180E-2     1.137       0.2180E-2     1.136   
    2.643       0.2194E-2     1.137       0.2193E-2     1.137   
    2.658       0.2208E-2     1.138       0.2207E-2     1.137   
    2.673       0.2222E-2     1.138       0.2221E-2     1.137   
    2.688       0.2236E-2     1.138       0.2236E-2     1.138   
    2.703       0.2250E-2     1.139       0.2250E-2     1.138   
    2.718       0.2264E-2     1.139       0.2264E-2     1.138   
    2.733       0.2278E-2     1.139       0.2278E-2     1.139   
    2.748       0.2292E-2     1.140       0.2292E-2     1.139   
    2.763       0.2307E-2     1.140       0.2306E-2     1.139   
    2.778       0.2321E-2     1.141       0.2320E-2     1.140   
    2.793       0.2335E-2     1.141       0.2335E-2     1.140   
    2.808       0.2349E-2     1.141       0.2349E-2     1.140   
    2.823       0.2364E-2     1.142       0.2363E-2     1.141   
    2.838       0.2378E-2     1.142       0.2378E-2     1.141   
    2.853       0.2392E-2     1.142       0.2392E-2     1.141   
    2.868       0.2407E-2     1.143       0.2406E-2     1.142   
    2.883       0.2421E-2     1.143       0.2421E-2     1.142   
    2.898       0.2435E-2     1.143       0.2435E-2     1.142   
    2.913       0.2450E-2     1.144       0.2450E-2     1.143   
    2.928       0.2464E-2     1.144       0.2464E-2     1.143   
    2.943       0.2479E-2     1.144       0.2479E-2     1.144   
    2.958       0.2494E-2     1.145       0.2493E-2     1.144   
    2.973       0.2508E-2     1.145       0.2508E-2     1.144   
    2.988       0.2523E-2     1.146       0.2523E-2     1.145   
    3.003       0.2538E-2     1.146       0.2537E-2     1.145   
    3.018       0.2552E-2     1.146       0.2552E-2     1.145   
    3.033       0.2567E-2     1.147       0.2567E-2     1.146   
    3.048       0.2582E-2     1.147       0.2582E-2     1.146   
    3.063       0.2597E-2     1.148       0.2596E-2     1.147   
    3.078       0.2611E-2     1.148       0.2611E-2     1.147   
    3.093       0.2626E-2     1.148       0.2626E-2     1.147   
    3.108       0.2641E-2     1.149       0.2641E-2     1.148   
    3.123       0.2656E-2     1.149       0.2656E-2     1.148   
    3.138       0.2671E-2     1.149       0.2671E-2     1.149   
    3.153       0.2686E-2     1.150       0.2686E-2     1.149   
    3.168       0.2701E-2     1.150       0.2701E-2     1.149   
    3.183       0.2716E-2     1.151       0.2716E-2     1.150   
    3.198       0.2731E-2     1.151       0.2731E-2     1.150   
    3.213       0.2747E-2     1.152       0.2746E-2     1.151   
    3.228       0.2762E-2     1.152       0.2762E-2     1.151   
    3.243       0.2777E-2     1.152       0.2777E-2     1.151   
    3.258       0.2792E-2     1.153       0.2792E-2     1.152   
    3.273       0.2808E-2     1.153       0.2807E-2     1.152   
    3.288       0.2823E-2     1.154       0.2823E-2     1.153   
    3.303       0.2838E-2     1.154       0.2838E-2     1.153   
    3.318       0.2854E-2     1.154       0.2854E-2     1.154   
    3.333       0.2869E-2     1.155       0.2869E-2     1.154   
    3.348       0.2885E-2     1.155       0.2885E-2     1.154   
    3.363       0.2900E-2     1.156       0.2900E-2     1.155   
    3.378       0.2916E-2     1.156       0.2916E-2     1.155   
    3.393       0.2931E-2     1.157       0.2931E-2     1.156   
    3.408       0.2947E-2     1.157       0.2947E-2     1.156   
    3.423       0.2963E-2     1.158       0.2963E-2     1.157   
    3.438       0.2978E-2     1.158       0.2978E-2     1.157   
    3.453       0.2994E-2     1.158       0.2994E-2     1.157   
    3.468       0.3010E-2     1.159       0.3010E-2     1.158   
    3.483       0.3026E-2     1.159       0.3026E-2     1.158   
    3.498       0.3042E-2     1.160       0.3042E-2     1.159   
    3.514       0.3058E-2     1.160       0.3058E-2     1.159   
    3.529       0.3074E-2     1.161       0.3074E-2     1.160   
    3.544       0.3090E-2     1.161       0.3090E-2     1.160   
    3.559       0.3106E-2     1.162       0.3106E-2     1.161   
    3.574       0.3122E-2     1.162       0.3122E-2     1.161   
    3.589       0.3138E-2     1.163       0.3138E-2     1.162   
    3.604       0.3154E-2     1.163       0.3154E-2     1.162   
    3.619       0.3170E-2     1.164       0.3171E-2     1.163   
    3.634       0.3187E-2     1.164       0.3187E-2     1.163   
    3.649       0.3203E-2     1.164       0.3203E-2     1.164   
    3.664       0.3219E-2     1.165       0.3220E-2     1.164   
    3.679       0.3236E-2     1.165       0.3236E-2     1.164   
    3.694       0.3252E-2     1.166       0.3253E-2     1.165   
    3.709       0.3269E-2     1.166       0.3269E-2     1.165   
    3.724       0.3285E-2     1.167       0.3286E-2     1.166   
    3.739       0.3302E-2     1.167       0.3302E-2     1.166   
    3.754       0.3319E-2     1.168       0.3319E-2     1.167   
    3.769       0.3335E-2     1.168       0.3336E-2     1.167   
    3.784       0.3352E-2     1.169       0.3352E-2     1.168   
    3.799       0.3369E-2     1.169       0.3369E-2     1.168   
    3.814       0.3386E-2     1.170       0.3386E-2     1.169   
    3.829       0.3402E-2     1.170       0.3403E-2     1.169   
    3.844       0.3419E-2     1.171       0.3420E-2     1.170   
    3.859       0.3436E-2     1.171       0.3437E-2     1.170   
    3.874       0.3453E-2     1.172       0.3454E-2     1.171   
    3.889       0.3470E-2     1.172       0.3471E-2     1.172   
    3.904       0.3488E-2     1.173       0.3488E-2     1.172   
    3.919       0.3505E-2     1.174       0.3505E-2     1.173   
    3.934       0.3522E-2     1.174       0.3523E-2     1.173   
    3.949       0.3539E-2     1.175       0.3540E-2     1.174   
    3.964       0.3557E-2     1.175       0.3557E-2     1.174   
    3.979       0.3574E-2     1.176       0.3575E-2     1.175   
    3.994       0.3591E-2     1.176       0.3592E-2     1.175   
    4.009       0.3609E-2     1.177       0.3610E-2     1.176   
    4.024       0.3626E-2     1.177       0.3627E-2     1.176   
    4.039       0.3644E-2     1.178       0.3645E-2     1.177   
    4.054       0.3662E-2     1.178       0.3662E-2     1.177   
    4.069       0.3679E-2     1.179       0.3680E-2     1.178   
    4.084       0.3697E-2     1.179       0.3698E-2     1.179   
    4.099       0.3715E-2     1.180       0.3716E-2     1.179   
    4.114       0.3733E-2     1.181       0.3734E-2     1.180   
    4.129       0.3751E-2     1.181       0.3752E-2     1.180   
    4.144       0.3769E-2     1.182       0.3770E-2     1.181   
    4.159       0.3787E-2     1.182       0.3788E-2     1.181   
    4.174       0.3805E-2     1.183       0.3806E-2     1.182   
    4.189       0.3823E-2     1.183       0.3824E-2     1.182   
    4.204       0.3841E-2     1.184       0.3842E-2     1.183   
    4.219       0.3859E-2     1.185       0.3860E-2     1.184   
    4.234       0.3877E-2     1.185       0.3879E-2     1.184   
    4.249       0.3896E-2     1.186       0.3897E-2     1.185   
    4.264       0.3914E-2     1.186       0.3916E-2     1.185   
    4.279       0.3933E-2     1.187       0.3934E-2     1.186   
    4.294       0.3951E-2     1.187       0.3953E-2     1.187   
    4.309       0.3970E-2     1.188       0.3971E-2     1.187   
    4.324       0.3989E-2     1.189       0.3990E-2     1.188   
    4.339       0.4007E-2     1.189       0.4009E-2     1.188   
    4.354       0.4026E-2     1.190       0.4028E-2     1.189   
    4.369       0.4045E-2     1.191       0.4046E-2     1.190   
    4.384       0.4064E-2     1.191       0.4065E-2     1.190   
    4.399       0.4083E-2     1.192       0.4084E-2     1.191   
    4.414       0.4102E-2     1.192       0.4103E-2     1.191   
    4.429       0.4121E-2     1.193       0.4123E-2     1.192   
    4.444       0.4140E-2     1.194       0.4142E-2     1.193   
    4.459       0.4159E-2     1.194       0.4161E-2     1.193   
    4.474       0.4179E-2     1.195       0.4180E-2     1.194   
    4.489       0.4198E-2     1.195       0.4200E-2     1.195   
    4.505       0.4217E-2     1.196       0.4219E-2     1.195   
    4.520       0.4237E-2     1.197       0.4239E-2     1.196   
    4.535       0.4256E-2     1.197       0.4258E-2     1.196   
    4.550       0.4276E-2     1.198       0.4278E-2     1.197   
    4.565       0.4296E-2     1.199       0.4298E-2     1.198   
    4.580       0.4316E-2     1.199       0.4318E-2     1.198   
    4.595       0.4335E-2     1.200       0.4337E-2     1.199   
    4.610       0.4355E-2     1.201       0.4357E-2     1.200   
    4.625       0.4375E-2     1.201       0.4377E-2     1.200   
    4.640       0.4395E-2     1.202       0.4397E-2     1.201   
    4.655       0.4415E-2     1.203       0.4418E-2     1.202   
    4.670       0.4436E-2     1.203       0.4438E-2     1.202   
    4.685       0.4456E-2     1.204       0.4458E-2     1.203   
    4.700       0.4476E-2     1.205       0.4478E-2     1.204   
    4.715       0.4496E-2     1.205       0.4499E-2     1.204   
    4.730       0.4517E-2     1.206       0.4519E-2     1.205   
    4.745       0.4537E-2     1.207       0.4540E-2     1.206   
    4.760       0.4558E-2     1.207       0.4561E-2     1.206   
    4.775       0.4579E-2     1.208       0.4581E-2     1.207   
    4.790       0.4600E-2     1.209       0.4602E-2     1.208   
    4.805       0.4620E-2     1.209       0.4623E-2     1.208   
    4.820       0.4641E-2     1.210       0.4644E-2     1.209   
    4.835       0.4662E-2     1.211       0.4665E-2     1.210   
    4.850       0.4683E-2     1.211       0.4686E-2     1.211   
    4.865       0.4704E-2     1.212       0.4707E-2     1.211   
    4.880       0.4726E-2     1.213       0.4729E-2     1.212   
    4.895       0.4747E-2     1.214       0.4750E-2     1.213   
    4.910       0.4768E-2     1.214       0.4772E-2     1.213   
    4.925       0.4790E-2     1.215       0.4793E-2     1.214   
    4.940       0.4811E-2     1.216       0.4815E-2     1.215   
    4.955       0.4833E-2     1.216       0.4836E-2     1.216   
    4.970       0.4855E-2     1.217       0.4858E-2     1.216   
    4.985       0.4877E-2     1.218       0.4880E-2     1.217   
    5.000       0.4898E-2     1.219       0.4902E-2     1.218   
    5.015       0.4920E-2     1.219       0.4924E-2     1.218   
    5.030       0.4942E-2     1.220       0.4946E-2     1.219   
    5.045       0.4965E-2     1.221       0.4968E-2     1.220   
    5.060       0.4987E-2     1.222       0.4990E-2     1.221   
    5.075       0.5009E-2     1.222       0.5013E-2     1.221   
    5.090       0.5031E-2     1.223       0.5035E-2     1.222   
    5.105       0.5054E-2     1.224       0.5058E-2     1.223   
    5.120       0.5076E-2     1.225       0.5080E-2     1.224   
    5.135       0.5099E-2     1.225       0.5103E-2     1.224   
    5.150       0.5122E-2     1.226       0.5126E-2     1.225   
    5.165       0.5145E-2     1.227       0.5149E-2     1.226   
    5.180       0.5168E-2     1.228       0.5172E-2     1.227   
    5.195       0.5191E-2     1.228       0.5195E-2     1.228   
      5.2102       0.0052       1.2292       0.0052       1.2283
      5.2252       0.0052       1.2300       0.0052       1.2291
      5.2402       0.0053       1.2308       0.0053       1.2299
      5.2553       0.0053       1.2316       0.0053       1.2307
      5.2703       0.0053       1.2324       0.0053       1.2315
      5.2853       0.0053       1.2332       0.0053       1.2323
      5.3003       0.0054       1.2340       0.0054       1.2331
      5.3153       0.0054       1.2348       0.0054       1.2339
      5.3303       0.0054       1.2356       0.0054       1.2347
      5.3453       0.0054       1.2364       0.0054       1.2355
      5.3604       0.0054       1.2373       0.0055       1.2363
      5.3754       0.0055       1.2381       0.0055       1.2372
      5.3904       0.0055       1.2389       0.0055       1.2380
      5.4054       0.0055       1.2397       0.0055       1.2388
      5.4204       0.0055       1.2406       0.0056       1.2396
      5.4354       0.0056       1.2414       0.0056       1.2405
      5.4505       0.0056       1.2422       0.0056       1.2413
      5.4655       0.0056       1.2431       0.0056       1.2422
      5.4805       0.0056       1.2439       0.0057       1.2430
      5.4955       0.0057       1.2448       0.0057       1.2439
      5.5105       0.0057       1.2456       0.0057       1.2447
      5.5255       0.0057       1.2465       0.0057       1.2456
      5.5405       0.0057       1.2473       0.0058       1.2464
      5.5556       0.0058       1.2482       0.0058       1.2473
      5.5706       0.0058       1.2491       0.0058       1.2482
      5.5856       0.0058       1.2499       0.0058       1.2490
      5.6006       0.0058       1.2508       0.0059       1.2499
      5.6156       0.0059       1.2517       0.0059       1.2508
      5.6306       0.0059       1.2526       0.0059       1.2517
      5.6456       0.0059       1.2535       0.0059       1.2526
      5.6607       0.0060       1.2544       0.0060       1.2535
      5.6757       0.0060       1.2553       0.0060       1.2544
      5.6907       0.0060       1.2562       0.0060       1.2553
      5.7057       0.0060       1.2571       0.0060       1.2562
      5.7207       0.0061       1.2580       0.0061       1.2571
      5.7357       0.0061       1.2589       0.0061       1.2580
      5.7508       0.0061       1.2598       0.0061       1.2589
      5.7658       0.0061       1.2607       0.0061       1.2598
      5.7808       0.0062       1.2616       0.0062       1.2608
      5.7958       0.0062       1.2626       0.0062       1.2617
      5.8108       0.0062       1.2635       0.0062       1.2626
      5.8258       0.0062       1.2644       0.0063       1.2636
      5.8408       0.0063       1.2654       0.0063       1.2645
      5.8559       0.0063       1.2663       0.0063       1.2654
      5.8709       0.0063       1.2673       0.0063       1.2664
      5.8859       0.0064       1.2682       0.0064       1.2673
      5.9009       0.0064       1.2692       0.0064       1.2683
      5.9159       0.0064       1.2701       0.0064       1.2693
      5.9309       0.0064       1.2711       0.0065       1.2702
      5.9459       0.0065       1.2721       0.0065       1.2712
      5.9610       0.0065       1.2730       0.0065       1.2722
      5.9760       0.0065       1.2740       0.0065       1.2732
      5.9910       0.0066       1.2750       0.0066       1.2741
      6.0060       0.0066       1.2760       0.0066       1.2751
      6.0210       0.0066       1.2770       0.0066       1.2761
      6.0360       0.0066       1.2780       0.0067       1.2771
      6.0511       0.0067       1.2790       0.0067       1.2781
      6.0661       0.0067       1.2800       0.0067       1.2791
      6.0811       0.0067       1.2810       0.0067       1.2801
      6.0961       0.0068       1.2820       0.0068       1.2812
      6.1111       0.0068       1.2830       0.0068       1.2822
      6.1261       0.0068       1.2840       0.0068       1.2832
      6.1411       0.0069       1.2851       0.0069       1.2842
      6.1562       0.0069       1.2861       0.0069       1.2853
      6.1712       0.0069       1.2871       0.0069       1.2863
      6.1862       0.0070       1.2882       0.0070       1.2873
      6.2012       0.0070       1.2892       0.0070       1.2884
      6.2162       0.0070       1.2903       0.0070       1.2894
      6.2312       0.0070       1.2913       0.0071       1.2905
      6.2462       0.0071       1.2924       0.0071       1.2916
      6.2613       0.0071       1.2935       0.0071       1.2926
      6.2763       0.0071       1.2945       0.0072       1.2937
      6.2913       0.0072       1.2956       0.0072       1.2948
      6.3063       0.0072       1.2967       0.0072       1.2959
      6.3213       0.0072       1.2978       0.0073       1.2969
      6.3363       0.0073       1.2989       0.0073       1.2980
      6.3514       0.0073       1.2999       0.0073       1.2991
      6.3664       0.0073       1.3010       0.0073       1.3002
      6.3814       0.0074       1.3021       0.0074       1.3013
      6.3964       0.0074       1.3033       0.0074       1.3024
      6.4114       0.0074       1.3044       0.0074       1.3036
      6.4264       0.0075       1.3055       0.0075       1.3047
      6.4414       0.0075       1.3066       0.0075       1.3058
      6.4565       0.0075       1.3077       0.0076       1.3069
      6.4715       0.0076       1.3089       0.0076       1.3081
      6.4865       0.0076       1.3100       0.0076       1.3092
      6.5015       0.0076       1.3112       0.0077       1.3104
      6.5165       0.0077       1.3123       0.0077       1.3115
      6.5315       0.0077       1.3135       0.0077       1.3127
      6.5465       0.0077       1.3146       0.0078       1.3138
      6.5616       0.0078       1.3158       0.0078       1.3150
      6.5766       0.0078       1.3170       0.0078       1.3162
      6.5916       0.0078       1.3181       0.0079       1.3174
      6.6066       0.0079       1.3193       0.0079       1.3185
      6.6216       0.0079       1.3205       0.0079       1.3197
      6.6366       0.0080       1.3217       0.0080       1.3209
      6.6517       0.0080       1.3229       0.0080       1.3221
      6.6667       0.0080       1.3241       0.0080       1.3233
      6.6817       0.0081       1.3253       0.0081       1.3245
      6.6967       0.0081       1.3265       0.0081       1.3258
      6.7117       0.0081       1.3277       0.0082       1.3270
      6.7267       0.0082       1.3290       0.0082       1.3282
      6.7417       0.0082       1.3302       0.0082       1.3294
      6.7568       0.0083       1.3314       0.0083       1.3307
      6.7718       0.0083       1.3327       0.0083       1.3319
      6.7868       0.0083       1.3339       0.0084       1.3332
      6.8018       0.0084       1.3352       0.0084       1.3344
      6.8168       0.0084       1.3364       0.0084       1.3357
      6.8318       0.0084       1.3377       0.0085       1.3370
      6.8468       0.0085       1.3390       0.0085       1.3382
      6.8619       0.0085       1.3402       0.0085       1.3395
      6.8769       0.0086       1.3415       0.0086       1.3408
      6.8919       0.0086       1.3428       0.0086       1.3421
      6.9069       0.0086       1.3441       0.0087       1.3434
      6.9219       0.0087       1.3454       0.0087       1.3447
      6.9369       0.0087       1.3467       0.0088       1.3460
      6.9520       0.0088       1.3480       0.0088       1.3473
      6.9670       0.0088       1.3493       0.0088       1.3486
      6.9820       0.0088       1.3507       0.0089       1.3500
      6.9970       0.0089       1.3520       0.0089       1.3513
      7.0120       0.0089       1.3533       0.0090       1.3526
      7.0270       0.0090       1.3547       0.0090       1.3540
      7.0420       0.0090       1.3560       0.0090       1.3553
      7.0571       0.0091       1.3574       0.0091       1.3567
      7.0721       0.0091       1.3587       0.0091       1.3581
      7.0871       0.0091       1.3601       0.0092       1.3594
      7.1021       0.0092       1.3615       0.0092       1.3608
      7.1171       0.0092       1.3629       0.0093       1.3622
      7.1321       0.0093       1.3643       0.0093       1.3636
      7.1471       0.0093       1.3657       0.0094       1.3650
      7.1622       0.0094       1.3671       0.0094       1.3664
      7.1772       0.0094       1.3685       0.0094       1.3678
      7.1922       0.0095       1.3699       0.0095       1.3692
      7.2072       0.0095       1.3713       0.0095       1.3707
      7.2222       0.0095       1.3727       0.0096       1.3721
      7.2372       0.0096       1.3742       0.0096       1.3735
      7.2523       0.0096       1.3756       0.0097       1.3750
      7.2673       0.0097       1.3771       0.0097       1.3765
      7.2823       0.0097       1.3785       0.0098       1.3779
      7.2973       0.0098       1.3800       0.0098       1.3794
      7.3123       0.0098       1.3814       0.0099       1.3809
      7.3273       0.0099       1.3829       0.0099       1.3823
      7.3423       0.0099       1.3844       0.0100       1.3838
      7.3574       0.0100       1.3859       0.0100       1.3853
     7.37237      0.01002      1.38740      0.01006      1.38684
     7.38739      0.01007      1.38891      0.01011      1.38835
     7.40240      0.01012      1.39043      0.01016      1.38987
     7.41742      0.01017      1.39195      0.01021      1.39140
     7.43243      0.01022      1.39348      0.01026      1.39293
     7.44745      0.01027      1.39501      0.01031      1.39448
     7.46246      0.01032      1.39656      0.01036      1.39603
     7.47748      0.01037      1.39811      0.01041      1.39759
     7.49249      0.01042      1.39967      0.01046      1.39915
     7.50751      0.01047      1.40124      0.01052      1.40073
     7.52252      0.01052      1.40281      0.01057      1.40231
     7.53754      0.01058      1.40440      0.01062      1.40390
     7.55255      0.01063      1.40599      0.01068      1.40550
     7.56757      0.01068      1.40759      0.01073      1.40710
     7.58258      0.01074      1.40919      0.01078      1.40872
     7.59760      0.01079      1.41081      0.01084      1.41034
     7.61261      0.01084      1.41243      0.01089      1.41197
     7.62763      0.01090      1.41406      0.01095      1.41361
     7.64264      0.01095      1.41570      0.01100      1.41526
     7.65766      0.01101      1.41735      0.01106      1.41691
     7.67267      0.01106      1.41901      0.01112      1.41858
     7.68769      0.01112      1.42067      0.01117      1.42025
     7.70270      0.01118      1.42235      0.01123      1.42193
     7.71772      0.01123      1.42403      0.01129      1.42362
     7.73273      0.01129      1.42572      0.01135      1.42532
     7.74775      0.01135      1.42742      0.01141      1.42703
     7.76276      0.01141      1.42912      0.01147      1.42874
     7.77778      0.01147      1.43084      0.01153      1.43047
     7.79279      0.01153      1.43257      0.01159      1.43220
     7.80781      0.01159      1.43430      0.01165      1.43395
     7.82282      0.01165      1.43604      0.01171      1.43570
     7.83784      0.01171      1.43780      0.01177      1.43746
     7.85285      0.01177      1.43956      0.01183      1.43923
     7.86787      0.01183      1.44133      0.01190      1.44101
     7.88288      0.01189      1.44311      0.01196      1.44280
     7.89790      0.01196      1.44490      0.01202      1.44460
     7.91291      0.01202      1.44670      0.01209      1.44641
     7.92793      0.01208      1.44850      0.01215      1.44823
     7.94294      0.01215      1.45032      0.01222      1.45006
     7.95796      0.01221      1.45215      0.01228      1.45189
     7.97297      0.01228      1.45399      0.01235      1.45374
     7.98799      0.01234      1.45583      0.01242      1.45560
     8.00300      0.01241      1.45769      0.01248      1.45747
     8.01802      0.01247      1.45956      0.01255      1.45935
     8.03303      0.01254      1.46143      0.01262      1.46123
     8.04805      0.01261      1.46332      0.01269      1.46313
     8.06306      0.01268      1.46522      0.01276      1.46504
     8.07808      0.01275      1.46713      0.01283      1.46696
     8.09309      0.01282      1.46904      0.01290      1.46889
     8.10811      0.01289      1.47097      0.01297      1.47083
     8.12312      0.01296      1.47291      0.01304      1.47278
     8.13814      0.01303      1.47486      0.01311      1.47475
     8.15315      0.01310      1.47682      0.01319      1.47672
     8.16817      0.01317      1.47879      0.01326      1.47870
     8.18318      0.01324      1.48077      0.01334      1.48070
     8.19820      0.01332      1.48276      0.01341      1.48271
     8.21321      0.01339      1.48477      0.01349      1.48472
     8.22823      0.01347      1.48678      0.01356      1.48675
     8.24324      0.01354      1.48881      0.01364      1.48879
     8.25826      0.01362      1.49085      0.01372      1.49085
     8.27327      0.01370      1.49290      0.01380      1.49291
     8.28829      0.01377      1.49496      0.01388      1.49499
     8.30330      0.01385      1.49703      0.01396      1.49707
     8.31832      0.01393      1.49911      0.01404      1.49917
     8.33333      0.01401      1.50121      0.01412      1.50129
     8.34835      0.01409      1.50332      0.01420      1.50341
     8.36336      0.01417      1.50544      0.01428      1.50555
     8.37838      0.01425      1.50757      0.01437      1.50770
     8.39339      0.01434      1.50972      0.01445      1.50986
     8.40841      0.01442      1.51187      0.01454      1.51203
     8.42342      0.01450      1.51404      0.01462      1.51422
     8.43844      0.01459      1.51622      0.01471      1.51642
     8.45345      0.01467      1.51842      0.01480      1.51864
     8.46847      0.01476      1.52063      0.01489      1.52086
     8.48348      0.01485      1.52285      0.01498      1.52310
     8.49850      0.01494      1.52508      0.01507      1.52536
     8.51351      0.01502      1.52733      0.01516      1.52762
     8.52853      0.01511      1.52959      0.01525      1.52990
     8.54354      0.01521      1.53186      0.01534      1.53220
     8.55856      0.01530      1.53415      0.01544      1.53451
     8.57357      0.01539      1.53645      0.01553      1.53683
     8.58859      0.01548      1.53877      0.01563      1.53917
     8.60360      0.01558      1.54110      0.01573      1.54152
     8.61862      0.01567      1.54344      0.01583      1.54389
     8.63363      0.01577      1.54580      0.01592      1.54627
     8.64865      0.01587      1.54817      0.01602      1.54866
     8.66366      0.01596      1.55056      0.01613      1.55108
     8.67868      0.01606      1.55296      0.01623      1.55350
     8.69369      0.01616      1.55538      0.01633      1.55594
     8.70871      0.01626      1.55781      0.01644      1.55840
     8.72372      0.01637      1.56026      0.01654      1.56088
     8.73874      0.01647      1.56272      0.01665      1.56336
     8.75375      0.01657      1.56520      0.01676      1.56587
     8.76877      0.01668      1.56770      0.01686      1.56839
     8.78378      0.01679      1.57021      0.01698      1.57093
     8.79880      0.01689      1.57273      0.01709      1.57348
     8.81381      0.01700      1.57527      0.01720      1.57605
     8.82883      0.01711      1.57783      0.01731      1.57864
     8.84384      0.01723      1.58041      0.01743      1.58125
     8.85886      0.01734      1.58300      0.01755      1.58387
     8.87387      0.01745      1.58561      0.01766      1.58651
     8.88889      0.01757      1.58824      0.01778      1.58917
     8.90390      0.01768      1.59088      0.01790      1.59184
     8.91892      0.01780      1.59354      0.01803      1.59454
     8.93393      0.01792      1.59622      0.01815      1.59725
     8.94895      0.01804      1.59891      0.01828      1.59998
     8.96396      0.01816      1.60163      0.01840      1.60273
     8.97898      0.01829      1.60436      0.01853      1.60550
     8.99399      0.01841      1.60711      0.01866      1.60829
     9.00901      0.01854      1.60989      0.01879      1.61110
     9.02402      0.01866      1.61267      0.01892      1.61393
     9.03904      0.01879      1.61548      0.01906      1.61677
     9.05405      0.01893      1.61831      0.01920      1.61964
     9.06907      0.01906      1.62116      0.01933      1.62253
     9.08408      0.01919      1.62403      0.01947      1.62544
     9.09910      0.01933      1.62692      0.01962      1.62837
     9.11411      0.01947      1.62982      0.01976      1.63132
     9.12913      0.01960      1.63275      0.01991      1.63430
     9.14414      0.01975      1.63570      0.02005      1.63729
     9.15916      0.01989      1.63867      0.02020      1.64031
     9.17417      0.02003      1.64167      0.02036      1.64335
     9.18919      0.02018      1.64468      0.02051      1.64641
     9.20420      0.02033      1.64772      0.02066      1.64950
     9.21922      0.02048      1.65078      0.02082      1.65261
     9.23423      0.02063      1.65386      0.02098      1.65574
     9.24925      0.02079      1.65696      0.02115      1.65890
     9.26426      0.02094      1.66009      0.02131      1.66208
     9.27928      0.02110      1.66324      0.02148      1.66529
     9.29429      0.02126      1.66642      0.02165      1.66852
     9.30931      0.02142      1.66962      0.02182      1.67178
     9.32432      0.02159      1.67284      0.02199      1.67506
     9.33934      0.02176      1.67609      0.02217      1.67837
     9.35435      0.02193      1.67937      0.02235      1.68171
     9.36937      0.02210      1.68267      0.02253      1.68507
     9.38438      0.02228      1.68599      0.02272      1.68846
     9.39940      0.02245      1.68934      0.02291      1.69188
     9.41442      0.02263      1.69272      0.02310      1.69533
     9.42943      0.02282      1.69613      0.02330      1.69881
     9.44444      0.02300      1.69956      0.02349      1.70231
     9.45946      0.02319      1.70302      0.02369      1.70585
     9.47447      0.02338      1.70651      0.02390      1.70941
     9.48949      0.02358      1.71003      0.02411      1.71301
     9.50451      0.02378      1.71358      0.02432      1.71664
     9.51952      0.02398      1.71716      0.02453      1.72030
     9.53453      0.02418      1.72077      0.02475      1.72399
     9.54955      0.02439      1.72441      0.02497      1.72771
     9.56456      0.02460      1.72808      0.02520      1.73147
     9.57958      0.02481      1.73178      0.02543      1.73526
     9.59459      0.02503      1.73551      0.02566      1.73909
     9.60961      0.02525      1.73928      0.02590      1.74295
     9.62462      0.02548      1.74308      0.02614      1.74685
     9.63964      0.02571      1.74691      0.02639      1.75078
     9.65465      0.02594      1.75078      0.02664      1.75475
     9.66967      0.02618      1.75468      0.02690      1.75876
     9.68469      0.02642      1.75862      0.02716      1.76281
     9.69970      0.02666      1.76260      0.02743      1.76689
     9.71472      0.02691      1.76661      0.02770      1.77102
     9.72973      0.02717      1.77066      0.02798      1.77519
     9.74475      0.02743      1.77475      0.02826      1.77940
     9.75976      0.02769      1.77888      0.02855      1.78365
     9.77478      0.02796      1.78304      0.02884      1.78794
     9.78979      0.02824      1.78725      0.02914      1.79228
     9.80480      0.02852      1.79150      0.02945      1.79667
     9.81982      0.02880      1.79579      0.02976      1.80110
     9.83484      0.02909      1.80012      0.03008      1.80557
     9.84985      0.02939      1.80450      0.03041      1.81010
     9.86487      0.02970      1.80892      0.03075      1.81468
     9.87988      0.03001      1.81339      0.03109      1.81930
     9.89489      0.03032      1.81790      0.03144      1.82398
     9.90991      0.03064      1.82247      0.03180      1.82871
     9.92492      0.03097      1.82708      0.03217      1.83349
     9.93994      0.03131      1.83173      0.03254      1.83833
     9.95496      0.03166      1.83645      0.03293      1.84322
     9.96997      0.03201      1.84121      0.03332      1.84817
     9.98499      0.03237      1.84602      0.03373      1.85318
    10.00000      0.03274      1.85089      0.03414      1.85825
    10.01502      0.03312      1.85581      0.03457      1.86339
    10.03003      0.03350      1.86080      0.03500      1.86859
    10.04505      0.03390      1.86583      0.03545      1.87385
    10.06006      0.03430      1.87093      0.03591      1.87918
    10.07508      0.03472      1.87609      0.03638      1.88458
    10.09009      0.03515      1.88131      0.03687      1.89005
    10.10511      0.03558      1.88660      0.03737      1.89559
    10.12012      0.03603      1.89195      0.03788      1.90120
    10.13514      0.03649      1.89736      0.03841      1.90690
    10.15015      0.03696      1.90285      0.03896      1.91267
    10.16516      0.03745      1.90841      0.03952      1.91852
    10.18018      0.03795      1.91404      0.04010      1.92446
    10.19520      0.03846      1.91974      0.04070      1.93049
    10.21021      0.03899      1.92552      0.04131      1.93660
    10.22523      0.03953      1.93138      0.04195      1.94280
    10.24024      0.04009      1.93732      0.04261      1.94910
    10.25526      0.04067      1.94335      0.04328      1.95550
    10.27027      0.04126      1.94946      0.04399      1.96200
    10.28529      0.04187      1.95566      0.04471      1.96860
    10.30030      0.04250      1.96195      0.04547      1.97531
    10.31532      0.04316      1.96833      0.04625      1.98213
    10.33033      0.04383      1.97481      0.04706      1.98907
    10.34535      0.04452      1.98139      0.04790      1.99613
    10.36036      0.04524      1.98808      0.04877      2.00331
    10.37538      0.04599      1.99487      0.04968      2.01062
    10.39039      0.04676      2.00177      0.05062      2.01806
    10.40541      0.04756      2.00879      0.05160      2.02565
    10.42042      0.04838      2.01592      0.05262      2.03338
    10.43544      0.04924      2.02318      0.05369      2.04126
    10.45045      0.05013      2.03056      0.05480      2.04929
    10.46547      0.05106      2.03808      0.05596      2.05749
    10.48048      0.05202      2.04573      0.05718      2.06586
    10.49550      0.05303      2.05353      0.05845      2.07441
    10.51051      0.05407      2.06147      0.05978      2.08314
    10.52553      0.05516      2.06957      0.06117      2.09207
    10.54054      0.05629      2.07782      0.06264      2.10120
    10.55556      0.05748      2.08625      0.06418      2.11055
    10.57057      0.05872      2.09485      0.06580      2.12011
    10.58559      0.06001      2.10363      0.06751      2.12991
    10.60060      0.06137      2.11259      0.06931      2.13997
    10.61562      0.06280      2.12176      0.07121      2.15027
    10.63063      0.06429      2.13113      0.07322      2.16086
    10.64565      0.06586      2.14073      0.07535      2.17173
    10.66066      0.06751      2.15055      0.07761      2.18290
    10.67568      0.06925      2.16060      0.08001      2.19440
    10.69069      0.07108      2.17092      0.08256      2.20623
    10.70571      0.07302      2.18149      0.08529      2.21843
    10.72072      0.07507      2.19234      0.08819      2.23101
    10.73574      0.07723      2.20349      0.09130      2.24399
    10.75075      0.07953      2.21494      0.09462      2.25741
    10.76577      0.08197      2.22672      0.09820      2.27129
    10.78078      0.08457      2.23885      0.10204      2.28566
    10.79580      0.08734      2.25135      0.10618      2.30055
    10.81081      0.09029      2.26423      0.11066      2.31601
    10.82583      0.09345      2.27753      0.11551      2.33206
    10.84084      0.09683      2.29127      0.12077      2.34877
    10.85586      0.10046      2.30547      0.12650      2.36616
    10.87087      0.10436      2.32018      0.13275      2.38431
    10.88589      0.10857      2.33541      0.13959      2.40325
    10.90090      0.11312      2.35122      0.14710      2.42307
    10.91592      0.11804      2.36764      0.15537      2.44381
    10.93093      0.12339      2.38471      0.16452      2.46558
    10.94595      0.12921      2.40249      0.17465      2.48844
    10.96096      0.13556      2.42102      0.18593      2.51248
    10.97598      0.14251      2.44037      0.19854      2.53781
    10.99099      0.15014      2.46060      0.21268      2.56453
    11.00601      0.15855      2.48179      0.22862      2.59275
    11.02102      0.16784      2.50400      0.24667      2.62259
    11.03604      0.17814      2.52732      0.26719      2.65415
    11.05105      0.18961      2.55184      0.29066      2.68756
    11.06607      0.20243      2.57767      0.31763      2.72291
    11.08108      0.21681      2.60490      0.34879      2.76026
    11.09610      0.23303      2.63366      0.38501      2.79962
    11.11111      0.25139      2.66404      0.42734      2.84091
    11.12613      0.27229      2.69618      0.47709      2.88389
    11.14114      0.29619      2.73019      0.53587      2.92805
    11.15616      0.32368      2.76614      0.60564      2.97249
    11.17117      0.35545      2.80411      0.68872      3.01570
    11.18619      0.39240      2.84410      0.78779      3.05518
    11.20120      0.43561      2.88600      0.90569      3.08704
    11.21622      0.48642      2.92955      1.04494      3.10536
    11.23123      0.54647      2.97420      1.20678      3.10162
    11.24625      0.61778      3.01900      1.38943      3.06435
    11.26126      0.70271      3.06232      1.58539      2.97998
    11.27628      0.80399      3.10154      1.77864      2.83587
    11.29129      0.92443      3.13254      1.94366      2.62655
    11.30631      1.06647      3.14912      2.05000      2.36131
    11.32132      1.23109      3.14240      2.07344      2.06746
    11.33634      1.41597      3.10058      2.00825      1.78344
    11.35135      1.61271      3.00998      1.87046      1.54377
    11.36637      1.80411      2.85845      1.68905      1.36702
    11.38138      1.96366      2.64193      1.49307      1.25435
    11.39640      2.06097      2.37188      1.30349      1.19580
    11.41141      2.07350      2.07760      1.13181      1.17770
    11.42643      1.99827      1.79790      0.98235      1.18731
    11.44144      1.85355      1.56582      0.85513      1.21461
    11.45646      1.66900      1.39767      0.74811      1.25241
    11.47147      1.47295      1.29281      0.65853      1.29589
    11.48649      1.28518      1.24050      0.58359      1.34192
    11.50150      1.11618      1.22699      0.52078      1.38852
    11.51652      0.96958      1.23981      0.46796      1.43452
    11.53153      0.84504      1.26932      0.42335      1.47924
    11.54655      0.74039      1.30864      0.38548      1.52233
    11.56156      0.65283      1.35318      0.35320      1.56363
    11.57658      0.57959      1.39999      0.32553      1.60311
    11.59159      0.51821      1.44722      0.30172      1.64081
    11.60661      0.46658      1.49375      0.28114      1.67681
    11.62162      0.42296      1.53895      0.26328      1.71124
    11.63664      0.38595      1.58252      0.24773      1.74419
    11.65165      0.35438      1.62429      0.23414      1.77580
    11.66667      0.32734      1.66427      0.22224      1.80618
    11.68168      0.30407      1.70250      0.21178      1.83544
    11.69670      0.28397      1.73906      0.20259      1.86368
    11.71171      0.26654      1.77407      0.19449      1.89101
    11.72673      0.25137      1.80765      0.18735      1.91750
    11.74174      0.23814      1.83991      0.18105      1.94326
    11.75676      0.22656      1.87097      0.17550      1.96835
    11.77177      0.21642      1.90095      0.17061      1.99285
    11.78679      0.20752      1.92995      0.16631      2.01682
    11.80180      0.19969      1.95807      0.16255      2.04032
    11.81682      0.19282      1.98539      0.15926      2.06341
    11.83183      0.18679      2.01200      0.15641      2.08614
    11.84685      0.18150      2.03799      0.15396      2.10856
    11.86186      0.17687      2.06341      0.15187      2.13071
    11.87688      0.17283      2.08834      0.15011      2.15263
    11.89189      0.16932      2.11284      0.14867      2.17437
    11.90691      0.16629      2.13696      0.14751      2.19597
    11.92192      0.16370      2.16075      0.14663      2.21744
    11.93694      0.16152      2.18428      0.14600      2.23884
    11.95195      0.15970      2.20757      0.14562      2.26019
    11.96697      0.15822      2.23067      0.14546      2.28153
    11.98198      0.15707      2.25364      0.14553      2.30287
    11.99700      0.15621      2.27649      0.14581      2.32426
    12.01201      0.15563      2.29927      0.14630      2.34572
    12.02703      0.15531      2.32202      0.14700      2.36728
    12.04204      0.15525      2.34477      0.14789      2.38896
    12.05706      0.15543      2.36754      0.14899      2.41080
    12.07207      0.15585      2.39039      0.15029      2.43281
    12.08709      0.15650      2.41332      0.15178      2.45503
    12.10210      0.15737      2.43638      0.15348      2.47749
    12.11712      0.15846      2.45959      0.15539      2.50020
    12.13213      0.15978      2.48298      0.15750      2.52321
    12.14715      0.16131      2.50659      0.15983      2.54654
    12.16216      0.16305      2.53044      0.16238      2.57021
    12.17718      0.16503      2.55457      0.16516      2.59426
    12.19219      0.16722      2.57899      0.16819      2.61873
    12.20721      0.16965      2.60375      0.17146      2.64364
    12.22222      0.17231      2.62888      0.17501      2.66902
    12.23724      0.17521      2.65441      0.17883      2.69493
    12.25225      0.17837      2.68037      0.18295      2.72138
    12.26727      0.18179      2.70680      0.18739      2.74843
    12.28228      0.18548      2.73373      0.19217      2.77612
    12.29730      0.18946      2.76121      0.19731      2.80449
    12.31231      0.19375      2.78926      0.20285      2.83359
    12.32733      0.19836      2.81794      0.20882      2.86347
    12.34234      0.20331      2.84729      0.21524      2.89419
    12.35736      0.20862      2.87736      0.22217      2.92581
    12.37237      0.21432      2.90818      0.22965      2.95839
    12.38739      0.22044      2.93983      0.23773      2.99200
    12.40240      0.22701      2.97235      0.24648      3.02672
    12.41742      0.23407      3.00581      0.25597      3.06263
    12.43243      0.24165      3.04026      0.26627      3.09980
    12.44745      0.24981      3.07578      0.27749      3.13835
    12.46246      0.25858      3.11245      0.28972      3.17837
    12.47748      0.26804      3.15033      0.30309      3.21998
    12.49249      0.27824      3.18953      0.31775      3.26329
    12.50751      0.28926      3.23014      0.33388      3.30844
    12.52252      0.30118      3.27225      0.35167      3.35557
    12.53754      0.31410      3.31598      0.37136      3.40484
    12.55255      0.32813      3.36145      0.39324      3.45641
    12.56757      0.34339      3.40879      0.41765      3.51044
    12.58258      0.36003      3.45815      0.44500      3.56713
    12.59760      0.37822      3.50969      0.47579      3.62665
    12.61261      0.39815      3.56356      0.51062      3.68916
    12.62763      0.42005      3.61996      0.55023      3.75484
    12.64264      0.44418      3.67910      0.59551      3.82377
    12.65766      0.47085      3.74119      0.64759      3.89601
    12.67267      0.50044      3.80648      0.70781      3.97142
    12.68769      0.53337      3.87522      0.77785      4.04970
    12.70270      0.57016      3.94769      0.85973      4.13015
    12.71772      0.61144      4.02419      0.95589      4.21150
    12.73273      0.65796      4.10501      1.06913      4.29163
    12.74775      0.71063      4.19046      1.20249      4.36710
    12.76276      0.77054      4.28083      1.35887      4.43257
    12.77778      0.83904      4.37636      1.54015      4.48021
    12.79279      0.91779      4.47723      1.74559      4.49928
    12.80781      1.00880      4.58344      1.96940      4.47667
    12.82282      1.11456      4.69476      2.19773      4.39944
    12.83784      1.23808      4.81053      2.40729      4.26051
    12.85285      1.38300      4.92942      2.56859      4.06631
    12.86787      1.55362      5.04907      2.65622      3.84133
    12.88288      1.75477      5.16555      2.66163      3.62325
    12.89790      1.99146      5.27266      2.59870      3.44856
    12.91291      2.26804      5.36117      2.49680      3.33918
    12.92793      2.58655      5.41820      2.38783      3.29890
    12.94294      2.94413      5.42766      2.29710      3.31872
    12.95796      3.33020      5.37259      2.24090      3.38429
    12.97297      3.72514      5.24046      2.22847      3.48078
    12.98799      4.10395      5.02971      2.26508      3.59471
    13.00300      4.44570      4.75199      2.35425      3.71366
    13.01802      4.74292      4.42452      2.49897      3.82486
    13.03303      5.00042      4.05594      2.70161      3.91342
    13.04805      5.22078      3.63853      2.96236      3.96055
    13.06306      5.38778      3.15688      3.27597      3.94244
    13.07808      5.46304      2.60939      3.62657      3.83137
    13.09309      5.40323      2.02648      3.98184      3.60135
    13.10811      5.18822      1.46827      4.29068      3.23991
    13.12312      4.83782      0.99954      4.49136      2.76339
    13.13814      4.40309      0.66158      4.53307      2.22450
    13.15315      3.94189      0.46174      4.40101      1.69964
    13.16817      3.49949      0.38225      4.12438      1.25945
    13.18318      3.10222      0.39496      3.76000      0.94364
    13.19820      2.76073      0.47220      3.36633      0.75663
    13.21321      2.47582      0.59165      2.98640      0.67970
    13.22823      2.24341      0.73712      2.64428      0.68588
    13.24324      2.05771      0.89772      2.34929      0.74966
    13.25826      1.91294      1.06643      2.10196      0.85088
    13.27327      1.80409      1.23896      1.89849      0.97514
    13.28829      1.72724      1.41277      1.73362      1.11277
    13.30330      1.67964      1.58640      1.60205      1.25762
    13.31832      1.65964      1.75902      1.49909      1.40594
    13.33333      1.66671      1.92999      1.42090      1.55558
    13.34835      1.70140      2.09855      1.36452      1.70545
    13.36336      1.76531      2.26347      1.32778      1.85508
    13.37838      1.86110      2.42258      1.30928      2.00442
    13.39339      1.99237      2.57222      1.30832      2.15362
    13.40841      2.16337      2.70638      1.32486      2.30289
    13.42342      2.37826      2.81577      1.35951      2.45238
    13.43844      2.63967      2.88668      1.41359      2.60204
    13.45345      2.94590      2.90030      1.48917      2.75143
    13.46847      3.28695      2.83358      1.58907      2.89945
    13.48348      3.63974      2.66326      1.71699      3.04399
    13.49850      3.96577      2.37434      1.87740      3.18137
    13.51351      4.21534      1.97126      2.07534      3.30554
    13.52853      4.34073      1.48540      2.31569      3.40709
    13.54354      4.31353      0.97161      2.60177      3.47213
    13.55856      4.13637      0.49297      2.93261      3.48147
    13.57357      3.84174      0.10109      3.29877      3.41134
    13.58859      3.47856     -0.17742      3.67731      3.23736
    13.60360      3.09493     -0.34229      4.02883      2.94323
    13.61862      2.72632     -0.41081      4.30142      2.53301
    13.63363      2.39280     -0.40682      4.44466      2.04000
    13.64865      2.10211     -0.35298      4.42945      1.52355
    13.66366      1.85424     -0.26738      4.26155      1.05101
    13.67868      1.64548     -0.16314      3.97901      0.67529
    13.69369      1.47062     -0.04909      3.63530      0.42052
    13.70871      1.32447      0.06901      3.28047      0.28336
    13.72372      1.20226      0.18762      2.94981      0.24371
    13.73874      1.09997      0.30462      2.66287      0.27639
    13.75375      1.01424      0.41888      2.42726      0.35826
    13.76877      0.94236      0.52983      2.24389      0.47091
    13.78378      0.88214      0.63732      2.11055      0.60063
    13.79880      0.83184      0.74140      2.02435      0.73708
    13.81381      0.79010      0.84227      1.98275      0.87190
    13.82883      0.75582      0.94024      1.98381      0.99721
    13.84384      0.72818      1.03562      2.02576      1.10430
    13.85886      0.70655      1.12880      2.10577      1.18256
    13.87387      0.69051      1.22011      2.21780      1.21911
    13.88889      0.67977      1.30994      2.34972      1.20000
    13.90390      0.67420      1.39863      2.48053      1.11409
    13.91892      0.67382      1.48653      2.58089      0.95998
    13.93393      0.67881      1.57393      2.61969      0.75304
    13.94895      0.68950      1.66115      2.57659      0.52566
    13.96396      0.70639      1.74837      2.45236      0.31706
    13.97898      0.73022      1.83577      2.26791      0.15771
    13.99399      0.76197      1.92335      2.05303      0.06051
    14.00901      0.80289      2.01093      1.83423      0.02239
    14.02402      0.85458      2.09800      1.62900      0.03172
    14.03904      0.91904      2.18362      1.44586      0.07498
    14.05406      0.99864      2.26604      1.28721      0.14041
    14.06907      1.09604      2.34244      1.15200      0.21908
    14.08409      1.21399      2.40838      1.03762      0.30482
    14.09910      1.35462      2.45714      0.94112      0.39354
    14.11411      1.51831      2.47924      0.85963      0.48269
    14.12913      1.70149      2.46234      0.79062      0.57070
    14.14415      1.89391      2.39276      0.73198      0.65672
    14.15916      2.07597      2.25967      0.68194      0.74027
    14.17418      2.21951      2.06206      0.63908      0.82119
    14.18919      2.29471      1.81586      0.60222      0.89946
    14.20420      2.28279      1.55374      0.57042      0.97517
    14.21922      2.18612      1.31469      0.54293      1.04846
    14.23423      2.02677      1.12841      0.51910      1.11952
    14.24925      1.83514      1.00695      0.49844      1.18850
    14.26427      1.63787      0.94661      0.48052      1.25564
    14.27928      1.45247      0.93542      0.46500      1.32109
    14.29429      1.28749      0.95972      0.45161      1.38505
    14.30931      1.14542      1.00769      0.44010      1.44769
    14.32432      1.02530      1.07040      0.43028      1.50918
    14.33934      0.92473      1.14163      0.42199      1.56968
    14.35435      0.84089      1.21725      0.41511      1.62934
    14.36937      0.77105      1.29466      0.40952      1.68831
    14.38438      0.71283      1.37224      0.40515      1.74672
    14.39940      0.66421      1.44907      0.40191      1.80471
    14.41441      0.62356      1.52464      0.39977      1.86240
    14.42943      0.58951      1.59872      0.39867      1.91993
    14.44444      0.56099      1.67124      0.39861      1.97742
    14.45946      0.53712      1.74227      0.39956      2.03499
    14.47447      0.51720      1.81189      0.40152      2.09276
    14.48949      0.50066      1.88025      0.40451      2.15086
    14.50450      0.48705      1.94751      0.40856      2.20940
    14.51952      0.47598      2.01385      0.41369      2.26853
    14.53453      0.46718      2.07942      0.41997      2.32836
    14.54955      0.46038      2.14441      0.42747      2.38904
    14.56456      0.45541      2.20897      0.43626      2.45070
    14.57958      0.45209      2.27328      0.44645      2.51350
    14.59460      0.45032      2.33749      0.45818      2.57758
    14.60961      0.45000      2.40174      0.47159      2.64309
    14.62463      0.45106      2.46620      0.48689      2.71023
    14.63964      0.45346      2.53102      0.50430      2.77916
    14.65466      0.45716      2.59636      0.52409      2.85008
    14.66967      0.46215      2.66235      0.54660      2.92317
    14.68469      0.46845      2.72916      0.57223      2.99864
    14.69970      0.47607      2.79694      0.60149      3.07668
    14.71472      0.48506      2.86585      0.63498      3.15748
    14.72973      0.49548      2.93605      0.67343      3.24120
    14.74475      0.50740      3.00772      0.71776      3.32797
    14.75976      0.52093      3.08103      0.76909      3.41779
    14.77478      0.53617      3.15619      0.82882      3.51056
    14.78979      0.55328      3.23337      0.89862      3.60589
    14.80481      0.57244      3.31281      0.98056      3.70307
    14.81982      0.59385      3.39471      1.07709      3.80072
    14.83484      0.61775      3.47934      1.19104      3.89656
    14.84985      0.64446      3.56694      1.32543      3.98693
    14.86487      0.67432      3.65779      1.48300      4.06618
    14.87988      0.70775      3.75218      1.66536      4.12608
    14.89490      0.74526      3.85042      1.87114      4.15550
    14.90991      0.78746      3.95285      2.09354      4.14111
    14.92492      0.83508      4.05977      2.31727      4.07042
    14.93994      0.88902      4.17155      2.51771      3.93776
    14.95496      0.95036      4.28846      2.66502      3.75203
    14.96997      1.02042      4.41081      2.73526      3.54013
    14.98499      1.10082      4.53876      2.72275      3.34063
    15.00000      1.19355      4.67234      2.64390      3.18868
# 
# 07/24/2018 at 09:14 YAMBO @ NewLaptop [start]
# 07/24/2018 at 09:14                   [end]
#
# .-Input file : yambo.in
# | optics                         # [R OPT] Optics
# | bse                            # [R BSE] Bethe Salpeter Equation.
# | bsk                            # [R BSK] Bethe Salpeter Equation kernel
# | bss                            # [R BSS] Bethe Salpeter Equation solver
# | tddft                          # [R   K] Use TDDFT kernel
# | BoseTemp= 0.000000     eV      # Bosonic Temperature
# | FFTGvecs=  4945        RL      # [FFT] Plane-waves
# | NonPDirs= "XYZ"                # [X/BSS] Non periodic chartesian directions (X,Y,Z,XY...)
# | BSEmod= "retarded"             # [BSE] resonant/retarded/coupling
# | BSKmod= "ALDA"                 # [BSE] IP/Hartree/HF/ALDA/SEX/BSfxc
# | BSSmod= "d"                    # [BSS] (h)aydock/(d)iagonalization/(i)nversion/(t)ddft`
# | BSENGexx=  4067        RL      # [BSK] Exchange components
# | % BEnRange
# |   0.00000 | 15.00000 | eV      # [BSS] Energy range
# | %
# | % BDmRange
# |   0.10000 |  0.10000 | eV      # [BSS] Damping range
# | %
# | BEnSteps= 1000                 # [BSS] Energy steps
# | % BLongDir
# | 0.1000E-4 | 0.000    | 0.000    |        # [BSS] [cc] Electric Field
# | %
# | % BSEBands
# |    1 |  50 |                   # [BSK] Bands range
# | %
