#                                                           
#  __  __   ________   ___ __ __    _______   ______        
# /_/\/_/\ /_______/\ /__//_//_/\ /_______/\ /_____/\       
# \ \ \ \ \\::: _  \ \\::\| \| \ \\::: _  \ \\:::_ \ \      
#  \:\_\ \ \\::(_)  \ \\:.      \ \\::(_)  \/_\:\ \ \ \     
#   \::::_\/ \:: __  \ \\:.\-/\  \ \\::  _  \ \\:\ \ \ \    
#     \::\ \  \:.\ \  \ \\. \  \  \ \\::(_)  \ \\:\_\ \ \   
#      \__\/   \__\/\__\/ \__\/ \__\/ \_______\/ \_____\/   
#                                                           
#                                                           
#        Version 4.3.0 Revision 15624 Hash 7ed12fb          
#                      MPI+SLK Build                        
#                http://www.yambo-code.org                  
#
# Polarizability ( -<<X>> ) [volume @ Q(1) [q->0 direction]0.1000E-4  0.000     0.000   
#
#
# - Energies      are  Analyt. E
# - Wavefunctions are Teter 93(XC)
#
# - The Green`s function is Retarded -
# - Using the Length Gauge -
# - [r,Vnl] *is* included -
#
#   BSK|Identifier              :4
#      |Dimension               :49
#      |Bands                   :1 - 50
#      |Exchange           [res]: yes
#      |Correlation        [res]: yes
#      |Kernel`s coupling       : no
#      |Exchange           [cpl]: no
#      |Correlation        [cpl]: no
#      |W interaction is bare   : no
#      |ALDA kernel in R-space  : no
#      |RL vectors    [exchange]:437
#      |RL vectors [correlation]:515
#      |E/h energy range    [ev]:-1.000000 - -1.000000
#      |Coupling range     [o/o]: 100.0000 -  100.0000
#    W |Interaction is diagonal : no
#      |Matrix size             :515
#      |Bands                   :1 - 50
#      |e/h energy range    [ev]:-1.000000 - -1.000000
#      |Poles              [o/o]: 100.0000
#      |RL vectors in the sum   :4945
#      |[r,Vnl] included        : yes
#      |Field direction         :0.1000E-4  0.000000  0.000000
#      |Coulomb Cutoff          :none
#      |xc-Kernel               :none
#   RIM|RL components      [col]:0
#      |Random points      [col]:0
#
#    E/ev[1]      ALPHA-Im[2]  ALPHA-Re[3]  ALPHAo-Im[4] ALPHAo-Re[5]
#
    0.000000     0.000000     5.006998     0.000000     3.405004
   0.2002E-1    0.8827E-4     5.007       0.2747E-4     3.405   
   0.4004E-1    0.1766E-3     5.007       0.5493E-4     3.405   
   0.6006E-1    0.2648E-3     5.007       0.8240E-4     3.405   
   0.8008E-1    0.3531E-3     5.007       0.1099E-3     3.405   
   0.1001       0.4414E-3     5.007       0.1373E-3     3.405   
   0.1201       0.5297E-3     5.007       0.1648E-3     3.405   
   0.1401       0.6180E-3     5.007       0.1923E-3     3.405   
   0.1602       0.7064E-3     5.008       0.2198E-3     3.405   
   0.1802       0.7947E-3     5.008       0.2472E-3     3.405   
   0.2002       0.8831E-3     5.008       0.2747E-3     3.405   
   0.2202       0.9715E-3     5.008       0.3022E-3     3.405   
   0.2402       0.1060E-2     5.008       0.3297E-3     3.405   
   0.2603       0.1148E-2     5.008       0.3572E-3     3.405   
   0.2803       0.1237E-2     5.009       0.3847E-3     3.406   
   0.3003       0.1325E-2     5.009       0.4122E-3     3.406   
   0.3203       0.1414E-2     5.009       0.4397E-3     3.406   
   0.3403       0.1502E-2     5.010       0.4672E-3     3.406   
   0.3604       0.1591E-2     5.010       0.4947E-3     3.406   
   0.3804       0.1679E-2     5.010       0.5222E-3     3.406   
   0.4004       0.1768E-2     5.011       0.5497E-3     3.406   
   0.4204       0.1857E-2     5.011       0.5772E-3     3.406   
   0.4404       0.1945E-2     5.011       0.6048E-3     3.406   
   0.4605       0.2034E-2     5.012       0.6323E-3     3.406   
   0.4805       0.2123E-2     5.012       0.6599E-3     3.407   
   0.5005       0.2212E-2     5.013       0.6874E-3     3.407   
   0.5205       0.2301E-2     5.013       0.7150E-3     3.407   
   0.5405       0.2390E-2     5.013       0.7425E-3     3.407   
   0.5606       0.2479E-2     5.014       0.7701E-3     3.407   
   0.5806       0.2568E-2     5.014       0.7977E-3     3.407   
   0.6006       0.2657E-2     5.015       0.8253E-3     3.407   
   0.6206       0.2746E-2     5.015       0.8529E-3     3.408   
   0.6406       0.2835E-2     5.016       0.8805E-3     3.408   
   0.6607       0.2925E-2     5.017       0.9081E-3     3.408   
   0.6807       0.3014E-2     5.017       0.9357E-3     3.408   
   0.7007       0.3103E-2     5.018       0.9633E-3     3.408   
   0.7207       0.3193E-2     5.018       0.9910E-3     3.409   
   0.7407       0.3283E-2     5.019       0.1019E-2     3.409   
   0.7608       0.3372E-2     5.020       0.1046E-2     3.409   
   0.7808       0.3462E-2     5.020       0.1074E-2     3.409   
   0.8008       0.3552E-2     5.021       0.1102E-2     3.409   
   0.8208       0.3642E-2     5.022       0.1129E-2     3.410   
   0.8408       0.3732E-2     5.023       0.1157E-2     3.410   
   0.8609       0.3822E-2     5.023       0.1185E-2     3.410   
   0.8809       0.3912E-2     5.024       0.1212E-2     3.410   
   0.9009       0.4002E-2     5.025       0.1240E-2     3.411   
   0.9209       0.4092E-2     5.026       0.1268E-2     3.411   
   0.9409       0.4183E-2     5.027       0.1296E-2     3.411   
   0.9610       0.4273E-2     5.027       0.1324E-2     3.411   
   0.9810       0.4364E-2     5.028       0.1351E-2     3.412   
    1.001       0.4454E-2     5.029       0.1379E-2     3.412   
    1.021       0.4545E-2     5.030       0.1407E-2     3.412   
    1.041       0.4636E-2     5.031       0.1435E-2     3.412   
    1.061       0.4727E-2     5.032       0.1463E-2     3.413   
    1.081       0.4818E-2     5.033       0.1491E-2     3.413   
    1.101       0.4909E-2     5.034       0.1518E-2     3.413   
    1.121       0.5001E-2     5.035       0.1546E-2     3.414   
    1.141       0.5092E-2     5.036       0.1574E-2     3.414   
    1.161       0.5183E-2     5.037       0.1602E-2     3.414   
    1.181       0.5275E-2     5.038       0.1630E-2     3.415   
    1.201       0.5367E-2     5.039       0.1658E-2     3.415   
    1.221       0.5459E-2     5.040       0.1686E-2     3.415   
    1.241       0.5551E-2     5.041       0.1714E-2     3.416   
    1.261       0.5643E-2     5.042       0.1742E-2     3.416   
    1.281       0.5735E-2     5.043       0.1770E-2     3.416   
    1.301       0.5827E-2     5.045       0.1798E-2     3.417   
    1.321       0.5920E-2     5.046       0.1826E-2     3.417   
    1.341       0.6013E-2     5.047       0.1854E-2     3.417   
    1.361       0.6105E-2     5.048       0.1882E-2     3.418   
    1.381       0.6198E-2     5.049       0.1911E-2     3.418   
    1.401       0.6291E-2     5.051       0.1939E-2     3.419   
    1.421       0.6385E-2     5.052       0.1967E-2     3.419   
    1.441       0.6478E-2     5.053       0.1995E-2     3.419   
    1.461       0.6571E-2     5.055       0.2023E-2     3.420   
    1.481       0.6665E-2     5.056       0.2051E-2     3.420   
    1.502       0.6759E-2     5.057       0.2080E-2     3.421   
    1.522       0.6853E-2     5.059       0.2108E-2     3.421   
    1.542       0.6947E-2     5.060       0.2136E-2     3.421   
    1.562       0.7041E-2     5.061       0.2165E-2     3.422   
    1.582       0.7136E-2     5.063       0.2193E-2     3.422   
    1.602       0.7230E-2     5.064       0.2221E-2     3.423   
    1.622       0.7325E-2     5.066       0.2250E-2     3.423   
    1.642       0.7420E-2     5.067       0.2278E-2     3.424   
    1.662       0.7515E-2     5.069       0.2306E-2     3.424   
    1.682       0.7610E-2     5.070       0.2335E-2     3.425   
    1.702       0.7705E-2     5.072       0.2363E-2     3.425   
    1.722       0.7801E-2     5.073       0.2392E-2     3.425   
    1.742       0.7897E-2     5.075       0.2420E-2     3.426   
    1.762       0.7993E-2     5.076       0.2449E-2     3.426   
    1.782       0.8089E-2     5.078       0.2477E-2     3.427   
    1.802       0.8185E-2     5.080       0.2506E-2     3.427   
    1.822       0.8282E-2     5.081       0.2535E-2     3.428   
    1.842       0.8378E-2     5.083       0.2563E-2     3.428   
    1.862       0.8475E-2     5.085       0.2592E-2     3.429   
    1.882       0.8572E-2     5.086       0.2621E-2     3.429   
    1.902       0.8670E-2     5.088       0.2649E-2     3.430   
    1.922       0.8767E-2     5.090       0.2678E-2     3.431   
    1.942       0.8865E-2     5.092       0.2707E-2     3.431   
    1.962       0.8963E-2     5.093       0.2736E-2     3.432   
    1.982       0.9061E-2     5.095       0.2765E-2     3.432   
    2.002       0.9159E-2     5.097       0.2794E-2     3.433   
    2.022       0.9258E-2     5.099       0.2822E-2     3.433   
    2.042       0.9356E-2     5.101       0.2851E-2     3.434   
    2.062       0.9455E-2     5.103       0.2880E-2     3.434   
    2.082       0.9555E-2     5.104       0.2909E-2     3.435   
    2.102       0.9654E-2     5.106       0.2938E-2     3.436   
    2.122       0.9754E-2     5.108       0.2967E-2     3.436   
    2.142       0.9853E-2     5.110       0.2996E-2     3.437   
    2.162       0.9954E-2     5.112       0.3026E-2     3.437   
    2.182       0.1005E-1     5.114       0.3055E-2     3.438   
    2.202       0.1015E-1     5.116       0.3084E-2     3.439   
    2.222       0.1026E-1     5.118       0.3113E-2     3.439   
    2.242       0.1036E-1     5.120       0.3142E-2     3.440   
    2.262       0.1046E-1     5.122       0.3172E-2     3.440   
    2.282       0.1056E-1     5.125       0.3201E-2     3.441   
    2.302       0.1066E-1     5.127       0.3230E-2     3.442   
    2.322       0.1076E-1     5.129       0.3260E-2     3.442   
    2.342       0.1087E-1     5.131       0.3289E-2     3.443   
    2.362       0.1097E-1     5.133       0.3318E-2     3.444   
    2.382       0.1107E-1     5.135       0.3348E-2     3.444   
    2.402       0.1117E-1     5.138       0.3377E-2     3.445   
    2.422       0.1128E-1     5.140       0.3407E-2     3.446   
    2.442       0.1138E-1     5.142       0.3437E-2     3.446   
    2.462       0.1148E-1     5.144       0.3466E-2     3.447   
    2.482       0.1159E-1     5.147       0.3496E-2     3.448   
    2.503       0.1169E-1     5.149       0.3526E-2     3.449   
    2.523       0.1180E-1     5.151       0.3555E-2     3.449   
    2.543       0.1190E-1     5.154       0.3585E-2     3.450   
    2.563       0.1201E-1     5.156       0.3615E-2     3.451   
    2.583       0.1211E-1     5.159       0.3645E-2     3.451   
    2.603       0.1222E-1     5.161       0.3675E-2     3.452   
    2.623       0.1233E-1     5.164       0.3704E-2     3.453   
    2.643       0.1243E-1     5.166       0.3734E-2     3.454   
    2.663       0.1254E-1     5.168       0.3764E-2     3.454   
    2.683       0.1265E-1     5.171       0.3794E-2     3.455   
    2.703       0.1275E-1     5.174       0.3825E-2     3.456   
    2.723       0.1286E-1     5.176       0.3855E-2     3.457   
    2.743       0.1297E-1     5.179       0.3885E-2     3.457   
    2.763       0.1308E-1     5.181       0.3915E-2     3.458   
    2.783       0.1319E-1     5.184       0.3945E-2     3.459   
    2.803       0.1329E-1     5.187       0.3976E-2     3.460   
    2.823       0.1340E-1     5.189       0.4006E-2     3.461   
    2.843       0.1351E-1     5.192       0.4036E-2     3.461   
    2.863       0.1362E-1     5.195       0.4067E-2     3.462   
    2.883       0.1373E-1     5.197       0.4097E-2     3.463   
    2.903       0.1384E-1     5.200       0.4128E-2     3.464   
    2.923       0.1395E-1     5.203       0.4158E-2     3.465   
    2.943       0.1407E-1     5.206       0.4189E-2     3.465   
    2.963       0.1418E-1     5.209       0.4219E-2     3.466   
    2.983       0.1429E-1     5.211       0.4250E-2     3.467   
    3.003       0.1440E-1     5.214       0.4281E-2     3.468   
    3.023       0.1451E-1     5.217       0.4311E-2     3.469   
    3.043       0.1463E-1     5.220       0.4342E-2     3.470   
    3.063       0.1474E-1     5.223       0.4373E-2     3.471   
    3.083       0.1485E-1     5.226       0.4404E-2     3.472   
    3.103       0.1497E-1     5.229       0.4435E-2     3.472   
    3.123       0.1508E-1     5.232       0.4466E-2     3.473   
    3.143       0.1520E-1     5.235       0.4497E-2     3.474   
    3.163       0.1531E-1     5.238       0.4528E-2     3.475   
    3.183       0.1543E-1     5.241       0.4559E-2     3.476   
    3.203       0.1555E-1     5.244       0.4591E-2     3.477   
    3.223       0.1566E-1     5.247       0.4622E-2     3.478   
    3.243       0.1578E-1     5.251       0.4653E-2     3.479   
    3.263       0.1590E-1     5.254       0.4684E-2     3.480   
    3.283       0.1601E-1     5.257       0.4716E-2     3.481   
    3.303       0.1613E-1     5.260       0.4747E-2     3.482   
    3.323       0.1625E-1     5.263       0.4779E-2     3.483   
    3.343       0.1637E-1     5.267       0.4810E-2     3.483   
    3.363       0.1649E-1     5.270       0.4842E-2     3.484   
    3.383       0.1661E-1     5.273       0.4874E-2     3.485   
    3.403       0.1673E-1     5.277       0.4905E-2     3.486   
    3.423       0.1685E-1     5.280       0.4937E-2     3.487   
    3.443       0.1697E-1     5.283       0.4969E-2     3.488   
    3.463       0.1709E-1     5.287       0.5001E-2     3.489   
    3.483       0.1721E-1     5.290       0.5033E-2     3.490   
    3.504       0.1734E-1     5.294       0.5065E-2     3.491   
    3.524       0.1746E-1     5.297       0.5097E-2     3.492   
    3.544       0.1758E-1     5.301       0.5129E-2     3.493   
    3.564       0.1771E-1     5.304       0.5161E-2     3.494   
    3.584       0.1783E-1     5.308       0.5193E-2     3.496   
    3.604       0.1796E-1     5.311       0.5225E-2     3.497   
    3.624       0.1808E-1     5.315       0.5258E-2     3.498   
    3.644       0.1821E-1     5.318       0.5290E-2     3.499   
      3.6637       0.0183       5.3222       0.0053       3.4997
      3.6837       0.0185       5.3258       0.0054       3.5008
      3.7037       0.0186       5.3295       0.0054       3.5019
      3.7237       0.0187       5.3333       0.0054       3.5030
      3.7437       0.0188       5.3370       0.0055       3.5040
      3.7638       0.0190       5.3408       0.0055       3.5052
      3.7838       0.0191       5.3446       0.0055       3.5062
      3.8038       0.0192       5.3484       0.0056       3.5074
      3.8238       0.0194       5.3523       0.0056       3.5084
      3.8438       0.0195       5.3562       0.0056       3.5096
      3.8639       0.0196       5.3601       0.0057       3.5107
      3.8839       0.0198       5.3641       0.0057       3.5118
      3.9039       0.0199       5.3680       0.0057       3.5130
      3.9239       0.0200       5.3720       0.0057       3.5141
      3.9439       0.0202       5.3760       0.0058       3.5153
      3.9640       0.0203       5.3801       0.0058       3.5165
      3.9840       0.0204       5.3842       0.0058       3.5176
      4.0040       0.0206       5.3883       0.0059       3.5188
      4.0240       0.0207       5.3924       0.0059       3.5200
      4.0440       0.0208       5.3965       0.0060       3.5212
      4.0641       0.0210       5.4007       0.0060       3.5224
      4.0841       0.0211       5.4049       0.0060       3.5235
      4.1041       0.0212       5.4092       0.0061       3.5248
      4.1241       0.0214       5.4134       0.0061       3.5260
      4.1441       0.0215       5.4177       0.0061       3.5272
      4.1642       0.0217       5.4220       0.0062       3.5284
      4.1842       0.0218       5.4264       0.0062       3.5297
      4.2042       0.0219       5.4308       0.0062       3.5309
      4.2242       0.0221       5.4352       0.0063       3.5322
      4.2442       0.0222       5.4396       0.0063       3.5334
      4.2643       0.0224       5.4441       0.0063       3.5347
      4.2843       0.0225       5.4486       0.0064       3.5360
      4.3043       0.0227       5.4531       0.0064       3.5372
      4.3243       0.0228       5.4576       0.0064       3.5385
      4.3443       0.0229       5.4622       0.0065       3.5398
      4.3644       0.0231       5.4668       0.0065       3.5411
      4.3844       0.0232       5.4715       0.0065       3.5424
      4.4044       0.0234       5.4761       0.0066       3.5437
      4.4244       0.0235       5.4808       0.0066       3.5450
      4.4444       0.0237       5.4855       0.0066       3.5464
      4.4645       0.0238       5.4903       0.0067       3.5477
      4.4845       0.0240       5.4951       0.0067       3.5490
      4.5045       0.0241       5.4999       0.0067       3.5504
      4.5245       0.0243       5.5047       0.0068       3.5517
      4.5445       0.0244       5.5096       0.0068       3.5531
      4.5646       0.0246       5.5145       0.0068       3.5544
      4.5846       0.0247       5.5195       0.0069       3.5558
      4.6046       0.0249       5.5244       0.0069       3.5572
      4.6246       0.0250       5.5294       0.0070       3.5586
      4.6446       0.0252       5.5344       0.0070       3.5600
      4.6647       0.0254       5.5395       0.0070       3.5614
      4.6847       0.0255       5.5446       0.0071       3.5628
      4.7047       0.0257       5.5497       0.0071       3.5642
      4.7247       0.0258       5.5549       0.0071       3.5657
      4.7447       0.0260       5.5601       0.0072       3.5671
      4.7648       0.0262       5.5653       0.0072       3.5685
      4.7848       0.0263       5.5706       0.0072       3.5700
      4.8048       0.0265       5.5758       0.0073       3.5714
      4.8248       0.0266       5.5811       0.0073       3.5729
      4.8448       0.0268       5.5865       0.0074       3.5744
      4.8649       0.0270       5.5919       0.0074       3.5758
      4.8849       0.0271       5.5973       0.0074       3.5773
      4.9049       0.0273       5.6027       0.0075       3.5788
      4.9249       0.0275       5.6082       0.0075       3.5803
      4.9449       0.0276       5.6137       0.0075       3.5818
      4.9650       0.0278       5.6193       0.0076       3.5833
      4.9850       0.0280       5.6249       0.0076       3.5848
      5.0050       0.0281       5.6305       0.0077       3.5864
      5.0250       0.0283       5.6361       0.0077       3.5879
      5.0450       0.0285       5.6418       0.0077       3.5895
      5.0651       0.0287       5.6475       0.0078       3.5910
      5.0851       0.0288       5.6533       0.0078       3.5926
      5.1051       0.0290       5.6591       0.0078       3.5941
      5.1251       0.0292       5.6649       0.0079       3.5957
      5.1451       0.0294       5.6707       0.0079       3.5973
      5.1652       0.0295       5.6766       0.0080       3.5989
      5.1852       0.0297       5.6826       0.0080       3.6004
      5.2052       0.0299       5.6885       0.0080       3.6021
      5.2252       0.0301       5.6946       0.0081       3.6037
      5.2452       0.0303       5.7006       0.0081       3.6053
      5.2653       0.0304       5.7067       0.0081       3.6069
      5.2853       0.0306       5.7128       0.0082       3.6085
      5.3053       0.0308       5.7189       0.0082       3.6102
      5.3253       0.0310       5.7251       0.0083       3.6118
      5.3453       0.0312       5.7313       0.0083       3.6135
      5.3654       0.0314       5.7376       0.0083       3.6152
      5.3854       0.0316       5.7439       0.0084       3.6168
      5.4054       0.0318       5.7502       0.0084       3.6185
      5.4254       0.0319       5.7566       0.0085       3.6202
      5.4454       0.0321       5.7630       0.0085       3.6219
      5.4655       0.0323       5.7695       0.0085       3.6236
      5.4855       0.0325       5.7760       0.0086       3.6253
      5.5055       0.0327       5.7825       0.0086       3.6271
      5.5255       0.0329       5.7890       0.0087       3.6288
      5.5455       0.0331       5.7957       0.0087       3.6305
      5.5656       0.0333       5.8023       0.0087       3.6323
      5.5856       0.0335       5.8090       0.0088       3.6340
      5.6056       0.0337       5.8158       0.0088       3.6358
      5.6256       0.0339       5.8225       0.0089       3.6376
      5.6456       0.0341       5.8293       0.0089       3.6393
      5.6657       0.0343       5.8362       0.0089       3.6411
      5.6857       0.0345       5.8430       0.0090       3.6429
      5.7057       0.0347       5.8500       0.0090       3.6447
      5.7257       0.0349       5.8570       0.0091       3.6465
      5.7457       0.0352       5.8640       0.0091       3.6483
      5.7658       0.0354       5.8710       0.0091       3.6502
      5.7858       0.0356       5.8781       0.0092       3.6520
      5.8058       0.0358       5.8853       0.0092       3.6539
      5.8258       0.0360       5.8925       0.0093       3.6557
      5.8458       0.0362       5.8997       0.0093       3.6576
      5.8659       0.0364       5.9070       0.0094       3.6594
      5.8859       0.0367       5.9143       0.0094       3.6613
      5.9059       0.0369       5.9216       0.0094       3.6632
      5.9259       0.0371       5.9291       0.0095       3.6651
      5.9459       0.0373       5.9365       0.0095       3.6670
      5.9660       0.0375       5.9440       0.0096       3.6689
      5.9860       0.0378       5.9515       0.0096       3.6708
      6.0060       0.0380       5.9591       0.0097       3.6727
      6.0260       0.0382       5.9667       0.0097       3.6747
      6.0460       0.0385       5.9744       0.0097       3.6766
      6.0661       0.0387       5.9821       0.0098       3.6786
      6.0861       0.0389       5.9899       0.0098       3.6805
      6.1061       0.0392       5.9977       0.0099       3.6825
      6.1261       0.0394       6.0055       0.0099       3.6845
      6.1461       0.0396       6.0135       0.0100       3.6865
      6.1662       0.0399       6.0214       0.0100       3.6885
     6.18619      0.04011      6.02941      0.01004      3.69048
     6.20621      0.04035      6.03750      0.01009      3.69251
     6.22623      0.04059      6.04557      0.01013      3.69453
     6.24625      0.04084      6.05375      0.01017      3.69655
     6.26627      0.04108      6.06194      0.01022      3.69858
     6.28629      0.04133      6.07017      0.01026      3.70063
     6.30631      0.04158      6.07848      0.01031      3.70269
     6.32633      0.04183      6.08680      0.01035      3.70477
     6.34635      0.04208      6.09521      0.01040      3.70682
     6.36637      0.04234      6.10364      0.01044      3.70892
     6.38639      0.04259      6.11214      0.01049      3.71103
     6.40641      0.04285      6.12071      0.01053      3.71311
     6.42643      0.04311      6.12930      0.01058      3.71524
     6.44645      0.04337      6.13795      0.01062      3.71736
     6.46647      0.04364      6.14667      0.01067      3.71950
     6.48649      0.04390      6.15545      0.01072      3.72162
     6.50651      0.04417      6.16424      0.01076      3.72379
     6.52653      0.04444      6.17310      0.01081      3.72595
     6.54655      0.04471      6.18204      0.01085      3.72810
     6.56657      0.04498      6.19102      0.01090      3.73028
     6.58659      0.04525      6.20003      0.01095      3.73248
     6.60661      0.04553      6.20914      0.01099      3.73466
     6.62663      0.04581      6.21826      0.01104      3.73687
     6.64665      0.04609      6.22747      0.01109      3.73908
     6.66667      0.04637      6.23672      0.01114      3.74132
     6.68669      0.04665      6.24601      0.01118      3.74353
     6.70671      0.04694      6.25539      0.01123      3.74577
     6.72673      0.04723      6.26478      0.01128      3.74804
     6.74675      0.04752      6.27429      0.01133      3.75032
     6.76677      0.04781      6.28382      0.01137      3.75259
     6.78679      0.04810      6.29341      0.01142      3.75486
     6.80681      0.04840      6.30307      0.01147      3.75714
     6.82683      0.04870      6.31279      0.01152      3.75944
     6.84685      0.04900      6.32256      0.01157      3.76178
     6.86687      0.04930      6.33239      0.01162      3.76409
     6.88689      0.04960      6.34231      0.01167      3.76642
     6.90691      0.04991      6.35225      0.01172      3.76874
     6.92693      0.05022      6.36227      0.01176      3.77111
     6.94695      0.05053      6.37234      0.01181      3.77348
     6.96697      0.05084      6.38249      0.01186      3.77585
     6.98699      0.05116      6.39269      0.01191      3.77820
     7.00701      0.05148      6.40297      0.01196      3.78061
     7.02703      0.05180      6.41331      0.01201      3.78301
     7.04705      0.05212      6.42371      0.01206      3.78542
     7.06707      0.05245      6.43418      0.01211      3.78783
     7.08709      0.05278      6.44470      0.01217      3.79026
     7.10711      0.05311      6.45528      0.01222      3.79271
     7.12713      0.05344      6.46596      0.01227      3.79517
     7.14715      0.05377      6.47668      0.01232      3.79762
     7.16717      0.05411      6.48749      0.01237      3.80009
     7.18719      0.05445      6.49834      0.01242      3.80258
     7.20721      0.05480      6.50928      0.01247      3.80507
     7.22723      0.05514      6.52026      0.01252      3.80756
     7.24725      0.05549      6.53135      0.01258      3.81008
     7.26727      0.05584      6.54248      0.01263      3.81259
     7.28729      0.05619      6.55368      0.01268      3.81512
     7.30731      0.05655      6.56495      0.01273      3.81766
     7.32733      0.05691      6.57632      0.01279      3.82023
     7.34735      0.05727      6.58775      0.01284      3.82280
     7.36737      0.05764      6.59924      0.01289      3.82538
     7.38739      0.05800      6.61082      0.01295      3.82796
     7.40741      0.05838      6.62244      0.01300      3.83055
     7.42743      0.05875      6.63417      0.01305      3.83316
     7.44745      0.05913      6.64596      0.01311      3.83577
     7.46747      0.05951      6.65783      0.01316      3.83841
     7.48749      0.05989      6.66979      0.01322      3.84107
     7.50751      0.06027      6.68180      0.01327      3.84371
     7.52753      0.06066      6.69392      0.01333      3.84635
     7.54755      0.06105      6.70608      0.01338      3.84903
     7.56757      0.06145      6.71835      0.01344      3.85173
     7.58759      0.06185      6.73067      0.01349      3.85440
     7.60761      0.06225      6.74309      0.01355      3.85711
     7.62763      0.06266      6.75560      0.01360      3.85985
     7.64765      0.06306      6.76816      0.01366      3.86255
     7.66767      0.06348      6.78086      0.01371      3.86529
     7.68769      0.06389      6.79360      0.01377      3.86806
     7.70771      0.06431      6.80642      0.01383      3.87083
     7.72773      0.06473      6.81936      0.01388      3.87360
     7.74775      0.06516      6.83234      0.01394      3.87637
     7.76777      0.06559      6.84542      0.01400      3.87917
     7.78779      0.06602      6.85858      0.01406      3.88199
     7.80781      0.06646      6.87183      0.01411      3.88479
     7.82783      0.06690      6.88518      0.01417      3.88762
     7.84785      0.06734      6.89861      0.01423      3.89049
     7.86787      0.06779      6.91214      0.01429      3.89335
     7.88789      0.06824      6.92575      0.01435      3.89620
     7.90791      0.06869      6.93945      0.01440      3.89907
     7.92793      0.06915      6.95325      0.01446      3.90196
     7.94795      0.06962      6.96713      0.01452      3.90485
     7.96797      0.07008      6.98110      0.01458      3.90778
     7.98799      0.07056      6.99516      0.01464      3.91069
     8.00801      0.07103      7.00931      0.01470      3.91365
     8.02803      0.07151      7.02359      0.01476      3.91660
     8.04805      0.07200      7.03795      0.01482      3.91956
     8.06807      0.07248      7.05240      0.01488      3.92250
     8.08809      0.07298      7.06697      0.01494      3.92550
     8.10811      0.07347      7.08160      0.01500      3.92851
     8.12813      0.07398      7.09635      0.01507      3.93152
     8.14815      0.07448      7.11122      0.01513      3.93454
     8.16817      0.07499      7.12619      0.01519      3.93755
     8.18819      0.07551      7.14123      0.01525      3.94062
     8.20821      0.07603      7.15639      0.01531      3.94368
     8.22823      0.07655      7.17165      0.01538      3.94676
     8.24825      0.07708      7.18703      0.01544      3.94983
     8.26827      0.07762      7.20250      0.01550      3.95293
     8.28829      0.07816      7.21807      0.01556      3.95604
     8.30831      0.07870      7.23378      0.01563      3.95916
     8.32833      0.07925      7.24958      0.01569      3.96230
     8.34835      0.07981      7.26549      0.01576      3.96544
     8.36837      0.08037      7.28152      0.01582      3.96861
     8.38839      0.08093      7.29764      0.01588      3.97178
     8.40841      0.08150      7.31392      0.01595      3.97498
     8.42843      0.08208      7.33028      0.01601      3.97818
     8.44845      0.08266      7.34675      0.01608      3.98138
     8.46847      0.08324      7.36335      0.01615      3.98461
     8.48849      0.08384      7.38006      0.01621      3.98783
     8.50851      0.08444      7.39690      0.01628      3.99110
     8.52853      0.08504      7.41386      0.01634      3.99436
     8.54855      0.08565      7.43092      0.01641      3.99763
     8.56857      0.08626      7.44811      0.01648      4.00093
     8.58859      0.08689      7.46545      0.01654      4.00421
     8.60861      0.08751      7.48288      0.01661      4.00754
     8.62863      0.08815      7.50046      0.01668      4.01090
     8.64865      0.08879      7.51816      0.01675      4.01421
     8.66867      0.08943      7.53601      0.01682      4.01758
     8.68869      0.09009      7.55394      0.01689      4.02095
     8.70871      0.09075      7.57205      0.01695      4.02435
     8.72873      0.09141      7.59025      0.01702      4.02773
     8.74875      0.09209      7.60863      0.01709      4.03115
     8.76877      0.09277      7.62710      0.01716      4.03459
     8.78879      0.09345      7.64575      0.01723      4.03805
     8.80881      0.09414      7.66451      0.01730      4.04149
     8.82883      0.09485      7.68343      0.01737      4.04497
     8.84885      0.09555      7.70245      0.01744      4.04846
     8.86887      0.09627      7.72165      0.01752      4.05193
     8.88889      0.09699      7.74097      0.01759      4.05547
     8.90891      0.09772      7.76045      0.01766      4.05897
     8.92893      0.09846      7.78006      0.01773      4.06251
     8.94895      0.09920      7.79985      0.01780      4.06608
     8.96897      0.09996      7.81979      0.01788      4.06967
     8.98899      0.10072      7.83985      0.01795      4.07324
     9.00901      0.10148      7.86007      0.01802      4.07684
     9.02903      0.10226      7.88046      0.01810      4.08047
     9.04905      0.10305      7.90100      0.01817      4.08407
     9.06907      0.10384      7.92170      0.01825      4.08772
     9.08909      0.10464      7.94253      0.01832      4.09139
     9.10911      0.10545      7.96355      0.01840      4.09506
     9.12913      0.10627      7.98474      0.01847      4.09875
     9.14915      0.10710      8.00608      0.01855      4.10245
     9.16917      0.10794      8.02760      0.01862      4.10617
     9.18919      0.10879      8.04929      0.01870      4.10990
     9.20921      0.10964      8.07115      0.01878      4.11366
     9.22923      0.11051      8.09317      0.01885      4.11744
     9.24925      0.11138      8.11537      0.01893      4.12120
     9.26927      0.11227      8.13773      0.01901      4.12502
     9.28929      0.11316      8.16027      0.01909      4.12883
     9.30931      0.11407      8.18300      0.01917      4.13266
     9.32933      0.11498      8.20590      0.01924      4.13650
     9.34935      0.11591      8.22901      0.01932      4.14034
     9.36937      0.11684      8.25229      0.01940      4.14423
     9.38939      0.11779      8.27576      0.01948      4.14811
     9.40941      0.11875      8.29942      0.01956      4.15201
     9.42943      0.11971      8.32327      0.01964      4.15597
     9.44945      0.12069      8.34731      0.01973      4.15991
     9.46947      0.12169      8.37153      0.01981      4.16384
     9.48949      0.12269      8.39599      0.01989      4.16781
     9.50951      0.12370      8.42063      0.01997      4.17182
     9.52953      0.12473      8.44547      0.02005      4.17582
     9.54955      0.12577      8.47054      0.02014      4.17985
     9.56957      0.12682      8.49581      0.02022      4.18389
     9.58959      0.12788      8.52126      0.02030      4.18795
     9.60961      0.12896      8.54695      0.02039      4.19202
     9.62963      0.13004      8.57284      0.02047      4.19612
     9.64965      0.13115      8.59898      0.02056      4.20021
     9.66967      0.13226      8.62531      0.02064      4.20433
     9.68969      0.13339      8.65189      0.02073      4.20846
     9.70971      0.13453      8.67868      0.02082      4.21262
     9.72973      0.13569      8.70571      0.02090      4.21680
     9.74975      0.13686      8.73297      0.02099      4.22099
     9.76977      0.13804      8.76045      0.02108      4.22520
     9.78979      0.13924      8.78820      0.02116      4.22943
     9.80981      0.14046      8.81619      0.02125      4.23367
     9.82983      0.14169      8.84440      0.02134      4.23796
     9.84985      0.14294      8.87288      0.02143      4.24224
     9.86987      0.14420      8.90158      0.02152      4.24651
     9.88989      0.14547      8.93056      0.02161      4.25083
     9.90991      0.14677      8.95979      0.02170      4.25517
     9.92993      0.14808      8.98924      0.02179      4.25954
     9.94995      0.14941      9.01900      0.02188      4.26388
     9.96997      0.15075      9.04902      0.02197      4.26828
     9.98999      0.15211      9.07931      0.02207      4.27268
    10.01001      0.15349      9.10988      0.02216      4.27712
    10.03003      0.15489      9.14071      0.02225      4.28155
    10.05005      0.15631      9.17180      0.02235      4.28602
    10.07007      0.15774      9.20323      0.02244      4.29052
    10.09009      0.15920      9.23492      0.02253      4.29501
    10.11011      0.16067      9.26689      0.02263      4.29953
    10.13013      0.16216      9.29918      0.02272      4.30406
    10.15015      0.16368      9.33177      0.02282      4.30862
    10.17017      0.16521      9.36467      0.02292      4.31320
    10.19019      0.16677      9.39789      0.02301      4.31779
    10.21021      0.16834      9.43136      0.02311      4.32241
    10.23023      0.16994      9.46519      0.02321      4.32706
    10.25025      0.17156      9.49933      0.02331      4.33171
    10.27027      0.17321      9.53383      0.02341      4.33640
    10.29029      0.17487      9.56861      0.02351      4.34107
    10.31031      0.17656      9.60374      0.02361      4.34578
    10.33033      0.17827      9.63921      0.02371      4.35052
    10.35035      0.18001      9.67504      0.02381      4.35529
    10.37037      0.18177      9.71122      0.02391      4.36006
    10.39039      0.18356      9.74773      0.02401      4.36486
    10.41041      0.18537      9.78463      0.02411      4.36966
    10.43043      0.18721      9.82190      0.02422      4.37450
    10.45045      0.18908      9.85952      0.02432      4.37936
    10.47047      0.19097      9.89750      0.02442      4.38423
    10.49049      0.19289      9.93588      0.02453      4.38916
    10.51051      0.19484      9.97465      0.02463      4.39406
    10.53053      0.19682     10.01379      0.02474      4.39900
    10.55055      0.19883     10.05334      0.02484      4.40397
    10.57057      0.20087     10.09333      0.02495      4.40895
    10.59059      0.20294     10.13367      0.02506      4.41397
    10.61061      0.20504     10.17446      0.02517      4.41898
    10.63063      0.20717     10.21568      0.02528      4.42403
    10.65065      0.20934     10.25734      0.02538      4.42912
    10.67067      0.21153     10.29939      0.02549      4.43419
    10.69069      0.21377     10.34189      0.02560      4.43930
    10.71071      0.21603     10.38486      0.02572      4.44444
    10.73073      0.21834     10.42829      0.02583      4.44961
    10.75075      0.22068     10.47215      0.02594      4.45478
    10.77077      0.22305     10.51656      0.02605      4.45998
    10.79079      0.22547     10.56135      0.02616      4.46521
    10.81081      0.22792     10.60667      0.02628      4.47045
    10.83083      0.23041     10.65249      0.02639      4.47572
    10.85085      0.23294     10.69880      0.02651      4.48100
    10.87087      0.23552     10.74561      0.02662      4.48633
    10.89089      0.23813     10.79296      0.02674      4.49169
    10.91091      0.24079     10.84084      0.02686      4.49704
    10.93093      0.24349     10.88925      0.02697      4.50243
    10.95095      0.24624     10.93818      0.02709      4.50784
    10.97097      0.24904     10.98768      0.02721      4.51329
    10.99099      0.25188     11.03774      0.02733      4.51873
    11.01101      0.25477     11.08839      0.02745      4.52422
    11.03103      0.25770     11.13958      0.02757      4.52973
    11.05105      0.26069     11.19140      0.02769      4.53527
    11.07107      0.26373     11.24378      0.02782      4.54081
    11.09109      0.26683     11.29680      0.02794      4.54641
    11.11111      0.26997     11.35046      0.02806      4.55200
    11.13113      0.27317     11.40473      0.02819      4.55763
    11.15115      0.27643     11.45967      0.02831      4.56330
    11.17117      0.27975     11.51523      0.02844      4.56896
    11.19119      0.28313     11.57147      0.02857      4.57468
    11.21121      0.28656     11.62840      0.02869      4.58041
    11.23123      0.29006     11.68600      0.02882      4.58616
    11.25125      0.29362     11.74433      0.02895      4.59194
    11.27127      0.29725     11.80337      0.02908      4.59773
    11.29129      0.30095     11.86314      0.02921      4.60357
    11.31131      0.30471     11.92362      0.02934      4.60945
    11.33133      0.30855     11.98492      0.02947      4.61532
    11.35135      0.31245     12.04693      0.02960      4.62123
    11.37137      0.31643     12.10975      0.02974      4.62717
    11.39139      0.32049     12.17341      0.02987      4.63314
    11.41141      0.32462     12.23785      0.03001      4.63913
    11.43143      0.32884     12.30310      0.03014      4.64516
    11.45145      0.33313     12.36926      0.03028      4.65120
    11.47147      0.33751     12.43622      0.03042      4.65728
    11.49149      0.34198     12.50411      0.03055      4.66336
    11.51151      0.34653     12.57287      0.03069      4.66950
    11.53153      0.35118     12.64258      0.03083      4.67564
    11.55155      0.35592     12.71318      0.03097      4.68182
    11.57157      0.36075     12.78475      0.03111      4.68807
    11.59159      0.36568     12.85730      0.03126      4.69428
    11.61161      0.37072     12.93086      0.03140      4.70055
    11.63163      0.37586     13.00539      0.03154      4.70686
    11.65165      0.38110     13.08097      0.03169      4.71320
    11.67167      0.38646     13.15762      0.03183      4.71957
    11.69169      0.39193     13.23534      0.03198      4.72592
    11.71171      0.39751     13.31418      0.03213      4.73236
    11.73173      0.40322     13.39411      0.03228      4.73881
    11.75175      0.40905     13.47522      0.03242      4.74526
    11.77177      0.41500     13.55749      0.03257      4.75179
    11.79179      0.42109     13.64097      0.03273      4.75831
    11.81181      0.42731     13.72565      0.03288      4.76489
    11.83183      0.43366     13.81162      0.03303      4.77147
    11.85185      0.44016     13.89883      0.03318      4.77811
    11.87187      0.44681     13.98734      0.03334      4.78476
    11.89189      0.45361     14.07724      0.03349      4.79145
    11.91191      0.46057     14.16849      0.03365      4.79815
    11.93193      0.46768     14.26113      0.03381      4.80491
    11.95195      0.47496     14.35520      0.03397      4.81171
    11.97197      0.48241     14.45075      0.03413      4.81850
    11.99199      0.49004     14.54779      0.03429      4.82535
    12.01201      0.49785     14.64637      0.03445      4.83224
    12.03203      0.50585     14.74650      0.03461      4.83915
    12.05205      0.51404     14.84826      0.03478      4.84610
    12.07207      0.52244     14.95168      0.03494      4.85308
    12.09209      0.53104     15.05677      0.03511      4.86009
    12.11211      0.53985     15.16358      0.03527      4.86712
    12.13213      0.54888     15.27223      0.03544      4.87419
    12.15215      0.55815     15.38262      0.03561      4.88132
    12.17217      0.56765     15.49493      0.03578      4.88846
    12.19219      0.57739     15.60911      0.03595      4.89564
    12.21221      0.58739     15.72528      0.03612      4.90283
    12.23223      0.59765     15.84343      0.03630      4.91008
    12.25225      0.60818     15.96371      0.03647      4.91737
    12.27227      0.61899     16.08606      0.03665      4.92468
    12.29229      0.63009     16.21058      0.03682      4.93205
    12.31231      0.64150     16.33735      0.03700      4.93943
    12.33233      0.65321     16.46641      0.03718      4.94686
    12.35235      0.66525     16.59782      0.03736      4.95433
    12.37237      0.67763     16.73169      0.03754      4.96182
    12.39239      0.69035     16.86799      0.03773      4.96935
    12.41241      0.70344     17.00693      0.03791      4.97690
    12.43243      0.71691     17.14844      0.03810      4.98452
    12.45245      0.73076     17.29266      0.03828      4.99217
    12.47247      0.74502     17.43971      0.03847      4.99984
    12.49249      0.75970     17.58960      0.03866      5.00756
    12.51251      0.77483     17.74248      0.03885      5.01532
    12.53253      0.79040     17.89833      0.03904      5.02312
    12.55255      0.80646     18.05736      0.03923      5.03096
    12.57257      0.82301     18.21962      0.03943      5.03882
    12.59259      0.84007     18.38524      0.03962      5.04675
    12.61261      0.85767     18.55424      0.03982      5.05469
    12.63263      0.87583     18.72678      0.04002      5.06267
    12.65265      0.89458     18.90301      0.04022      5.07069
    12.67267      0.91393     19.08298      0.04042      5.07876
    12.69269      0.93392     19.26688      0.04062      5.08686
    12.71271      0.95458     19.45475      0.04082      5.09503
    12.73273      0.97593     19.64679      0.04103      5.10322
    12.75275      0.99800     19.84315      0.04123      5.11145
    12.77277      1.02084     20.04391      0.04144      5.11971
    12.79279      1.04447     20.24927      0.04165      5.12804
    12.81281      1.06893     20.45938      0.04186      5.13641
    12.83283      1.09426     20.67441      0.04208      5.14478
    12.85285      1.12050     20.89454      0.04229      5.15323
    12.87287      1.14771     21.11992      0.04250      5.16173
    12.89289      1.17592     21.35077      0.04272      5.17025
    12.91291      1.20518     21.58731      0.04294      5.17881
    12.93293      1.23555     21.82969      0.04316      5.18744
    12.95295      1.26709     22.07822      0.04338      5.19609
    12.97297      1.29985     22.33304      0.04360      5.20481
    12.99299      1.33391     22.59440      0.04383      5.21355
    13.01301      1.36932     22.86265      0.04406      5.22236
    13.03303      1.40616     23.13798      0.04428      5.23119
    13.05305      1.44452     23.42072      0.04451      5.24008
    13.07307      1.48447     23.71112      0.04474      5.24901
    13.09309      1.52610     24.00957      0.04498      5.25799
    13.11311      1.56951     24.31635      0.04521      5.26702
    13.13313      1.61481     24.63184      0.04545      5.27610
    13.15315      1.66210     24.95634      0.04569      5.28521
    13.17317      1.71150     25.29037      0.04593      5.29436
    13.19319      1.76314     25.63428      0.04617      5.30360
    13.21321      1.81716     25.98851      0.04641      5.31285
    13.23323      1.87370     26.35356      0.04666      5.32215
    13.25325      1.93293     26.72989      0.04691      5.33153
    13.27327      1.99501     27.11810      0.04715      5.34095
    13.29329      2.06014     27.51869      0.04741      5.35041
    13.31331      2.12852     27.93226      0.04766      5.35992
    13.33333      2.20036     28.35952      0.04791      5.36947
    13.35335      2.27591     28.80107      0.04817      5.37908
    13.37337      2.35541     29.25771      0.04843      5.38876
    13.39339      2.43916     29.73020      0.04869      5.39846
    13.41341      2.52747     30.21938      0.04895      5.40825
    13.43343      2.62066     30.72609      0.04922      5.41806
    13.45345      2.71910     31.25130      0.04948      5.42795
    13.47347      2.82320     31.79612      0.04975      5.43788
    13.49349      2.93339     32.36157      0.05002      5.44787
    13.51351      3.05016     32.94888      0.05030      5.45789
    13.53353      3.17404     33.55931      0.05057      5.46799
    13.55355      3.30563     34.19427      0.05085      5.47814
    13.57357      3.44556     34.85522      0.05113      5.48833
    13.59359      3.59457     35.54380      0.05141      5.49860
    13.61361      3.75344     36.26176      0.05169      5.50890
    13.63363      3.92307     37.01096      0.05198      5.51929
    13.65365      4.10443     37.79346      0.05227      5.52970
    13.67367      4.29867     38.61162      0.05256      5.54022
    13.69369      4.50698     39.46776      0.05285      5.55073
    13.71371      4.73078     40.36467      0.05315      5.56136
    13.73373      4.97161     41.30513      0.05344      5.57203
    13.75375      5.23125     42.29239      0.05374      5.58277
    13.77377      5.51172     43.33014      0.05405      5.59354
    13.79379      5.81526     44.42200      0.05435      5.60438
    13.81381      6.14445     45.57241      0.05466      5.61530
    13.83383      6.50231     46.78616      0.05497      5.62626
    13.85385      6.89215     48.06823      0.05528      5.63728
    13.87387      7.31791     49.42458      0.05560      5.64839
    13.89389      7.78416     50.86175      0.05591      5.65956
    13.91391      8.29604     52.38676      0.05623      5.67075
    13.93393      8.85976     54.00780      0.05656      5.68203
    13.95395      9.48236     55.73363      0.05688      5.69338
    13.97        10.17        57.57       0.5721E-1     5.705   
    13.99        10.94        59.54       0.5754E-1     5.716   
    14.01        11.80        61.65       0.5788E-1     5.728   
    14.03        12.76        63.91       0.5821E-1     5.739   
    14.05        13.84        66.34       0.5855E-1     5.751   
    14.07        15.06        68.96       0.5889E-1     5.763   
    14.09        16.44        71.79       0.5924E-1     5.775   
    14.11        18.03        74.85       0.5959E-1     5.787   
    14.13        19.85        78.17       0.5994E-1     5.799   
    14.15        21.95        81.78       0.6029E-1     5.811   
    14.17        24.39        85.71       0.6065E-1     5.823   
    14.19        27.25        90.01       0.6101E-1     5.835   
    14.21        30.63        94.70       0.6138E-1     5.847   
    14.23        34.64        99.84       0.6174E-1     5.859   
    14.25        39.46        105.5       0.6211E-1     5.872   
    14.27        45.29        111.6       0.6249E-1     5.884   
    14.29        52.43        118.2       0.6286E-1     5.897   
    14.31        61.23        125.4       0.6324E-1     5.909   
    14.33        72.21        132.9       0.6362E-1     5.922   
    14.35        86.00        140.5       0.6401E-1     5.935   
    14.37        103.4        147.7       0.6440E-1     5.948   
    14.39        125.5        153.5       0.6479E-1     5.961   
    14.41        153.1        156.0       0.6519E-1     5.974   
    14.43        186.7        152.2       0.6559E-1     5.987   
    14.45        225.0        137.9       0.6600E-1     6.000   
    14.47        263.7        108.3       0.6641E-1     6.013   
    14.49        293.8        61.65       0.6682E-1     6.027   
    14.51        305.2        3.126       0.6723E-1     6.040   
    14.53        293.2       -55.09       0.6765E-1     6.053   
    14.55        263.0       -101.0       0.6807E-1     6.067   
    14.57        224.9       -130.0       0.6850E-1     6.081   
    14.59        187.3       -144.1       0.6893E-1     6.094   
    14.61        154.6       -148.1       0.6937E-1     6.108   
    14.63        127.6       -146.1       0.6981E-1     6.122   
    14.65        105.8       -141.1       0.7025E-1     6.136   
    14.67        88.29       -134.6       0.7070E-1     6.150   
    14.69        74.23       -127.4       0.7115E-1     6.165   
    14.71        62.92       -120.2       0.7160E-1     6.179   
    14.73        53.80       -113.2       0.7206E-1     6.193   
    14.75        46.40       -106.6       0.7253E-1     6.208   
    14.77        40.35       -100.5       0.7300E-1     6.222   
    14.79        35.36       -94.88       0.7347E-1     6.237   
    14.81        31.21       -89.71       0.7395E-1     6.252   
    14.83        27.73       -84.97       0.7443E-1     6.266   
    14.85        24.79       -80.63       0.7492E-1     6.281   
    14.87        22.29       -76.66       0.7541E-1     6.296   
    14.89489     20.13399    -73.00850      0.07591      6.31157
    14.91491     18.27473    -69.65205      0.07641      6.32680
    14.93493     16.65824    -66.55865      0.07692      6.34215
    14.95495     15.24457    -63.70113      0.07743      6.35760
    14.97497     14.00153    -61.05529      0.07795      6.37313
    14.99499     12.90326    -58.60036      0.07847      6.38878
    15.01501     11.92823    -56.31724      0.07900      6.40453
    15.03503     11.05902    -54.18977      0.07953      6.42038
    15.05505     10.28094    -52.20305      0.08007      6.43638
    15.07508      9.58175    -50.34394      0.08061      6.45245
    15.09509      8.95134    -48.60123      0.08116      6.46862
    15.11511      8.38101    -46.96454      0.08171      6.48493
    15.13513      7.86337    -45.42458      0.08227      6.50132
    15.15515      7.39226    -43.97349      0.08284      6.51784
    15.17517      6.96225    -42.60366      0.08341      6.53446
    15.19519      6.56878    -41.30889      0.08399      6.55122
    15.21521      6.20783    -40.08307      0.08457      6.56808
    15.23524      5.87592    -38.92087      0.08516      6.58508
    15.25525      5.57007    -37.81771      0.08576      6.60216
    15.27527      5.28764    -36.76911      0.08636      6.61937
    15.29529      5.02628    -35.77108      0.08697      6.63670
    15.31531      4.78401    -34.82023      0.08759      6.65418
    15.33534      4.55899    -33.91317      0.08821      6.67174
    15.35535      4.34966    -33.04709      0.08884      6.68947
    15.37537      4.15459    -32.21914      0.08947      6.70730
    15.39540      3.97252    -31.42686      0.09011      6.72526
    15.41541      3.80235    -30.66804      0.09076      6.74337
    15.43543      3.64307    -29.94056      0.09142      6.76160
    15.45545      3.49375    -29.24244      0.09208      6.77993
    15.47547      3.35362    -28.57208      0.09275      6.79843
    15.49549      3.22194    -27.92772      0.09343      6.81705
    15.51552      3.09803    -27.30778      0.09411      6.83581
    15.53553      2.98133    -26.71106      0.09481      6.85472
    15.55556      2.87127    -26.13604      0.09551      6.87375
    15.57557      2.76739    -25.58174      0.09622      6.89293
    15.59559      2.66922    -25.04693      0.09693      6.91225
    15.61561      2.57636    -24.53051      0.09766      6.93170
    15.63563      2.48845    -24.03166      0.09839      6.95133
    15.65565      2.40515    -23.54939      0.09913      6.97108
    15.67568      2.32613    -23.08278      0.09988      6.99098
    15.69569      2.25113    -22.63119      0.10064      7.01105
    15.71572      2.17988    -22.19381      0.10140      7.03124
    15.73573      2.11214    -21.76995      0.10218      7.05162
    15.75575      2.04769    -21.35898      0.10297      7.07213
    15.77578      1.98632    -20.96022      0.10376      7.09279
    15.79579      1.92785    -20.57317      0.10456      7.11365
    15.81581      1.87210    -20.19730      0.10537      7.13464
    15.83584      1.81892    -19.83202      0.10620      7.15582
    15.85585      1.76816    -19.47692      0.10703      7.17714
    15.87588      1.71967    -19.13150      0.10787      7.19864
    15.89590      1.67333    -18.79542      0.10872      7.22028
    15.91591      1.62902    -18.46821      0.10959      7.24215
    15.93594      1.58663    -18.14949      0.11046      7.26415
    15.95596      1.54607    -17.83890      0.11134      7.28633
    15.97597      1.50722    -17.53612      0.11224      7.30870
    15.99600      1.47000    -17.24076      0.11314      7.33124
    16.01601      1.43433    -16.95262      0.11406      7.35395
    16.03603      1.40013    -16.67129      0.11499      7.37688
    16.05606      1.36733    -16.39658      0.11592      7.39999
    16.07607      1.33586    -16.12819      0.11688      7.42327
    16.09610      1.30566    -15.86581      0.11784      7.44672
    16.11612      1.27666    -15.60936      0.11881      7.47040
    16.13614      1.24882    -15.35845      0.11980      7.49426
    16.15616      1.22207    -15.11291      0.12080      7.51831
    16.17618      1.19637    -14.87260      0.12181      7.54259
    16.19619      1.17168    -14.63721      0.12284      7.56707
    16.21622      1.14795    -14.40660      0.12388      7.59174
    16.23623      1.12514    -14.18056      0.12493      7.61662
    16.25626      1.10321    -13.95897      0.12600      7.64170
    16.27628      1.08212    -13.74161      0.12708      7.66703
    16.29630      1.06186    -13.52838      0.12817      7.69253
    16.31632      1.04237    -13.31903      0.12928      7.71828
    16.33634      1.02364    -13.11345      0.13041      7.74427
    16.35636      1.00563    -12.91155      0.13154      7.77044
    16.37638      0.98832    -12.71308      0.13270      7.79688
    16.39639      0.97169    -12.51804      0.13387      7.82354
    16.41641      0.95571    -12.32616      0.13505      7.85042
    16.43644      0.94036    -12.13746      0.13626      7.87753
    16.45646      0.92563    -11.95167      0.13747      7.90489
    16.47648      0.91150    -11.76876      0.13871      7.93252
    16.49650      0.89794    -11.58860      0.13996      7.96041
    16.51652      0.88495    -11.41107      0.14123      7.98854
    16.53654      0.87251    -11.23607      0.14252      8.01692
    16.55655      0.86061    -11.06350      0.14382      8.04554
    16.57657      0.84924    -10.89323      0.14515      8.07444
    16.59660      0.83838    -10.72518      0.14649      8.10359
    16.61662      0.82804    -10.55924      0.14785      8.13304
    16.63664      0.81821    -10.39528      0.14923      8.16272
    16.65666      0.80888    -10.23328      0.15064      8.19272
    16.67668      0.80006    -10.07310      0.15206      8.22296
    16.69670      0.79173     -9.91459      0.15350      8.25352
    16.71671      0.78392     -9.75777      0.15497      8.28435
    16.73673      0.77662     -9.60246      0.15645      8.31551
    16.75676      0.76986     -9.44858      0.15796      8.34691
    16.77678      0.76365     -9.29609      0.15949      8.37866
    16.79680      0.75802     -9.14481      0.16104      8.41072
    16.81682      0.75300     -8.99472      0.16262      8.44307
    16.83684      0.74866     -8.84575      0.16422      8.47575
    16.85686      0.74506     -8.69773      0.16584      8.50877
    16.87688      0.74230     -8.55071      0.16749      8.54208
    16.89689      0.74049     -8.40465      0.16917      8.57575
    16.91692      0.73980     -8.25949      0.17087      8.60975
    16.93694      0.74039     -8.11548      0.17260      8.64406
    16.95695      0.74238     -7.97285      0.17435      8.67875
    16.97698      0.74576     -7.83210      0.17614      8.71379
    16.99700      0.75010     -7.69395      0.17795      8.74918
    17.01702      0.75434     -7.55884      0.17979      8.78493
    17.03704      0.75686     -7.42649      0.18166      8.82108
    17.05706      0.75637     -7.29528      0.18356      8.85758
    17.07708      0.75295     -7.16299      0.18549      8.89446
    17.09710      0.74806     -7.02814      0.18746      8.93176
    17.11712      0.74334     -6.89043      0.18945      8.96941
    17.13714      0.73988     -6.75046      0.19148      9.00749
    17.15716      0.73811     -6.60878      0.19354      9.04598
    17.17718      0.73816     -6.46589      0.19564      9.08489
    17.19720      0.73997     -6.32201      0.19777      9.12419
    17.21722      0.74354     -6.17727      0.19994      9.16396
    17.23724      0.74887     -6.03156      0.20215      9.20412
    17.25726      0.75606     -5.88489      0.20439      9.24475
    17.27728      0.76530     -5.73723      0.20667      9.28584
    17.29730      0.77686     -5.58855      0.20900      9.32739
    17.31732      0.79113     -5.43900      0.21136      9.36941
    17.33734      0.80857     -5.28887      0.21376      9.41186
    17.35736      0.82960     -5.13897      0.21621      9.45484
    17.37738      0.85440     -4.99051      0.21870      9.49829
    17.39740      0.88228     -4.84535      0.22124      9.54225
    17.41742      0.91096     -4.70537      0.22382      9.58670
    17.43744      0.93626     -4.57071      0.22645      9.63175
    17.45746      0.95381     -4.43826      0.22913      9.67725
    17.47748      0.96222     -4.30190      0.23186      9.72332
    17.49750      0.96452     -4.15629      0.23464      9.76992
    17.51752      0.96556     -3.99953      0.23747      9.81709
    17.53754      0.96914     -3.83257      0.24036      9.86483
    17.55756      0.97709     -3.65721      0.24330      9.91316
    17.57758      0.98997     -3.47491      0.24629      9.96207
    17.59760      1.00772     -3.28653      0.24935     10.01156
    17.61762      1.03014     -3.09235      0.25246     10.06172
    17.63764      1.05709     -2.89224      0.25564     10.11248
    17.65766      1.08855     -2.68596      0.25887     10.16385
    17.67768      1.12460     -2.47292      0.26218     10.21592
    17.69770      1.16546     -2.25252      0.26554     10.26862
    17.71772      1.21149     -2.02405      0.26898     10.32199
    17.73774      1.26312     -1.78668      0.27249     10.37610
    17.75776      1.32096     -1.53951      0.27606     10.43087
    17.77778      1.38572     -1.28143      0.27972     10.48637
    17.79780      1.45829     -1.01137      0.28344     10.54265
    17.81782      1.53971     -0.72793      0.28725     10.59961
    17.83784      1.63130     -0.42969      0.29114     10.65738
    17.85786      1.73456     -0.11510      0.29511     10.71591
    17.87788      1.85138      0.21786      0.29916     10.77528
    17.89790      1.98401      0.57108      0.30330     10.83541
    17.91792      2.13523      0.94706      0.30753     10.89640
    17.93794      2.30845      1.34846      0.31186     10.95826
    17.95796      2.50785      1.77820      0.31628     11.02095
    17.97798      2.73868      2.23970      0.32080     11.08456
    17.99800      3.00756      2.73684      0.32542     11.14908
    18.01802      3.32279      3.27361      0.33015     11.21452
    18.03804      3.69508      3.85456      0.33499     11.28091
    18.05806      4.13822      4.48444      0.33993     11.34830
    18.07808      4.67006      5.16761      0.34499     11.41664
    18.09810      5.31420      5.90783      0.35018     11.48602
    18.11812      6.10157      6.70663      0.35548     11.55646
    18.13814      7.07341      7.56120      0.36091     11.62795
    18.15816      8.28440      8.46028      0.36647     11.70055
    18.17818      9.80593      9.37611      0.37217     11.77425
    18.19820     11.72935     10.25183      0.37801     11.84910
    18.21822     14.16362     10.97878      0.38399     11.92514
    18.23824     17.21795     11.36189      0.39012     12.00235
    18.25826     20.95200     11.07715      0.39641     12.08081
    18.27828     25.25785      9.65022      0.40285     12.16056
    18.29830     29.67468      6.54451      0.40946     12.24158
    18.31832     33.25446      1.48589      0.41625     12.32394
    18.33834     34.81541     -5.04346      0.42321     12.40765
    18.35836     33.71649    -11.71478      0.43035     12.49279
    18.37838     30.41587    -17.10616      0.43769     12.57935
    18.39840     26.06350    -20.56392      0.44522     12.66740
    18.41842     21.68562    -22.26038      0.45296     12.75696
    18.43844     17.82875    -22.71651      0.46091     12.84808
    18.45846     14.64884    -22.43016      0.46909     12.94079
    18.47848     12.10583    -21.75259      0.47749     13.03515
    18.49850     10.09441    -20.89910      0.48613     13.13117
    18.51852      8.50355    -19.99121      0.49502     13.22897
    18.53854      7.23831    -19.09311      0.50416     13.32855
    18.55856      6.22384    -18.23673      0.51357     13.42998
    18.57858      5.40264    -17.43562      0.52327     13.53327
    18.59860      4.73129    -16.69366      0.53325     13.63854
    18.61862      4.17723    -16.01005      0.54353     13.74578
    18.63864      3.71564    -15.38121      0.55413     13.85514
    18.65866      3.32778    -14.80290      0.56505     13.96661
    18.67868      2.99918    -14.27037      0.57631     14.08024
    18.69870      2.71863    -13.77907      0.58793     14.19619
    18.71872      2.47744    -13.32489      0.59993     14.31442
    18.73874      2.26872    -12.90387      0.61231     14.43512
    18.75876      2.08697    -12.51263      0.62509     14.55831
    18.77878      1.92785    -12.14815      0.63830     14.68402
    18.79880      1.78777    -11.80762      0.65195     14.81242
    18.81882      1.66388    -11.48874      0.66606     14.94355
    18.83884      1.55379    -11.18932      0.68066     15.07750
    18.85886      1.45556    -10.90755      0.69576     15.21442
    18.87888      1.36757    -10.64171      0.71140     15.35435
    18.89890      1.28846    -10.39038      0.72759     15.49746
    18.91892      1.21707    -10.15221      0.74437     15.64378
    18.93894      1.15247     -9.92611      0.76175     15.79347
    18.95896      1.09382     -9.71099      0.77979     15.94667
    18.97898      1.04044     -9.50593      0.79850     16.10346
    18.99900      0.99171     -9.31015      0.81792     16.26405
    19.01902      0.94712     -9.12282      0.83809     16.42854
    19.03904      0.90623     -8.94333      0.85905     16.59704
    19.05906      0.86865     -8.77108      0.88084     16.76974
    19.07908      0.83405     -8.60549      0.90351     16.94682
    19.09910      0.80212     -8.44612      0.92710     17.12850
    19.11912      0.77262     -8.29244      0.95166     17.31483
    19.13914      0.74531     -8.14407      0.97726     17.50613
    19.15916      0.72000     -8.00067      1.00395     17.70255
    19.17918      0.69650     -7.86185      1.03180     17.90430
    19.19920      0.67466     -7.72731      1.06086     18.11166
    19.21922      0.65435     -7.59675      1.09123     18.32483
    19.23924      0.63543     -7.46996      1.12297     18.54409
    19.25926      0.61780     -7.34660      1.15617     18.76965
    19.27928      0.60135     -7.22654      1.19093     19.00186
    19.29930      0.58601     -7.10949      1.22735     19.24106
    19.31932      0.57169     -6.99529      1.26552     19.48749
    19.33934      0.55833     -6.88374      1.30558     19.74159
    19.35936      0.54585     -6.77469      1.34764     20.00363
    19.37938      0.53421     -6.66792      1.39185     20.27410
    19.39940      0.52336     -6.56338      1.43835     20.55338
    19.41942      0.51325     -6.46087      1.48731     20.84192
    19.43944      0.50385     -6.36024      1.53890     21.14017
    19.45946      0.49513     -6.26137      1.59333     21.44876
    19.47948      0.48706     -6.16417      1.65080     21.76809
    19.49950      0.47964     -6.06854      1.71154     22.09888
    19.51952      0.47285     -5.97431      1.77583     22.44172
    19.53954      0.46670     -5.88143      1.84392     22.79729
    19.55956      0.46120     -5.78980      1.91614     23.16640
    19.57958      0.45638     -5.69939      1.99282     23.54974
    19.59960      0.45229     -5.61006      2.07435     23.94822
    19.61962      0.44898     -5.52189      2.16115     24.36283
    19.63964      0.44650     -5.43493      2.25368     24.79453
    19.65966      0.44487     -5.34932      2.35245     25.24443
    19.67968      0.44398     -5.26531      2.45807     25.71376
    19.69970      0.44343     -5.18319      2.57115     26.20379
    19.71972      0.44254     -5.10295      2.69244     26.71597
    19.73974      0.44055     -5.02413      2.82273     27.25178
    19.75976      0.43716     -4.94572      2.96296     27.81300
    19.77978      0.43281     -4.86670      3.11418     28.40151
    19.79980      0.42829     -4.78676      3.27753     29.01925
    19.81982      0.42421     -4.70601      3.45437     29.66860
    19.83984      0.42088     -4.62472      3.64623     30.35204
    19.85986      0.41836     -4.54314      3.85484     31.07222
    19.87988      0.41663     -4.46144      4.08223     31.83235
    19.89990      0.41561     -4.37963      4.33069     32.63565
    19.91992      0.41527     -4.29777      4.60290     33.48597
    19.93994      0.41554     -4.21577      4.90201     34.38761
    19.95996      0.41642     -4.13359      5.23161     35.34512
    19.97998      0.41790     -4.05118      5.59598     36.36381
    20.00000      0.41998     -3.96845      6.00018     37.44975
# 
# 07/24/2018 at 09:14 YAMBO @ NewLaptop [start]
# 07/24/2018 at 09:14                   [end]
#  
# Timing   [Min/Max/Average]: 01s/01s/01s
#
# .-Input file : yambo.in
# | optics                         # [R OPT] Optics
# | bse                            # [R BSE] Bethe Salpeter Equation.
# | bsk                            # [R BSK] Bethe Salpeter Equation kernel
# | bss                            # [R BSS] Bethe Salpeter Equation solver
# | FFTGvecs=  4945        RL      # [FFT] Plane-waves
# | NonPDirs= "XYZ"                # [X/BSS] Non periodic chartesian directions (X,Y,Z,XY...)
# | BSEmod= "retarded"             # [BSE] resonant/retarded/coupling
# | BSKmod= "SEX"                  # [BSE] IP/Hartree/HF/ALDA/SEX/BSfxc
# | BSSmod= "d"                    # [BSS] (h)aydock/(d)iagonalization/(i)nversion/(t)ddft`
# | BSENGexx=  437         RL      # [BSK] Exchange components
# | BSENGBlk=  515         RL      # [BSK] Screened interaction block size
# | #WehCpl                        # [BSK] eh interaction included also in coupling
# | % KfnQP_E
# |  7.600000 | 1.000000 | 1.000000 |        # [EXTQP BSK BSS] E parameters  (c/v) eV|adim|adim
# | %
# | % BEnRange
# |   0.00000 | 20.00000 | eV      # [BSS] Energy range
# | %
# | % BDmRange
# |   0.10000 |  0.10000 | eV      # [BSS] Damping range
# | %
# | BEnSteps= 1000                 # [BSS] Energy steps
# | % BLongDir
# | 0.1000E-4 | 0.000    | 0.000    |        # [BSS] [cc] Electric Field
# | %
# | % BSEBands
# |    1 |  50 |                   # [BSK] Bands range
# | %
