#                                                           
#  __  __   ________   ___ __ __    _______   ______        
# /_/\/_/\ /_______/\ /__//_//_/\ /_______/\ /_____/\       
# \ \ \ \ \\::: _  \ \\::\| \| \ \\::: _  \ \\:::_ \ \      
#  \:\_\ \ \\::(_)  \ \\:.      \ \\::(_)  \/_\:\ \ \ \     
#   \::::_\/ \:: __  \ \\:.\-/\  \ \\::  _  \ \\:\ \ \ \    
#     \::\ \  \:.\ \  \ \\. \  \  \ \\::(_)  \ \\:\_\ \ \   
#      \__\/   \__\/\__\/ \__\/ \__\/ \_______\/ \_____\/   
#                                                           
#                                                           
#        Version 4.3.0 Revision 15624 Hash 7ed12fb          
#                      MPI+SLK Build                        
#                http://www.yambo-code.org                  
#
# EELS @ Q(1)  [q->0 direction]:0.1000E-4  0.000     0.000   
#
#
# - Energies      are Teter 93(XC)
# - Wavefunctions are Teter 93(XC)
#
# - The Green`s function is Retarded -
# - Using the Length Gauge -
# - [r,Vnl] *is* included -
#
#   BSK|Identifier              :1210
#      |Dimension               :49
#      |Bands                   :1 - 50
#      |Exchange           [res]: yes
#      |Correlation        [res]: no
#      |Kernel`s coupling       : yes
#      |Exchange           [cpl]: yes
#      |Correlation        [cpl]: no
#      |W interaction is bare   : no
#      |ALDA kernel in R-space  : no
#      |RL vectors    [exchange]:123
#      |E/h energy range    [ev]:-1.000000 - -1.000000
#      |Coupling range     [o/o]: 100.0000 -  100.0000
#  
#   Haydock|Accuracy (requested) [o/o]:   0.0050
#          |Accuracy (reached)   [o/o]:0.6325E-7
#          |Iteration                 :14
#
#    E/ev[1]      EEL-Im[2]    EEL-Re[3]    EELo-Im[4]   EELo-Re[5]   EEL`-Im[6]   EEL`-Re[7]
#
    0.000000    -0.000000    -0.984554    -0.000000    -0.980822    -0.000000    -0.984554
   0.7538E-1    0.9342E-6    -.9846       0.1395E-5    -.9808       0.9342E-6    -.9846   
   0.1508       0.1866E-5    -.9846       0.2790E-5    -.9808       0.1866E-5    -.9846   
   0.2261       0.2800E-5    -.9846       0.4187E-5    -.9808       0.2800E-5    -.9846   
   0.3015       0.3734E-5    -.9845       0.5585E-5    -.9808       0.3734E-5    -.9845   
   0.3769       0.4670E-5    -.9845       0.6985E-5    -.9808       0.4670E-5    -.9845   
   0.4523       0.5607E-5    -.9845       0.8387E-5    -.9808       0.5607E-5    -.9845   
   0.5276       0.6545E-5    -.9845       0.9792E-5    -.9808       0.6545E-5    -.9845   
   0.6030       0.7486E-5    -.9845       0.1120E-4    -.9808       0.7486E-5    -.9845   
   0.6784       0.8430E-5    -.9845       0.1261E-4    -.9808       0.8430E-5    -.9845   
   0.7538       0.9375E-5    -.9845       0.1403E-4    -.9808       0.9375E-5    -.9845   
   0.8291       0.1032E-4    -.9845       0.1545E-4    -.9808       0.1032E-4    -.9845   
   0.9045       0.1128E-4    -.9845       0.1688E-4    -.9807       0.1128E-4    -.9845   
   0.9799       0.1223E-4    -.9845       0.1832E-4    -.9807       0.1223E-4    -.9845   
    1.055       0.1319E-4    -.9845       0.1976E-4    -.9807       0.1319E-4    -.9845   
    1.131       0.1415E-4    -.9845       0.2120E-4    -.9807       0.1415E-4    -.9845   
    1.206       0.1512E-4    -.9845       0.2266E-4    -.9807       0.1512E-4    -.9845   
    1.281       0.1609E-4    -.9845       0.2412E-4    -.9807       0.1609E-4    -.9845   
    1.357       0.1707E-4    -.9844       0.2559E-4    -.9807       0.1707E-4    -.9844   
    1.432       0.1805E-4    -.9844       0.2708E-4    -.9806       0.1805E-4    -.9844   
    1.508       0.1904E-4    -.9844       0.2857E-4    -.9806       0.1904E-4    -.9844   
    1.583       0.2003E-4    -.9844       0.3007E-4    -.9806       0.2003E-4    -.9844   
    1.658       0.2103E-4    -.9844       0.3158E-4    -.9806       0.2103E-4    -.9844   
    1.734       0.2204E-4    -.9844       0.3311E-4    -.9805       0.2204E-4    -.9844   
    1.809       0.2306E-4    -.9843       0.3465E-4    -.9805       0.2306E-4    -.9843   
    1.884       0.2408E-4    -.9843       0.3620E-4    -.9805       0.2408E-4    -.9843   
    1.960       0.2511E-4    -.9843       0.3776E-4    -.9805       0.2511E-4    -.9843   
    2.035       0.2615E-4    -.9843       0.3934E-4    -.9804       0.2615E-4    -.9843   
    2.111       0.2719E-4    -.9843       0.4093E-4    -.9804       0.2719E-4    -.9843   
    2.186       0.2825E-4    -.9843       0.4254E-4    -.9804       0.2825E-4    -.9843   
    2.261       0.2931E-4    -.9842       0.4417E-4    -.9803       0.2931E-4    -.9842   
    2.337       0.3038E-4    -.9842       0.4581E-4    -.9803       0.3038E-4    -.9842   
    2.412       0.3147E-4    -.9842       0.4747E-4    -.9803       0.3147E-4    -.9842   
    2.487       0.3256E-4    -.9842       0.4915E-4    -.9802       0.3256E-4    -.9842   
    2.563       0.3367E-4    -.9841       0.5084E-4    -.9802       0.3367E-4    -.9841   
    2.638       0.3479E-4    -.9841       0.5256E-4    -.9802       0.3479E-4    -.9841   
    2.714       0.3591E-4    -.9841       0.5430E-4    -.9801       0.3591E-4    -.9841   
    2.789       0.3705E-4    -.9841       0.5606E-4    -.9801       0.3705E-4    -.9841   
    2.864       0.3821E-4    -.9840       0.5785E-4    -.9800       0.3821E-4    -.9840   
    2.940       0.3937E-4    -.9840       0.5965E-4    -.9800       0.3937E-4    -.9840   
    3.015       0.4056E-4    -.9840       0.6149E-4    -.9799       0.4056E-4    -.9840   
    3.090       0.4175E-4    -.9839       0.6334E-4    -.9799       0.4175E-4    -.9839   
    3.166       0.4296E-4    -.9839       0.6523E-4    -.9798       0.4296E-4    -.9839   
    3.241       0.4418E-4    -.9839       0.6714E-4    -.9798       0.4418E-4    -.9839   
    3.317       0.4542E-4    -.9838       0.6908E-4    -.9797       0.4542E-4    -.9838   
    3.392       0.4668E-4    -.9838       0.7105E-4    -.9797       0.4668E-4    -.9838   
    3.467       0.4796E-4    -.9838       0.7305E-4    -.9796       0.4796E-4    -.9838   
    3.543       0.4925E-4    -.9837       0.7508E-4    -.9796       0.4925E-4    -.9837   
    3.618       0.5056E-4    -.9837       0.7714E-4    -.9795       0.5056E-4    -.9837   
    3.693       0.5189E-4    -.9837       0.7924E-4    -.9795       0.5189E-4    -.9837   
    3.769       0.5324E-4    -.9836       0.8137E-4    -.9794       0.5324E-4    -.9836   
    3.844       0.5460E-4    -.9836       0.8355E-4    -.9793       0.5460E-4    -.9836   
    3.920       0.5599E-4    -.9835       0.8576E-4    -.9793       0.5599E-4    -.9835   
    3.995       0.5741E-4    -.9835       0.8800E-4    -.9792       0.5741E-4    -.9835   
    4.070       0.5884E-4    -.9834       0.9029E-4    -.9791       0.5884E-4    -.9834   
    4.146       0.6030E-4    -.9834       0.9263E-4    -.9791       0.6030E-4    -.9834   
    4.221       0.6178E-4    -.9834       0.9500E-4    -.9790       0.6178E-4    -.9834   
    4.296       0.6328E-4    -.9833       0.9743E-4    -.9789       0.6328E-4    -.9833   
    4.372       0.6482E-4    -.9833       0.9990E-4    -.9789       0.6482E-4    -.9833   
    4.447       0.6637E-4    -.9832       0.1024E-3    -.9788       0.6637E-4    -.9832   
    4.523       0.6796E-4    -.9832       0.1050E-3    -.9787       0.6796E-4    -.9832   
    4.598       0.6958E-4    -.9831       0.1076E-3    -.9786       0.6958E-4    -.9831   
    4.673       0.7122E-4    -.9831       0.1103E-3    -.9785       0.7122E-4    -.9831   
    4.749       0.7290E-4    -.9830       0.1130E-3    -.9785       0.7290E-4    -.9830   
    4.824       0.7460E-4    -.9829       0.1158E-3    -.9784       0.7460E-4    -.9829   
    4.899       0.7634E-4    -.9829       0.1187E-3    -.9783       0.7634E-4    -.9829   
    4.975       0.7812E-4    -.9828       0.1216E-3    -.9782       0.7812E-4    -.9828   
    5.050       0.7993E-4    -.9828       0.1246E-3    -.9781       0.7993E-4    -.9828   
    5.126       0.8177E-4    -.9827       0.1277E-3    -.9780       0.8177E-4    -.9827   
    5.201       0.8366E-4    -.9826       0.1308E-3    -.9779       0.8366E-4    -.9826   
    5.276       0.8558E-4    -.9826       0.1340E-3    -.9778       0.8558E-4    -.9826   
    5.352       0.8755E-4    -.9825       0.1373E-3    -.9777       0.8755E-4    -.9825   
    5.427       0.8955E-4    -.9825       0.1406E-3    -.9776       0.8955E-4    -.9825   
    5.503       0.9160E-4    -.9824       0.1441E-3    -.9775       0.9160E-4    -.9824   
    5.578       0.9370E-4    -.9823       0.1476E-3    -.9774       0.9370E-4    -.9823   
    5.653       0.9584E-4    -.9822       0.1512E-3    -.9773       0.9584E-4    -.9822   
    5.729       0.9804E-4    -.9822       0.1550E-3    -.9772       0.9804E-4    -.9822   
    5.804       0.1003E-3    -.9821       0.1588E-3    -.9770       0.1003E-3    -.9821   
    5.879       0.1026E-3    -.9820       0.1627E-3    -.9769       0.1026E-3    -.9820   
    5.955       0.1049E-3    -.9819       0.1667E-3    -.9768       0.1049E-3    -.9819   
    6.030       0.1073E-3    -.9819       0.1709E-3    -.9767       0.1073E-3    -.9819   
    6.106       0.1098E-3    -.9818       0.1752E-3    -.9765       0.1098E-3    -.9818   
    6.181       0.1123E-3    -.9817       0.1795E-3    -.9764       0.1123E-3    -.9817   
    6.256       0.1149E-3    -.9816       0.1840E-3    -.9763       0.1149E-3    -.9816   
    6.332       0.1176E-3    -.9815       0.1887E-3    -.9761       0.1176E-3    -.9815   
    6.407       0.1203E-3    -.9814       0.1935E-3    -.9760       0.1203E-3    -.9814   
    6.482       0.1231E-3    -.9813       0.1984E-3    -.9758       0.1231E-3    -.9813   
    6.558       0.1260E-3    -.9812       0.2035E-3    -.9757       0.1260E-3    -.9812   
    6.633       0.1290E-3    -.9812       0.2087E-3    -.9755       0.1290E-3    -.9812   
    6.709       0.1320E-3    -.9811       0.2141E-3    -.9754       0.1320E-3    -.9811   
    6.784       0.1351E-3    -.9810       0.2197E-3    -.9752       0.1351E-3    -.9810   
    6.859       0.1384E-3    -.9808       0.2255E-3    -.9750       0.1384E-3    -.9808   
    6.935       0.1417E-3    -.9807       0.2314E-3    -.9749       0.1417E-3    -.9807   
    7.010       0.1451E-3    -.9806       0.2376E-3    -.9747       0.1451E-3    -.9806   
    7.085       0.1486E-3    -.9805       0.2439E-3    -.9745       0.1486E-3    -.9805   
    7.161       0.1522E-3    -.9804       0.2505E-3    -.9743       0.1522E-3    -.9804   
    7.236       0.1559E-3    -.9803       0.2573E-3    -.9741       0.1559E-3    -.9803   
    7.312       0.1598E-3    -.9802       0.2644E-3    -.9739       0.1598E-3    -.9802   
    7.387       0.1637E-3    -.9801       0.2717E-3    -.9737       0.1637E-3    -.9801   
    7.462       0.1678E-3    -.9799       0.2793E-3    -.9735       0.1678E-3    -.9799   
    7.538       0.1721E-3    -.9798       0.2872E-3    -.9733       0.1721E-3    -.9798   
    7.613       0.1764E-3    -.9797       0.2954E-3    -.9731       0.1764E-3    -.9797   
    7.688       0.1809E-3    -.9795       0.3039E-3    -.9729       0.1809E-3    -.9795   
    7.764       0.1856E-3    -.9794       0.3127E-3    -.9726       0.1856E-3    -.9794   
    7.839       0.1905E-3    -.9793       0.3219E-3    -.9724       0.1905E-3    -.9793   
    7.915       0.1955E-3    -.9791       0.3315E-3    -.9721       0.1955E-3    -.9791   
    7.990       0.2006E-3    -.9790       0.3415E-3    -.9719       0.2006E-3    -.9790   
    8.065       0.2060E-3    -.9788       0.3519E-3    -.9716       0.2060E-3    -.9788   
    8.141       0.2116E-3    -.9787       0.3627E-3    -.9714       0.2116E-3    -.9787   
    8.216       0.2174E-3    -.9785       0.3740E-3    -.9711       0.2174E-3    -.9785   
    8.291       0.2234E-3    -.9783       0.3858E-3    -.9708       0.2234E-3    -.9783   
    8.367       0.2297E-3    -.9782       0.3982E-3    -.9705       0.2297E-3    -.9782   
    8.442       0.2362E-3    -.9780       0.4111E-3    -.9702       0.2362E-3    -.9780   
    8.518       0.2429E-3    -.9778       0.4247E-3    -.9699       0.2429E-3    -.9778   
    8.593       0.2500E-3    -.9776       0.4388E-3    -.9696       0.2500E-3    -.9776   
    8.668       0.2573E-3    -.9774       0.4537E-3    -.9692       0.2573E-3    -.9774   
    8.744       0.2650E-3    -.9772       0.4694E-3    -.9689       0.2650E-3    -.9772   
    8.819       0.2730E-3    -.9770       0.4858E-3    -.9685       0.2730E-3    -.9770   
    8.894       0.2813E-3    -.9768       0.5030E-3    -.9681       0.2813E-3    -.9768   
    8.970       0.2901E-3    -.9766       0.5212E-3    -.9678       0.2901E-3    -.9766   
    9.045       0.2992E-3    -.9764       0.5404E-3    -.9674       0.2992E-3    -.9764   
    9.121       0.3088E-3    -.9761       0.5606E-3    -.9669       0.3088E-3    -.9761   
    9.196       0.3188E-3    -.9759       0.5820E-3    -.9665       0.3188E-3    -.9759   
    9.271       0.3293E-3    -.9757       0.6046E-3    -.9661       0.3293E-3    -.9757   
    9.347       0.3404E-3    -.9754       0.6285E-3    -.9656       0.3404E-3    -.9754   
    9.422       0.3520E-3    -.9752       0.6539E-3    -.9651       0.3520E-3    -.9752   
    9.497       0.3642E-3    -.9749       0.6809E-3    -.9646       0.3642E-3    -.9749   
    9.573       0.3771E-3    -.9746       0.7095E-3    -.9641       0.3771E-3    -.9746   
    9.648       0.3907E-3    -.9743       0.7400E-3    -.9635       0.3907E-3    -.9743   
    9.724       0.4050E-3    -.9740       0.7725E-3    -.9630       0.4050E-3    -.9740   
    9.799       0.4202E-3    -.9737       0.8073E-3    -.9624       0.4202E-3    -.9737   
    9.874       0.4363E-3    -.9734       0.8445E-3    -.9618       0.4363E-3    -.9734   
    9.950       0.4533E-3    -.9730       0.8843E-3    -.9611       0.4533E-3    -.9730   
    10.03       0.4714E-3    -.9727       0.9271E-3    -.9604       0.4714E-3    -.9727   
    10.10       0.4906E-3    -.9723       0.9731E-3    -.9597       0.4906E-3    -.9723   
    10.18       0.5111E-3    -.9720       0.1023E-2    -.9590       0.5111E-3    -.9720   
    10.25       0.5330E-3    -.9716       0.1076E-2    -.9582       0.5330E-3    -.9716   
    10.33       0.5563E-3    -.9712       0.1134E-2    -.9573       0.5563E-3    -.9712   
    10.40       0.5814E-3    -.9707       0.1197E-2    -.9565       0.5814E-3    -.9707   
    10.48       0.6082E-3    -.9703       0.1266E-2    -.9555       0.6082E-3    -.9703   
    10.55       0.6370E-3    -.9698       0.1341E-2    -.9546       0.6370E-3    -.9698   
    10.63       0.6681E-3    -.9693       0.1423E-2    -.9535       0.6681E-3    -.9693   
    10.70       0.7016E-3    -.9688       0.1513E-2    -.9524       0.7016E-3    -.9688   
    10.78       0.7379E-3    -.9683       0.1612E-2    -.9513       0.7379E-3    -.9683   
    10.85       0.7772E-3    -.9677       0.1721E-2    -.9500       0.7772E-3    -.9677   
    10.93       0.8201E-3    -.9671       0.1843E-2    -.9487       0.8201E-3    -.9671   
    11.01       0.8668E-3    -.9665       0.1978E-2    -.9472       0.8668E-3    -.9665   
    11.08       0.9180E-3    -.9658       0.2130E-2    -.9457       0.9180E-3    -.9658   
    11.16       0.9741E-3    -.9651       0.2300E-2    -.9440       0.9741E-3    -.9651   
    11.23       0.1036E-2    -.9643       0.2492E-2    -.9422       0.1036E-2    -.9643   
    11.31       0.1104E-2    -.9635       0.2711E-2    -.9403       0.1104E-2    -.9635   
    11.38       0.1181E-2    -.9627       0.2961E-2    -.9382       0.1181E-2    -.9627   
    11.46       0.1265E-2    -.9618       0.3249E-2    -.9359       0.1265E-2    -.9618   
    11.53       0.1361E-2    -.9608       0.3583E-2    -.9333       0.1361E-2    -.9608   
    11.61       0.1468E-2    -.9597       0.3974E-2    -.9305       0.1468E-2    -.9597   
    11.68       0.1589E-2    -.9586       0.4435E-2    -.9274       0.1589E-2    -.9586   
    11.76       0.1728E-2    -.9573       0.4985E-2    -.9239       0.1728E-2    -.9573   
    11.83       0.1887E-2    -.9560       0.5648E-2    -.9199       0.1887E-2    -.9560   
    11.91       0.2071E-2    -.9545       0.6458E-2    -.9154       0.2071E-2    -.9545   
    11.98       0.2286E-2    -.9529       0.7463E-2    -.9103       0.2286E-2    -.9529   
    12.06       0.2539E-2    -.9511       0.8731E-2    -.9044       0.2539E-2    -.9511   
    12.14       0.2840E-2    -.9491       0.1036E-1    -.8974       0.2840E-2    -.9491   
    12.21       0.3202E-2    -.9468       0.1252E-1    -.8891       0.3202E-2    -.9468   
    12.29       0.3644E-2    -.9443       0.1543E-1    -.8790       0.3644E-2    -.9443   
    12.36       0.4192E-2    -.9414       0.1953E-1    -.8666       0.4192E-2    -.9414   
    12.44       0.4882E-2    -.9381       0.2552E-1    -.8509       0.4882E-2    -.9381   
    12.51       0.5769E-2    -.9342       0.3477E-1    -.8305       0.5769E-2    -.9342   
    12.59       0.6939E-2    -.9296       0.5009E-1    -.8031       0.6939E-2    -.9296   
    12.66       0.8525E-2    -.9240       0.7786E-1    -.7652       0.8525E-2    -.9240   
    12.74       0.1075E-1    -.9172       0.1345       -.7131       0.1075E-1    -.9172   
    12.81407      0.01402     -0.90852      0.26573     -0.65838      0.01402     -0.90852
    12.88945      0.01908     -0.89731      0.53739     -0.74118      0.01908     -0.89731
    12.96482      0.02749     -0.88230      0.57465     -1.15698      0.02749     -0.88230
    13.04020      0.04282     -0.86160      0.29407     -1.28559      0.04282     -0.86160
    13.11558      0.07439     -0.83333      0.14663     -1.23515      0.07439     -0.83333
    13.19096      0.14783     -0.80512      0.08371     -1.18091      0.14783     -0.80512
    13.26633      0.29434     -0.85987      0.05350     -1.14088      0.29434     -0.85987
    13.34171      0.29507     -1.08068      0.03716     -1.11177      0.29507     -1.08068
    13.41709      0.14851     -1.13616      0.02747     -1.08993      0.14851     -1.13616
    13.49246      0.07489     -1.10786      0.02132     -1.07293      0.07489     -1.10786
    13.56784      0.04333     -1.07930      0.01723     -1.05923      0.04333     -1.07930
    13.64322      0.02808     -1.05820      0.01442     -1.04783      0.02808     -1.05820
    13.72       0.1979E-1    -1.043       0.1245E-1    -1.038       0.1979E-1    -1.043   
    13.79       0.1487E-1    -1.031       0.1107E-1    -1.029       0.1487E-1    -1.031   
    13.87       0.1176E-1    -1.022       0.1012E-1    -1.022       0.1176E-1    -1.022   
    13.94       0.9704E-2    -1.014       0.9528E-2    -1.014       0.9704E-2    -1.014   
    14.02       0.8317E-2    -1.007       0.9232E-2    -1.008       0.8317E-2    -1.007   
    14.10       0.7376E-2    -1.002       0.9217E-2    -1.001       0.7376E-2    -1.002   
    14.17       0.6752E-2    -.9965       0.9497E-2    -.9938       0.6752E-2    -.9965   
    14.25       0.6371E-2    -.9917       0.1012E-1    -.9866       0.6371E-2    -.9917   
    14.32       0.6191E-2    -.9871       0.1118E-1    -.9788       0.6191E-2    -.9871   
    14.40       0.6193E-2    -.9825       0.1285E-1    -.9702       0.6193E-2    -.9825   
    14.47       0.6375E-2    -.9778       0.1543E-1    -.9601       0.6375E-2    -.9778   
    14.55       0.6756E-2    -.9730       0.1949E-1    -.9480       0.6756E-2    -.9730   
    14.62       0.7373E-2    -.9678       0.2616E-1    -.9326       0.7373E-2    -.9678   
    14.70       0.8298E-2    -.9621       0.3790E-1    -.9125       0.8298E-2    -.9621   
    14.77       0.9651E-2    -.9556       0.6070E-1    -.8852       0.9651E-2    -.9556   
    14.85       0.1164E-1    -.9480       0.1108       -.8505       0.1164E-1    -.9480   
    14.92       0.1462E-1    -.9387       0.2287       -.8388       0.1462E-1    -.9387   
    15.00000      0.01928     -0.92714      0.36721     -1.00452      0.01928     -0.92714
# 
# 07/24/2018 at 09:14 YAMBO @ NewLaptop [start]
# 07/24/2018 at 09:14                   [end]
#
# .-Input file : yambo.in
# | optics                         # [R OPT] Optics
# | bse                            # [R BSE] Bethe Salpeter Equation.
# | bsk                            # [R BSK] Bethe Salpeter Equation kernel
# | bss                            # [R BSS] Bethe Salpeter Equation solver
# | BoseTemp= 0.000000     eV      # Bosonic Temperature
# | FFTGvecs=  4945        RL      # [FFT] Plane-waves
# | NonPDirs= "XYZ"                # [X/BSS] Non periodic chartesian directions (X,Y,Z,XY...)
# | BSEmod= "coupling"             # [BSE] resonant/retarded/coupling
# | BSKmod= "Hartree"              # [BSE] IP/Hartree/HF/ALDA/SEX/BSfxc
# | BSSmod= "dh"                   # [BSS] (h)aydock/(d)iagonalization/(i)nversion/(t)ddft`
# | BSENGexx= 123          RL      # [BSK] Exchange components
# | % BEnRange
# |   0.00000 | 15.00000 | eV      # [BSS] Energy range
# | %
# | % BDmRange
# |   0.10000 |  0.10000 | eV      # [BSS] Damping range
# | %
# | BEnSteps= 200                  # [BSS] Energy steps
# | % BLongDir
# | 0.1000E-4 | 0.000    | 0.000    |        # [BSS] [cc] Electric Field
# | %
# | % BSEBands
# |    1 |  50 |                   # [BSK] Bands range
# | %
# | BSHayTrs=   0.0050             # [BSS] Relative [o/o] Haydock treshold. Strict(>0)/Average(<0)
