#                                                           
#  /$$     /$$ /$$$$$$  /$$      /$$ /$$$$$$$   /$$$$$$     
# |  $$   /$$//$$__  $$| $$$    /$$$| $$__  $$ /$$__  $$    
#  \  $$ /$$/| $$  \ $$| $$$$  /$$$$| $$  \ $$| $$  \ $$    
#   \  $$$$/ | $$$$$$$$| $$ $$/$$ $$| $$$$$$$ | $$  | $$    
#    \  $$/  | $$__  $$| $$  $$$| $$| $$__  $$| $$  | $$    
#     | $$   | $$  | $$| $$\  $ | $$| $$  \ $$| $$  | $$    
#     | $$   | $$  | $$| $$ \/  | $$| $$$$$$$/|  $$$$$$/    
#     |__/   |__/  |__/|__/     |__/|_______/  \______/     
#                                                           
#              Version 4.0.0 Revision 3686                  
#                       MPI Build                           
#               http://www.yambo-code.org                   
#
# Absorption @ Q(1) [q->0 direction] : 1.0000000  0.0000000  0.0000000
#
#
# - Energies      are Teter 93(XC)
# - Wavefunctions are Teter 93(XC)
#
# - The Green`s function is T-ordered -
# - Using the Length Gauge -
# - [r,Vnl] *is* included -
#
#  E/ev[1]     eps_q /Im[2]eps_q /Re[3]
#
  0.0000     0.20557E-3   1.0167   
 0.75377E-1  0.20562E-3   1.0167   
 0.15075     0.20578E-3   1.0167   
 0.22613     0.20605E-3   1.0167   
 0.30151     0.20643E-3   1.0167   
 0.37688     0.20691E-3   1.0167   
 0.45226     0.20751E-3   1.0168   
 0.52764     0.20821E-3   1.0168   
 0.60302     0.20903E-3   1.0168   
 0.67839     0.20996E-3   1.0168   
 0.75377     0.21100E-3   1.0169   
 0.82915     0.21217E-3   1.0169   
 0.90452     0.21345E-3   1.0169   
 0.97990     0.21485E-3   1.0170   
  1.0553     0.21638E-3   1.0170   
  1.1307     0.21803E-3   1.0170   
  1.2060     0.21981E-3   1.0171   
  1.2814     0.22173E-3   1.0171   
  1.3568     0.22378E-3   1.0172   
  1.4322     0.22598E-3   1.0172   
  1.5075     0.22832E-3   1.0173   
  1.5829     0.23080E-3   1.0174   
  1.6583     0.23345E-3   1.0174   
  1.7337     0.23625E-3   1.0175   
  1.8090     0.23922E-3   1.0176   
  1.8844     0.24236E-3   1.0177   
  1.9598     0.24568E-3   1.0177   
  2.0352     0.24919E-3   1.0178   
  2.1106     0.25289E-3   1.0179   
  2.1859     0.25679E-3   1.0180   
  2.2613     0.26091E-3   1.0181   
  2.3367     0.26524E-3   1.0182   
  2.4121     0.26980E-3   1.0183   
  2.4874     0.27461E-3   1.0184   
  2.5628     0.27967E-3   1.0186   
  2.6382     0.28499E-3   1.0187   
  2.7136     0.29060E-3   1.0188   
  2.7889     0.29650E-3   1.0189   
  2.8643     0.30271E-3   1.0191   
  2.9397     0.30924E-3   1.0192   
  3.0151     0.31612E-3   1.0194   
  3.0905     0.32337E-3   1.0195   
  3.1658     0.33101E-3   1.0197   
  3.2412     0.33905E-3   1.0199   
  3.3166     0.34753E-3   1.0201   
  3.3920     0.35647E-3   1.0203   
  3.4673     0.36591E-3   1.0204   
  3.5427     0.37587E-3   1.0206   
  3.6181     0.38638E-3   1.0209   
  3.6935     0.39750E-3   1.0211   
  3.7688     0.40925E-3   1.0213   
  3.8442     0.42169E-3   1.0216   
  3.9196     0.43486E-3   1.0218   
  3.9950     0.44881E-3   1.0221   
  4.0704     0.46361E-3   1.0223   
  4.1457     0.47933E-3   1.0226   
  4.2211     0.49602E-3   1.0229   
  4.2965     0.51378E-3   1.0232   
  4.3719     0.53269E-3   1.0236   
  4.4472     0.55285E-3   1.0239   
  4.5226     0.57436E-3   1.0243   
  4.5980     0.59734E-3   1.0247   
  4.6734     0.62193E-3   1.0250   
  4.7487     0.64827E-3   1.0255   
  4.8241     0.67653E-3   1.0259   
  4.8995     0.70690E-3   1.0264   
  4.9749     0.73958E-3   1.0268   
  5.0503     0.77482E-3   1.0274   
  5.1256     0.81287E-3   1.0279   
  5.2010     0.85405E-3   1.0285   
  5.2764     0.89870E-3   1.0291   
  5.3518     0.94722E-3   1.0297   
  5.4271     0.10001E-2   1.0304   
  5.5025     0.10577E-2   1.0311   
  5.5779     0.11209E-2   1.0319   
  5.6533     0.11901E-2   1.0327   
  5.7286     0.12664E-2   1.0335   
  5.8040     0.13506E-2   1.0345   
  5.8794     0.14438E-2   1.0355   
  5.9548     0.15475E-2   1.0365   
  6.0302     0.16631E-2   1.0377   
  6.1055     0.17927E-2   1.0389   
  6.1809     0.19386E-2   1.0403   
  6.2563     0.21035E-2   1.0417   
  6.3317     0.22911E-2   1.0433   
  6.4070     0.25054E-2   1.0451   
  6.4824     0.27521E-2   1.0470   
  6.5578     0.30378E-2   1.0491   
  6.6332     0.33712E-2   1.0515   
  6.7085     0.37635E-2   1.0541   
  6.7839     0.42296E-2   1.0570   
  6.8593     0.47890E-2   1.0603   
  6.9347     0.54684E-2   1.0640   
  7.0101     0.63045E-2   1.0683   
    7.08543     0.00735     1.07331
    7.16080     0.00868     1.07914
   7.236181    0.010405    1.086046
   7.311558    0.012703    1.094357
   7.386935    0.015853    1.104534
   7.462312    0.020328    1.117258
   7.537689    0.026978    1.133563
   7.613066    0.037441    1.155066
   7.688442    0.055169    1.184329
   7.763819    0.088297    1.225137
  7.8391957   0.1584451   1.2800823
  7.9145732   0.3238096   1.3223110
  7.9899497   0.6027722   1.1406176
  8.0653267   0.4938388   0.7441779
  8.1407032   0.2389200   0.6994663
  8.2160807   0.1228855   0.7560107
   8.291457    0.072072    0.805415
   8.366834    0.046757    0.841034
   8.442211    0.032617    0.866791
   8.517588    0.024001    0.885985
   8.592965    0.018392    0.900743
   8.668342    0.014550    0.912408
   8.743719    0.011811    0.921852
    8.81910     0.00980     0.92965
  8.8945     0.82754E-2  0.93622   
  8.9698     0.71060E-2  0.94183   
  9.0452     0.61943E-2  0.94669   
  9.1206     0.54787E-2  0.95097   
  9.1960     0.49184E-2  0.95478   
  9.2714     0.44885E-2  0.95823   
  9.3467     0.41774E-2  0.96140   
  9.4221     0.39888E-2  0.96438   
  9.4975     0.39498E-2  0.96725   
  9.5729     0.41336E-2  0.97010   
  9.6482     0.47265E-2  0.97308   
  9.7236     0.62301E-2  0.97628   
   9.798995    0.010030    0.979224
   9.874372    0.017278    0.977158
   9.949749    0.015845    0.967781
  10.025     0.87194E-2  0.96721   
  10.101     0.53129E-2  0.97002   
  10.176     0.38473E-2  0.97271   
  10.251     0.31671E-2  0.97503   
  10.327     0.28717E-2  0.97712   
  10.402     0.28361E-2  0.97911   
  10.477     0.30687E-2  0.98114   
  10.553     0.37184E-2  0.98334   
  10.628     0.52387E-2  0.98587   
  10.704     0.89289E-2  0.98846   
  10.778895    0.016860    0.987213
  10.854272    0.018614    0.975676
  10.930     0.10138E-1  0.97211   
  11.005     0.55301E-2  0.97430   
  11.080     0.35758E-2  0.97667   
  11.156     0.26701E-2  0.97861   
  11.231     0.22401E-2  0.98025   
  11.307     0.20984E-2  0.98171   
  11.382     0.22380E-2  0.98313   
  11.457     0.28517E-2  0.98457   
  11.533     0.45544E-2  0.98576   
  11.608     0.74212E-2  0.98435   
  11.683     0.60096E-2  0.98084   
  11.759     0.32905E-2  0.98105   
  11.834     0.20538E-2  0.98221   
  11.910     0.15042E-2  0.98327   
  11.985     0.12353E-2  0.98418   
  12.060     0.11061E-2  0.98498   
  12.136     0.10745E-2  0.98572   
  12.211     0.11542E-2  0.98646   
  12.286     0.14402E-2  0.98721   
  12.362     0.22137E-2  0.98784   
  12.437     0.34921E-2  0.98730   
  12.513     0.28332E-2  0.98586   
  12.588     0.16257E-2  0.98608   
  12.663     0.10780E-2  0.98671   
  12.739     0.83375E-3  0.98730   
  12.814     0.71302E-3  0.98781   
  12.889     0.65254E-3  0.98828   
  12.965     0.63037E-3  0.98872   
  13.040     0.64317E-3  0.98916   
  13.116     0.70293E-3  0.98960   
  13.191     0.82956E-3  0.99006   
  13.266     0.10456E-2  0.99057   
  13.342     0.15616E-2  0.99119   
  13.417     0.28372E-2  0.99156   
  13.492     0.44274E-2  0.98998   
  13.568     0.30604E-2  0.98804   
  13.643     0.16107E-2  0.98826   
  13.719     0.98066E-3  0.98883   
  13.794     0.69286E-3  0.98931   
  13.869     0.54314E-3  0.98971   
  13.945     0.45896E-3  0.99004   
  14.020     0.41274E-3  0.99031   
  14.095     0.37244E-3  0.99054   
  14.171     0.32952E-3  0.99076   
  14.246     0.29970E-3  0.99097   
  14.322     0.27822E-3  0.99117   
  14.397     0.26144E-3  0.99135   
  14.472     0.24766E-3  0.99152   
  14.548     0.23596E-3  0.99168   
  14.623     0.22581E-3  0.99183   
  14.698     0.21684E-3  0.99198   
  14.774     0.20881E-3  0.99212   
  14.849     0.20154E-3  0.99225   
  14.925     0.19490E-3  0.99238   
  15.000     0.18878E-3  0.99251   
# 
# 09/12/2014 at 15:08 YAMBO @ anomaly [start]
# 09/12/2014 at 15:08                 [end]
#  
# Timing   [Min/Max/Average]: 01s/01s/01s
#
# .-Input file : yambo.in
# | optics                       # [R OPT] Optics
# | chi                          # [R CHI] Dyson equation for Chi.
# | BoseTemp= 0.000000     eV    # Bosonic Temperature
# | FFTGvecs=  9939        RL    # [FFT] Plane-waves
# | X_q_0_CPU= ""                # [PARALLEL] CPUs for each role
# | X_q_0_ROLEs= ""              # [PARALLEL] CPUs roles (k,c,v)
# | X_q_0_nCPU_invert= 1         # [PARALLEL] CPUs for matrix inversion
# | X_finite_q_CPU= ""           # [PARALLEL] CPUs for each role
# | X_finite_q_ROLEs= ""         # [PARALLEL] CPUs roles (q,k,c,v)
# | X_finite_q_nCPU_invert=0     # [PARALLEL] CPUs for matrix inversion
# | NonPDirs= "XYZ"              # [X/BSS] Non periodic chartesian directions (X,Y,Z,XY...)
# | Chimod= "IP"                 # [X] IP/Hartree/ALDA/LRC/BSfxc
# | NGsBlkXd= 1            RL    # [Xd] Response block size
# | % QpntsRXd
# |  1 | 1 |                     # [Xd] Transferred momenta
# | %
# | % BndsRnXd
# |    1 |  70 |                 # [Xd] Polarization function bands
# | %
# | % EnRngeXd
# |   0.00000 | 15.00000 | eV    # [Xd] Energy range
# | %
# | % DmRngeXd
# |   0.10000 |  0.10000 | eV    # [Xd] Damping range
# | %
# | ETStpsXd= 200                # [Xd] Total Energy steps
# | % LongDrXd
# | 0.1000E-4 | 0.000    | 0.000    |        # [Xd] [cc] Electric Field
# | %
