#  __  __   ________   ___ __ __    _______   ______        
# /_/\/_/\ /_______/\ /__//_//_/\ /_______/\ /_____/\       
# \ \ \ \ \\::: _  \ \\::\| \| \ \\::: _  \ \\:::_ \ \      
#  \:\_\ \ \\::(_)  \ \\:.      \ \\::(_)  \/_\:\ \ \ \     
#   \::::_\/ \:: __  \ \\:.\-/\  \ \\::  _  \ \\:\ \ \ \    
#     \::\ \  \:.\ \  \ \\. \  \  \ \\::(_)  \ \\:\_\ \ \   
#      \__\/   \__\/\__\/ \__\/ \__\/ \_______\/ \_____\/   
#                                                           
#               Version 3.4.2 Revision 4952                 
#                http://www.yambo-code.org                  
#
# Polarizability ( -<<X>> ) [volume @ Q(1) [q->0 direction]0.1000E-4  0.000     0.000   
#
#
# - Energies      are Teter 93(XC)
# - Wavefunctions are Teter 93(XC)
#
# - The Green`s function is causal -
# - Using Shifted Grids -
# - [r,Vnl] *is* included -
#
#   BSK|Identifier              :2766
#      |Dimension               :69
#      |Bands                   :1 - 70
#      |Exchange           [res]: yes
#      |Correlation        [res]: no
#      |Kernel`s coupling       : yes
#      |Exchange           [cpl]: yes
#      |W interaction is bare   : no
#      |Correlation        [cpl]: no
#      |ALDA kernel in R-space  : no
#      |RL vectors    [exchange]:123
#      |E/h energy range    [ev]:-1.000000 - -1.000000
#      |Coupling range     [o/o]: 100.0000 -  100.0000
#  
#   Haydock|Accuracy (requested) [o/o]:   0.0050
#          |Accuracy (reached)   [o/o]:0.9645E-3
#          |Iteration                 :16
#
#  E/ev[1]    alpha /Im[2alpha /Re[3alpha0/Im[4alpha0/Re[5alpha`/Im[6alpha`/Re[7]
#
   0.00000    0.00000   14.75324    0.00000   20.42928    0.00000   14.75324
 0.7538E-1  0.2427E-2   14.75     0.4604E-2   20.43     0.2427E-2   14.75   
 0.1508     0.4854E-2   14.76     0.9214E-2   20.44     0.4854E-2   14.76   
 0.2261     0.7286E-2   14.76     0.1383E-1   20.44     0.7286E-2   14.76   
 0.3015     0.9723E-2   14.77     0.1847E-1   20.46     0.9723E-2   14.77   
 0.3769     0.1217E-1   14.78     0.2312E-1   20.47     0.1217E-1   14.78   
 0.4523     0.1462E-1   14.79     0.2779E-1   20.49     0.1462E-1   14.79   
 0.5276     0.1709E-1   14.80     0.3250E-1   20.51     0.1709E-1   14.80   
 0.6030     0.1956E-1   14.81     0.3724E-1   20.54     0.1956E-1   14.81   
   0.67839    0.02206   14.82757    0.04202   20.57083    0.02206   14.82757
   0.75377    0.02457   14.84514    0.04684   20.60418    0.02457   14.84514
   0.82915    0.02710   14.86463    0.05171   20.64131    0.02710   14.86463
   0.90452    0.02965   14.88605    0.05664   20.68222    0.02965   14.88605
   0.97990    0.03222   14.90939    0.06162   20.72676    0.03222   14.90939
   1.05528    0.03482   14.93452    0.06668   20.77508    0.03482   14.93452
   1.13065    0.03745   14.96172    0.07180   20.82726    0.03745   14.96172
   1.20603    0.04010   14.99099    0.07701   20.88329    0.04010   14.99099
   1.28141    0.04279   15.02219    0.08230   20.94317    0.04279   15.02219
   1.35678    0.04552   15.05547    0.08768   21.00720    0.04552   15.05547
   1.43216    0.04827   15.09074    0.09316   21.07539    0.04827   15.09074
   1.50754    0.05107   15.12825    0.09874   21.14757    0.05107   15.12825
   1.58291    0.05392   15.16775    0.10444   21.22406    0.05392   15.16775
   1.65829    0.05680   15.20955    0.11026   21.30499    0.05680   15.20955
   1.73367    0.05973   15.25335    0.11620   21.39029    0.05973   15.25335
   1.80905    0.06272   15.29945    0.12229   21.48004    0.06272   15.29945
   1.88442    0.06576   15.34791    0.12852   21.57453    0.06576   15.34791
   1.95980    0.06885   15.39868    0.13491   21.67369    0.06885   15.39868
   2.03518    0.07200   15.45175    0.14146   21.77775    0.07200   15.45175
   2.11055    0.07522   15.50711    0.14819   21.88692    0.07522   15.50711
   2.18593    0.07850   15.56506    0.15511   22.00105    0.07850   15.56506
   2.26131    0.08186   15.62546    0.16223   22.12059    0.08186   15.62546
   2.33668    0.08529   15.68831    0.16956   22.24555    0.08529   15.68831
   2.41206    0.08879   15.75390    0.17712   22.37606    0.08879   15.75390
   2.48744    0.09238   15.82208    0.18491   22.51242    0.09238   15.82208
   2.56281    0.09606   15.89323    0.19296   22.65465    0.09606   15.89323
   2.63819    0.09983   15.96705    0.20128   22.80302    0.09983   15.96705
   2.71357    0.10370   16.04353    0.20989   22.95784    0.10370   16.04353
   2.78894    0.10767   16.12313    0.21880   23.11933    0.10767   16.12313
   2.86432    0.11174   16.20591    0.22804   23.28749    0.11174   16.20591
   2.93970    0.11593   16.29166    0.23762   23.46292    0.11593   16.29166
   3.01508    0.12024   16.38060    0.24757   23.64553    0.12024   16.38060
   3.09045    0.12467   16.47279    0.25792   23.83577    0.12467   16.47279
   3.16583    0.12924   16.56847    0.26868   24.03410    0.12924   16.56847
   3.24121    0.13395   16.66748    0.27988   24.24065    0.13395   16.66748
   3.31658    0.13881   16.77020    0.29157   24.45580    0.13881   16.77020
   3.39196    0.14382   16.87663    0.30375   24.67976    0.14382   16.87663
   3.46734    0.14899   16.98698    0.31649   24.91329    0.14899   16.98698
   3.54271    0.15435   17.10112    0.32980   25.15653    0.15435   17.10112
   3.61809    0.15988   17.21947    0.34373   25.41007    0.15988   17.21947
   3.69347    0.16561   17.34205    0.35833   25.67435    0.16561   17.34205
   3.76884    0.17154   17.46901    0.37364   25.94983    0.17154   17.46901
   3.84422    0.17769   17.60048    0.38971   26.23716    0.17769   17.60048
   3.91960    0.18407   17.73678    0.40661   26.53672    0.18407   17.73678
   3.99497    0.19070   17.87789    0.42439   26.84955    0.19070   17.87789
   4.07035    0.19758   18.02403    0.44312   27.17601    0.19758   18.02403
   4.14573    0.20474   18.17559    0.46288   27.51686    0.20474   18.17559
   4.22111    0.21219   18.33264    0.48376   27.87312    0.21219   18.33264
   4.29648    0.21995   18.49532    0.50583   28.24538    0.21995   18.49532
   4.37186    0.22803   18.66392    0.52920   28.63491    0.22803   18.66392
   4.44724    0.23647   18.83875    0.55398   29.04239    0.23647   18.83875
   4.52261    0.24527   19.02018    0.58029   29.46890    0.24527   19.02018
   4.59799    0.25448   19.20827    0.60826   29.91609    0.25448   19.20827
   4.67337    0.26410   19.40349    0.63805   30.38478    0.26410   19.40349
   4.74874    0.27418   19.60618    0.66982   30.87667    0.27418   19.60618
   4.82412    0.28474   19.81659    0.70376   31.39322    0.28474   19.81659
   4.89950    0.29582   20.03507    0.74008   31.93610    0.29582   20.03507
   4.97487    0.30745   20.26215    0.77900   32.50728    0.30745   20.26215
   5.05025    0.31967   20.49820    0.82080   33.10870    0.31967   20.49820
   5.12563    0.33253   20.74366    0.86577   33.74266    0.33253   20.74366
   5.20100    0.34607   20.99912    0.91424   34.41167    0.34607   20.99912
   5.27638    0.36035   21.26497    0.96660   35.11848    0.36035   21.26497
   5.35176    0.37543   21.54185    1.02329   35.86605    0.37543   21.54185
   5.42714    0.39136   21.83037    1.08480   36.65802    0.39136   21.83037
   5.50251    0.40821   22.13127    1.15170   37.49808    0.40821   22.13127
   5.57789    0.42607   22.44513    1.22465   38.39039    0.42607   22.44513
   5.65327    0.44502   22.77293    1.30441   39.33992    0.44502   22.77293
   5.72864    0.46515   23.11518    1.39187   40.35199    0.46515   23.11518
   5.80402    0.48656   23.47329    1.48807   41.43263    0.48656   23.47329
   5.87940    0.50937   23.84793    1.59421   42.58885    0.50937   23.84793
   5.95477    0.53371   24.24020    1.71173   43.82868    0.53371   24.24020
   6.03015    0.55973   24.65138    1.84233   45.16114    0.55973   24.65138
   6.10553    0.58758   25.08286    1.98804   46.59640    0.58758   25.08286
   6.18090    0.61745   25.53598    2.15129   48.14690    0.61745   25.53598
   6.25628    0.64955   26.01230    2.33503   49.82651    0.64955   26.01230
   6.33166    0.68410   26.51360    2.54287   51.65167    0.68410   26.51360
   6.40704    0.72137   27.04180    2.77922   53.64181    0.72137   27.04180
   6.48241    0.76165   27.59920    3.04955   55.81960    0.76165   27.59920
   6.55779    0.80530   28.18794    3.36075   58.21283    0.80530   28.18794
   6.63317    0.85271   28.81078    3.72148   60.85419    0.85271   28.81078
   6.70854    0.90433   29.47075    4.14288   63.78408    0.90433   29.47075
   6.78392    0.96068   30.17104    4.63936   67.05139    0.96068   30.17104
   6.85930    1.02238   30.91565    5.22990   70.71736    1.02238   30.91565
   6.93467    1.09013   31.70850    5.93982   74.85838    1.09013   31.70850
   7.01005    1.16477   32.55457    6.80359   79.57192    1.16477   32.55457
   7.08543    1.24730   33.45940    7.86906   84.98368    1.24730   33.45940
   7.16080    1.33887   34.42916    9.20408   91.25825    1.33887   34.42916
   7.23618    1.44088   35.47118   10.90756   98.61641    1.44088   35.47118
    7.3116     1.5550    36.5936    13.1279   107.3588     1.5550    36.5936
    7.3869     1.6833    37.8064    16.0961   117.9064     1.6833    37.8064
    7.4623     1.8283    39.1207    20.1865   130.8632     1.8283    39.1207
    7.5377     1.9930    40.5500    26.0376   147.1233     1.9930    40.5500
    7.6131     2.1812    42.1102    34.8060   168.0513     2.1812    42.1102
    7.6884     2.3976    43.8200    48.7519   195.7910     2.3976    43.8200
    7.7638     2.6485    45.7025    72.7239   233.7313     2.6485    45.7025
    7.8392     2.9415    47.7855   118.3773   286.7032     2.9415    47.7855
    7.9146     3.2867    50.1031   217.2089   356.2579     3.2867    50.1031
    7.9899     3.6977    52.6979   450.2973   391.2326     3.6977    52.6979
    8.0653     4.1924    55.6233   769.7510    83.3193     4.1924    55.6233
    8.1407     4.7955    58.9476   543.6622  -348.5787     4.7955    58.9476
    8.2161     5.5417    62.7594   260.3509  -358.9841     5.5417    62.7594
    8.2915     6.4803    67.1756   136.9534  -288.1542     6.4803    67.1756
    8.3668     7.6847    72.3533    81.8512  -230.4728     7.6847    72.3533
    8.4422     9.2660    78.5094    53.8220  -189.0636     9.2660    78.5094
    8.5176    11.4006    85.9497    37.9131  -158.9844    11.4006    85.9497
    8.5930    14.3807    95.1187    28.1007  -136.4441    14.3807    95.1187
    8.6683    18.7178   106.6827    21.6547  -119.0230    18.7178   106.6827
    8.7437    25.3706   121.6724    17.2089  -105.1870    25.3706   121.6724
    8.8191    36.2917   141.7164    14.0236   -93.9382    36.2917   141.7164
    8.8945    55.8944   169.3290    11.6720   -84.6059    55.8944   169.3290
    8.9698    95.4318   207.3804     9.8952   -76.7243    95.4315   207.3804
    9.0452   186.1138   249.6146     8.5297   -69.9599   186.1128   249.6147
    9.1206   380.9742   206.3525     7.4698   -64.0659   380.9717   206.3559
    9.1960   440.7491   -94.3380     6.6467   -58.8536   440.7521   -94.3369
    9.2714   232.5346  -211.3571     6.0173   -54.1724   232.5375  -211.3589
    9.3467   115.8657  -175.8876     5.5598   -49.8952   115.8669  -175.8898
    9.4221    66.6512  -133.6385     5.2739   -45.9057    66.6515  -133.6409
    9.4975    43.7666  -101.4941     5.1913   -42.0854    43.7663  -101.4965
   9.57286   32.20238  -77.11088    5.40416  -38.29738   32.20159  -77.11340
   9.64824   26.51759  -57.43673    6.15008  -34.37150   26.51596  -57.43999
   9.72362   24.90469  -40.16901    8.07162  -30.15748   24.90137  -40.17346
   9.79900   27.75394  -23.50857   12.94939  -26.24880   27.74657  -23.51435
   9.87437   38.68680   -6.58651   22.43866  -28.67019   38.66875   -6.59184
   9.94975   68.03440    3.70480   20.97458  -41.05288   67.99318    3.72207
   10.0251   105.9444   -33.0559    11.5335   -42.0441   105.9549   -32.9692
  10.10050   73.32593  -80.15230    6.96658  -38.38869   73.39780  -80.14741
  10.17588   37.97647  -75.43490    5.00260  -34.86361   38.00981  -75.46291
  10.25126   22.62520  -62.10847    4.08965  -31.82693   22.63868  -62.13575
  10.32663   15.76115  -50.74617    3.68793  -29.10627   15.76617  -50.77063
  10.40201   12.43197  -41.44286    3.62716  -26.51930   12.43223  -41.46642
  10.47739   10.89767  -33.39426    3.91313  -23.89469   10.89386  -33.41901
  10.55276   10.57874  -25.90076    4.73141  -21.04419   10.56965  -25.92922
  10.62814   11.47306  -18.33731    6.65231  -17.78043   11.45481  -18.37244
  10.70352   14.17809  -10.03807   11.31341  -14.41958   14.14031  -10.08431
  10.77890   20.56492   -0.34047   21.45584  -15.73923   20.47859   -0.39887
  10.85427   36.03291    9.81269   24.25438  -30.53605   35.81749    9.78801
  10.92965   70.01276    5.00495   13.28803  -35.53551   69.67120    5.36462
  11.00503   81.22700  -45.71869    7.19481  -32.75704   81.67696  -45.21117
  11.08040   44.30451  -64.95750    4.61307  -29.68776   44.72097  -65.08778
  11.15578   23.42942  -56.73607    3.41936  -27.16660   23.59822  -56.95233
  11.23116   14.75261  -47.19323    2.85181  -25.05084   14.81414  -47.39200
  11.30653   10.99659  -39.33006    2.66087  -23.15594   11.00231  -39.51905
  11.38191    9.64787  -32.60615    2.83319  -21.32907    9.60423  -32.80388
  11.45729   10.16814  -26.29741    3.61245  -19.47271   10.04672  -26.52301
  11.53266   13.43480  -19.94555    5.78268  -17.93977   13.13609  -20.19560
  11.60804   22.72251  -15.19836    9.47789  -19.69238   22.00898  -15.23482
  11.68342   37.59914  -24.90899    7.72216  -24.24361   37.11643  -23.78560
  11.75879   29.02821  -44.10423    4.20668  -24.00986   29.85524  -43.64458
  11.83417   15.08493  -43.72448    2.60307  -22.51087   15.52821  -43.89923
  11.90955    8.84083  -38.79171    1.89108  -21.14794    9.02090  -38.99611
  11.98493    6.07523  -34.45540    1.54264  -19.98912    6.15156  -34.62749
  12.06030    4.73979  -30.91565    1.37491  -18.96519    4.76736  -31.06669
  12.13568    4.13261  -27.88505    1.33267  -18.01107    4.12701  -28.03031
  12.21106    4.06594  -25.10198    1.43287  -17.07088    4.02203  -25.25599
  12.28643    4.69401  -22.36264    1.79586  -16.10920    4.57835  -22.53592
  12.36181    6.75580  -19.73877    2.77950  -15.29574    6.46707  -19.89396
  12.43719   11.61545  -19.46930    4.41353  -15.97431   11.08908  -19.23155
  12.51256   13.14077  -26.11169    3.58376  -17.82564   13.34987  -25.51731
  12.58794    7.55693  -28.18061    2.03845  -17.55335    7.87592  -28.16223
  12.66332    4.36332  -26.25665    1.33668  -16.74419    4.49528  -26.33966
  12.73869    2.98036  -24.20537    1.02379  -15.99847    3.03552  -24.27859
  12.81407    2.31558  -22.47025    0.86915  -15.34362    2.33972  -22.52999
  12.88945    1.96924  -20.97734    0.79162  -14.74894    1.97761  -21.02936
  12.96482    1.79696  -19.63235    0.76300  -14.18613    1.79326  -19.68245
  13.04020    1.75123  -18.36102    0.77887  -13.63177    1.73129  -18.41335
  13.11558    1.83862  -17.10482    0.85430  -13.06600    1.78570  -17.15492
  13.19096    2.08977  -15.83617    1.01442  -12.48540    1.99494  -15.83543
  13.26633    2.53181  -14.43233    1.28745  -11.83203    2.47519  -14.36370
  13.34171    3.54357  -12.71974    1.93910  -11.05414    3.54038  -12.64015
  13.41709    6.02315  -10.87761    3.55111  -10.57493    6.07413  -10.80468
  13.49246   11.60069  -11.26848    5.58012  -12.56441   11.71832  -11.27381
  13.56784   14.10225  -19.52800    3.86119  -15.03724   14.09968  -19.62968
  13.64322    7.87390  -23.19804    2.01422  -14.76821    7.83352  -23.21064
  13.71859    4.12909  -21.82948    1.21090  -14.04680    4.11293  -21.82266
  13.79397    2.52993  -20.18078    0.84434  -13.43063    2.52400  -20.17381
  13.86935    1.77353  -18.86499    0.65385  -12.93052    1.77203  -18.85891
  13.94472    1.38489  -17.82668    0.54687  -12.51327    1.38685  -17.82163
  14.02010    1.19697  -17.01707    0.48822  -12.16212    1.20210  -17.01633
  14.09548    1.03298  -16.42343    0.43715  -11.87057    1.03341  -16.42610
  14.17085    0.84207  -15.84966    0.38283  -11.59220    0.84147  -15.85010
  14.24623    0.71668  -15.30360    0.34514  -11.32762    0.71646  -15.30360
  14.32161    0.63270  -14.81164    0.31804  -11.08201    0.63263  -14.81164
  14.39699    0.57082  -14.36682    0.29693  -10.85271    0.57079  -14.36682
  14.47236    0.52232  -13.96053    0.27962  -10.63704    0.52231  -13.96053
  14.54774    0.48279  -13.58552    0.26497  -10.43294    0.48279  -13.58552
  14.62312    0.44968  -13.23690    0.25227  -10.23891    0.44967  -13.23690
  14.69849    0.42136  -12.91081    0.24108  -10.05363    0.42136  -12.91081
  14.77387    0.39675  -12.60413    0.23109   -9.87620    0.39675  -12.60413
  14.84925    0.37509  -12.31465    0.22205   -9.70589    0.37508  -12.31465
  14.92462    0.35580  -12.04013    0.21382   -9.54211    0.35580  -12.04013
  15.00000    0.33848  -11.77941    0.20626   -9.38395    0.33848  -11.77941
# 
# YAMBO@anomaly x 001 CPUs * 11/19/2015  17:01 [start]
#                            11/19/2015  17:01 [end]
# 
# Cpu Timing [Min/Max/Average]: 02s/02s/02s
#
# .-Input file : yambo.in
# | optics                       # [R OPT] Optics
# | bse                          # [R BSE] Bethe Salpeter Equation.
# | bsk                          # [R BSK] Bethe Salpeter Equation kernel
# | bss                          # [R BSS] Bethe Salpeter Equation solver
# | BoseTemp= 0.000000     eV    # Bosonic Temperature
# | FFTGvecs=  9939        RL    # [FFT] Plane-waves
# | NonPDirs= "XYZ"              # [X/BSS] Non periodic chartesian directions (X,Y,Z,XY...)
# | BSEmod= "coupling"           # [BSE] resonant/causal/coupling
# | BSKmod= "Hartree"            # [BSE] IP/Hartree/HF/ALDA/SEX/BSfxc
# | BSSmod= "dh"                 # [BSS] (h)aydock/(d)iagonalization/(i)nversion/(t)ddft`
# | BSENGexx= 123          RL    # [BSK] Exchange components
# | % BEnRange
# |   0.00000 | 15.00000 | eV    # [BSS] Energy range
# | %
# | % BDmRange
# |   0.10000 |  0.10000 | eV    # [BSS] Damping range
# | %
# | BEnSteps= 200                # [BSS] Energy steps
# | % BLongDir
# | 0.1000E-4 | 0.000    | 0.000    |        # [BSS] [cc] Electric Field
# | %
# | % BSEBands
# |    1 |  70 |                 # [BSK] Bands range
# | %
# | BSHayTrs=   0.0050           # [BSS] [o/o] Haydock treshold. Strict(>0)/Average(<0)
