#  __  __   ________   ___ __ __    _______   ______        
# /_/\/_/\ /_______/\ /__//_//_/\ /_______/\ /_____/\       
# \ \ \ \ \\::: _  \ \\::\| \| \ \\::: _  \ \\:::_ \ \      
#  \:\_\ \ \\::(_)  \ \\:.      \ \\::(_)  \/_\:\ \ \ \     
#   \::::_\/ \:: __  \ \\:.\-/\  \ \\::  _  \ \\:\ \ \ \    
#     \::\ \  \:.\ \  \ \\. \  \  \ \\::(_)  \ \\:\_\ \ \   
#      \__\/   \__\/\__\/ \__\/ \__\/ \_______\/ \_____\/   
#                                                           
#               Version 3.4.2 Revision 4952                 
#                http://www.yambo-code.org                  
#
# Polarizability ( -<<X>> ) [volume @ Q(1) [q->0 direction]0.1000E-4  0.000     0.000   
#
#
# - Energies      are Teter 93(XC)
# - Wavefunctions are Teter 93(XC)
#
# - The Green`s function is causal -
# - Using Shifted Grids -
# - [r,Vnl] *is* included -
#
#   BSK|Identifier              :2766
#      |Dimension               :69
#      |Bands                   :1 - 70
#      |Exchange           [res]: yes
#      |Correlation        [res]: no
#      |Kernel`s coupling       : yes
#      |Exchange           [cpl]: yes
#      |W interaction is bare   : no
#      |Correlation        [cpl]: no
#      |ALDA kernel in R-space  : no
#      |RL vectors    [exchange]:123
#      |E/h energy range    [ev]:-1.000000 - -1.000000
#      |Coupling range     [o/o]: 100.0000 -  100.0000
#
#  E/ev[1]    alpha /Im[2alpha /Re[3alpha0/Im[4alpha0/Re[5]
#
  0.000     0.1772E-7   14.75      0.000      20.43   
 0.7538E-1  0.2426E-2   14.75     0.4604E-2   20.43   
 0.1508     0.4854E-2   14.76     0.9214E-2   20.44   
 0.2261     0.7286E-2   14.76     0.1383E-1   20.44   
 0.3015     0.9723E-2   14.77     0.1847E-1   20.46   
 0.3769     0.1217E-1   14.78     0.2312E-1   20.47   
 0.4523     0.1462E-1   14.79     0.2779E-1   20.49   
 0.5276     0.1709E-1   14.80     0.3250E-1   20.51   
 0.6030     0.1956E-1   14.81     0.3724E-1   20.54   
   0.67839    0.02206   14.82757    0.04202   20.57083
   0.75377    0.02457   14.84514    0.04684   20.60418
   0.82915    0.02710   14.86463    0.05171   20.64131
   0.90452    0.02965   14.88605    0.05664   20.68222
   0.97990    0.03222   14.90939    0.06162   20.72676
   1.05528    0.03482   14.93452    0.06668   20.77508
   1.13065    0.03745   14.96172    0.07180   20.82726
   1.20603    0.04010   14.99099    0.07701   20.88329
   1.28141    0.04279   15.02219    0.08230   20.94317
   1.35678    0.04552   15.05547    0.08768   21.00720
   1.43216    0.04827   15.09074    0.09316   21.07539
   1.50754    0.05107   15.12825    0.09874   21.14757
   1.58291    0.05392   15.16775    0.10444   21.22406
   1.65829    0.05680   15.20955    0.11026   21.30499
   1.73367    0.05973   15.25335    0.11620   21.39029
   1.80905    0.06272   15.29945    0.12229   21.48004
   1.88442    0.06576   15.34791    0.12852   21.57453
   1.95980    0.06885   15.39868    0.13491   21.67369
   2.03518    0.07200   15.45175    0.14146   21.77775
   2.11055    0.07522   15.50711    0.14819   21.88692
   2.18593    0.07850   15.56506    0.15511   22.00105
   2.26131    0.08186   15.62546    0.16223   22.12059
   2.33668    0.08529   15.68831    0.16956   22.24555
   2.41206    0.08879   15.75390    0.17712   22.37606
   2.48744    0.09238   15.82208    0.18491   22.51242
   2.56281    0.09606   15.89323    0.19296   22.65465
   2.63819    0.09983   15.96690    0.20128   22.80302
   2.71357    0.10370   16.04353    0.20989   22.95784
   2.78894    0.10767   16.12313    0.21880   23.11933
   2.86432    0.11174   16.20591    0.22804   23.28749
   2.93970    0.11593   16.29166    0.23762   23.46292
   3.01508    0.12024   16.38060    0.24757   23.64553
   3.09045    0.12467   16.47279    0.25792   23.83577
   3.16583    0.12924   16.56832    0.26868   24.03410
   3.24121    0.13395   16.66748    0.27988   24.24065
   3.31658    0.13881   16.77020    0.29157   24.45580
   3.39196    0.14382   16.87663    0.30375   24.67976
   3.46734    0.14899   16.98698    0.31649   24.91329
   3.54271    0.15434   17.10112    0.32980   25.15653
   3.61809    0.15988   17.21947    0.34373   25.41007
   3.69347    0.16561   17.34205    0.35833   25.67435
   3.76884    0.17154   17.46901    0.37364   25.94983
   3.84422    0.17769   17.60048    0.38971   26.23716
   3.91960    0.18407   17.73678    0.40661   26.53672
   3.99497    0.19070   17.87789    0.42439   26.84955
   4.07035    0.19758   18.02403    0.44312   27.17601
   4.14573    0.20474   18.17559    0.46288   27.51686
   4.22111    0.21219   18.33249    0.48376   27.87312
   4.29648    0.21994   18.49517    0.50583   28.24538
   4.37186    0.22803   18.66392    0.52920   28.63491
   4.44724    0.23647   18.83875    0.55398   29.04239
   4.52261    0.24527   19.02018    0.58029   29.46890
   4.59799    0.25448   19.20827    0.60826   29.91609
   4.67337    0.26410   19.40349    0.63805   30.38478
   4.74874    0.27418   19.60618    0.66982   30.87667
   4.82412    0.28474   19.81652    0.70376   31.39322
   4.89950    0.29582   20.03507    0.74008   31.93610
   4.97487    0.30744   20.26215    0.77900   32.50728
   5.05025    0.31967   20.49820    0.82080   33.10870
   5.12563    0.33253   20.74366    0.86577   33.74266
   5.20100    0.34607   20.99898    0.91424   34.41167
   5.27638    0.36035   21.26497    0.96660   35.11848
   5.35176    0.37542   21.54170    1.02329   35.86605
   5.42714    0.39135   21.83037    1.08480   36.65802
   5.50251    0.40821   22.13119    1.15170   37.49808
   5.57789    0.42607   22.44513    1.22465   38.39039
   5.65327    0.44502   22.77278    1.30441   39.33992
   5.72864    0.46514   23.11518    1.39187   40.35199
   5.80402    0.48656   23.47314    1.48807   41.43263
   5.87940    0.50937   23.84778    1.59421   42.58885
   5.95477    0.53371   24.24006    1.71173   43.82868
   6.03015    0.55973   24.65138    1.84233   45.16114
   6.10553    0.58758   25.08271    1.98804   46.59640
   6.18090    0.61745   25.53584    2.15129   48.14690
   6.25628    0.64954   26.01216    2.33503   49.82651
   6.33166    0.68409   26.51345    2.54287   51.65167
   6.40704    0.72136   27.04180    2.77922   53.64181
   6.48241    0.76165   27.59905    3.04955   55.81960
   6.55779    0.80530   28.18780    3.36075   58.21283
   6.63317    0.85270   28.81063    3.72148   60.85419
   6.70854    0.90432   29.47061    4.14288   63.78408
   6.78392    0.96067   30.17104    4.63936   67.05139
   6.85930    1.02237   30.91550    5.22990   70.71736
   6.93467    1.09012   31.70835    5.93982   74.85838
   7.01005    1.16476   32.55442    6.80359   79.57192
   7.08543    1.24728   33.45933    7.86906   84.98368
   7.16080    1.33885   34.42901    9.20408   91.25825
   7.23618    1.44087   35.47089   10.90756   98.61641
    7.3116     1.5550    36.5935    13.1279   107.3588
    7.3869     1.6833    37.8061    16.0961   117.9064
    7.4623     1.8283    39.1204    20.1865   130.8632
    7.5377     1.9929    40.5497    26.0376   147.1233
    7.6131     2.1811    42.1099    34.8060   168.0513
    7.6884     2.3976    43.8197    48.7519   195.7910
    7.7638     2.6484    45.7022    72.7239   233.7313
    7.8392     2.9414    47.7852   118.3773   286.7032
    7.9146     3.2867    50.1027   217.2089   356.2579
    7.9899     3.6976    52.6975   450.2973   391.2326
    8.0653     4.1923    55.6228   769.7510    83.3193
    8.1407     4.7954    58.9471   543.6622  -348.5787
    8.2161     5.5415    62.7587   260.3509  -358.9841
    8.2915     6.4802    67.1748   136.9534  -288.1542
    8.3668     7.6844    72.3524    81.8512  -230.4728
    8.4422     9.2657    78.5083    53.8220  -189.0636
    8.5176    11.4002    85.9482    37.9131  -158.9844
    8.5930    14.3801    95.1171    28.1007  -136.4441
    8.6683    18.7169   106.6804    21.6547  -119.0230
    8.7437    25.3691   121.6694    17.2089  -105.1870
    8.8191    36.2892   141.7123    14.0236   -93.9382
    8.8945    55.8896   169.3234    11.6720   -84.6059
    8.9698    95.4213   207.3728     9.8952   -76.7243
    9.0452   186.0885   249.6094     8.5297   -69.9599
    9.1206   380.9324   206.3864     7.4698   -64.0659
    9.1960   440.7811   -94.2851     6.6467   -58.8536
    9.2714   232.5685  -211.3588     6.0173   -54.1724
    9.3467   115.8799  -175.8971     5.5598   -49.8952
    9.4221    66.6575  -133.6463     5.2739   -45.9057
    9.4975    43.7697  -101.4999     5.1913   -42.0854
   9.57286   32.20405  -77.11532    5.40416  -38.29738
   9.64824   26.51847  -57.44044    6.15008  -34.37150
   9.72362   24.90495  -40.17227    8.07162  -30.15748
   9.79900   27.75349  -23.51183   12.94939  -26.24880
   9.87437   38.68507   -6.58962   22.43866  -28.67019
   9.94975   68.02998    3.70332   20.97458  -41.05288
   10.0251   105.9420   -33.0513    11.5335   -42.0441
  10.10050   73.32846  -80.15081    6.96658  -38.38869
  10.17588   37.97767  -75.43549    5.00260  -34.86361
  10.25126   22.62569  -62.10921    4.08965  -31.82693
  10.32663   15.76134  -50.74676    3.68793  -29.10627
  10.40201   12.43202  -41.44345    3.62716  -26.51930
  10.47739   10.89759  -33.39485    3.91313  -23.89469
  10.55276   10.57851  -25.90165    4.73141  -21.04419
  10.62814   11.47259  -18.33820    6.65231  -17.78043
  10.70352   14.17708  -10.03940   11.31341  -14.41958
  10.77890   20.56256   -0.34210   21.45584  -15.73923
  10.85427   36.02710    9.81180   24.25438  -30.53605
  10.92965   70.00321    5.01414   13.28803  -35.53551
  11.00503   81.23738  -45.70490    7.19481  -32.75704
  11.08040   44.31467  -64.95942    4.61307  -29.68776
  11.15578   23.43382  -56.74007    3.41936  -27.16660
  11.23116   14.75460  -47.19663    2.85181  -25.05084
  11.30653   10.99757  -39.33288    2.66087  -23.15594
  11.38191    9.64833  -32.60852    2.83319  -21.32907
  11.45729   10.16827  -26.29964    3.61245  -19.47271
  11.53266   13.43465  -19.94777    5.78268  -17.93977
  11.60804   22.72199  -15.20102    9.47789  -19.69238
  11.68342   37.59627  -24.91240    7.72216  -24.24361
  11.75879   29.02373  -44.10393    4.20668  -24.00986
  11.83417   15.08277  -43.72269    2.60307  -22.51087
  11.90955    8.83985  -38.79008    1.89108  -21.14794
  11.98493    6.07473  -34.45406    1.54264  -19.98912
  12.06030    4.73951  -30.91461    1.37491  -18.96519
  12.13568    4.13243  -27.88416    1.33267  -18.01107
  12.21106    4.06578  -25.10124    1.43287  -17.07088
  12.28643    4.69373  -22.36175    1.79586  -16.10920
  12.36181    6.75501  -19.73759    2.77950  -15.29574
  12.43719   11.61465  -19.46559    4.41353  -15.97431
  12.51256   13.14610  -26.10813    3.58376  -17.82564
  12.58794    7.56106  -28.18224    2.03845  -17.55335
  12.66332    4.36512  -26.25873    1.33668  -16.74419
  12.73869    2.98119  -24.20730    1.02379  -15.99847
  12.81407    2.31597  -22.47188    0.86915  -15.34362
  12.88945    1.96937  -20.97867    0.79162  -14.74894
  12.96482    1.79684  -19.63368    0.76300  -14.18613
  13.04020    1.75075  -18.36236    0.77887  -13.63177
  13.11558    1.83739  -17.10630    0.85430  -13.06600
  13.19096    2.08757  -15.83646    1.01442  -12.48540
  13.26633    2.53037  -14.43115    1.28745  -11.83203
  13.34171    3.54308  -12.71841    1.93910  -11.05414
  13.41709    6.02329  -10.87628    3.55111  -10.57493
  13.49246   11.60163  -11.26744    5.58012  -12.56441
  13.56784   14.10341  -19.52800    3.86119  -15.03724
  13.64322    7.87443  -23.19863    2.01422  -14.76821
  13.71859    4.12932  -21.82993    1.21090  -14.04680
  13.79397    2.53003  -20.18122    0.84434  -13.43063
  13.86935    1.77357  -18.86514    0.65385  -12.93052
  13.94472    1.38487  -17.82697    0.54687  -12.51327
  14.02010    1.19688  -17.01722    0.48822  -12.16212
  14.09548    1.03286  -16.42343    0.43715  -11.87057
  14.17085    0.84201  -15.84980    0.38283  -11.59220
  14.24623    0.71666  -15.30360    0.34514  -11.32762
  14.32161    0.63269  -14.81164    0.31804  -11.08201
  14.39699    0.57081  -14.36697    0.29693  -10.85271
  14.47236    0.52232  -13.96053    0.27962  -10.63704
  14.54774    0.48279  -13.58552    0.26497  -10.43294
  14.62312    0.44968  -13.23705    0.25227  -10.23891
  14.69849    0.42136  -12.91081    0.24108  -10.05363
  14.77387    0.39675  -12.60413    0.23109   -9.87620
  14.84925    0.37509  -12.31465    0.22205   -9.70589
  14.92462    0.35580  -12.04028    0.21382   -9.54211
  15.00000    0.33848  -11.77956    0.20626   -9.38395
# 
# YAMBO@anomaly x 001 CPUs * 11/19/2015  17:01 [start]
#                            11/19/2015  17:01 [end]
# 
# Cpu Timing [Min/Max/Average]: 02s/02s/02s
#
# .-Input file : yambo.in
# | optics                       # [R OPT] Optics
# | bse                          # [R BSE] Bethe Salpeter Equation.
# | bsk                          # [R BSK] Bethe Salpeter Equation kernel
# | bss                          # [R BSS] Bethe Salpeter Equation solver
# | BoseTemp= 0.000000     eV    # Bosonic Temperature
# | FFTGvecs=  9939        RL    # [FFT] Plane-waves
# | NonPDirs= "XYZ"              # [X/BSS] Non periodic chartesian directions (X,Y,Z,XY...)
# | BSEmod= "coupling"           # [BSE] resonant/causal/coupling
# | BSKmod= "Hartree"            # [BSE] IP/Hartree/HF/ALDA/SEX/BSfxc
# | BSSmod= "dh"                 # [BSS] (h)aydock/(d)iagonalization/(i)nversion/(t)ddft`
# | BSENGexx= 123          RL    # [BSK] Exchange components
# | % BEnRange
# |   0.00000 | 15.00000 | eV    # [BSS] Energy range
# | %
# | % BDmRange
# |   0.10000 |  0.10000 | eV    # [BSS] Damping range
# | %
# | BEnSteps= 200                # [BSS] Energy steps
# | % BLongDir
# | 0.1000E-4 | 0.000    | 0.000    |        # [BSS] [cc] Electric Field
# | %
# | % BSEBands
# |    1 |  70 |                 # [BSK] Bands range
# | %
# | BSHayTrs=   0.0050           # [BSS] [o/o] Haydock treshold. Strict(>0)/Average(<0)
