#                                                           
# :::   :::   :::     ::::    ::::  :::::::::   ::::::::    
# :+:   :+: :+: :+:   +:+:+: :+:+:+ :+:    :+: :+:    :+:   
#  +:+ +:+ +:+   +:+  +:+ +:+:+ +:+ +:+    +:+ +:+    +:+   
#   +#++: +#++:++#++: +#+  +:+  +#+ +#++:++#+  +#+    +:+   
#    +#+  +#+     +#+ +#+       +#+ +#+    +#+ +#+    +#+   
#    #+#  #+#     #+# #+#       #+# #+#    #+# #+#    #+#   
#    ###  ###     ### ###       ### #########   ########    
#                                                           
#             GPL Version 3.3.1 Revision 2132               
#                http://www.yambo-code.org                  
#
#   1          2          3          4          5          6          7          8          9
#  hw (eV)    REELS(x)   REELS(y)      Avg       Diff     Rel Diff   -2drv(x)   -2drv(y)   -Avg2Drv
     0.00000    0.30706    0.40206    0.35456   -0.09500   -0.26793  -22.34936  -30.17247  -26.26091
   0.1000E-1  0.3342     0.4381     0.3862     -.1040     -.2692     -22.35     -30.17     -26.26   
   0.2000E-1  0.3636     0.4773     0.4204     -.1137     -.2705     -23.95     -32.36     -28.16   
   0.3000E-1  0.3953     0.5196     0.4575     -.1243     -.2717     -25.64     -34.67     -30.15   
     0.04000    0.42964    0.56541    0.49753   -0.13577   -0.27289  -27.41098  -37.08720  -32.24909
     0.05000    0.46671    0.61493    0.54082   -0.14823   -0.27408  -29.27542  -39.63828  -34.45685
     0.06000    0.50670    0.66841    0.58756   -0.16172   -0.27524  -31.22571  -42.30026  -36.76298
     0.07000    0.54981    0.72613    0.63797   -0.17631   -0.27637  -33.26774  -45.09211  -39.17992
     0.08000    0.59625    0.78835    0.69230   -0.19210   -0.27747  -35.39678  -47.99837  -41.69758
     0.09000    0.64624    0.85537    0.75080   -0.20914   -0.27855  -37.61648  -51.02394  -44.32021
     0.10000    0.69998    0.92750    0.81374   -0.22752   -0.27960  -39.92321  -54.18064  -47.05193
     0.11000    0.75771    1.00504    0.88138   -0.24733   -0.28061  -42.30859  -57.43506  -49.87182
     0.12000    0.81968    1.08833    0.95400   -0.26865   -0.28160  -44.78695  -60.81583  -52.80139
     0.13000    0.88613    1.17769    1.03191   -0.29157   -0.28255  -47.34283  -64.29203  -55.81743
     0.14000    0.95730    1.27349    1.11540   -0.31619   -0.28347  -49.97375  -67.87780  -58.92577
     0.15000    1.03348    1.37608    1.20478   -0.34259   -0.28436  -52.67614  -71.55650  -62.11632
     0.16000    1.11493    1.48582    1.30037   -0.37089   -0.28522  -55.44656  -75.33065  -65.38861
     0.17000    1.20191    1.60309    1.40250   -0.40118   -0.28604  -58.27182  -79.16203  -68.71693
     0.18000    1.29473    1.72828    1.51150   -0.43355   -0.28683  -61.16393  -83.07222  -72.11807
     0.19000    1.39366    1.86178    1.62772   -0.46811   -0.28759  -64.09171  -87.06573  -75.57872
     0.20000    1.49900    2.00398    1.75149   -0.50498   -0.28831  -67.05515  -91.05196  -79.05356
     0.21000    1.61105    2.15529    1.88317   -0.54424   -0.28900  -70.04979  -95.12428  -82.58704
     0.22000    1.73010    2.31611    2.02311   -0.58601   -0.28966  -73.07544  -99.15848  -86.11696
      0.2300     1.8565     2.4868     2.1717    -0.6304    -0.2903   -76.0889  -103.2305   -89.6597
      0.2400     1.9904     2.6679     2.3292    -0.6775    -0.2909   -79.0953  -107.2930   -93.1941
      0.2500     2.1323     2.8597     2.4960    -0.7274    -0.2914   -82.0971  -111.2748   -96.6859
      0.2600     2.2824     3.0626     2.6725    -0.7802    -0.2919   -85.0581  -115.2228  -100.1405
      0.2700     2.4410     3.2771     2.8590    -0.8361    -0.2924   -87.9528  -119.0855  -103.5192
      0.2800     2.6084     3.5034     3.0559    -0.8950    -0.2929   -90.8138  -122.8669  -106.8403
      0.2900     2.7849     3.7420     3.2634    -0.9572    -0.2933   -93.5840  -126.5286  -110.0563
      0.3000     2.9707     3.9933     3.4820    -1.0226    -0.2937   -96.2542  -130.0047  -113.1295
      0.3100     3.1661     4.2576     3.7119    -1.0915    -0.2940   -98.7910  -133.2949  -116.0430
      0.3200     3.3715     4.5352     3.9533    -1.1638    -0.2944  -101.2133  -136.4325  -118.8229
      0.3300     3.5869     4.8265     4.2067    -1.2396    -0.2947  -103.4926  -139.3698  -121.4312
      0.3400     3.8127     5.1317     4.4722    -1.3189    -0.2949  -105.5719  -141.9642  -123.7681
      0.3500     4.0491     5.4511     4.7501    -1.4020    -0.2951  -107.4504  -144.3003  -125.8753
      0.3600     4.2962     5.7849     5.0405    -1.4887    -0.2953  -109.1578  -146.3893  -127.7735
      0.3700     4.5542     6.1334     5.3438    -1.5791    -0.2955  -110.5978  -148.0678  -129.3328
      0.3800     4.8233     6.4966     5.6600    -1.6733    -0.2956  -111.8087  -149.4215  -130.6151
      0.3900     5.1036     6.8748     5.9892    -1.7713    -0.2957  -112.7242  -150.3943  -131.5592
      0.4000     5.3951     7.2681     6.3316    -1.8730    -0.2958  -113.3250  -150.8711  -132.0981
      0.4100     5.6980     7.6764     6.6872    -1.9785    -0.2959  -113.6779  -150.9760  -132.3269
      0.4200     6.0122     8.0999     7.0560    -2.0877    -0.2959  -113.6874  -150.6232  -132.1553
      0.4300     6.3378     8.5384     7.4381    -2.2006    -0.2958  -113.2490  -149.6890  -131.4690
      0.4400     6.6747     8.9918     7.8333    -2.3171    -0.2958  -112.5907  -148.3534  -130.4720
      0.4500     7.0229     9.4601     8.2415    -2.4372    -0.2957  -111.4561  -146.4084  -128.9323
      0.4600     7.3823     9.9431     8.6627    -2.5608    -0.2956  -110.0158  -143.9284  -126.9721
      0.4700     7.7526    10.4404     9.0965    -2.6878    -0.2955  -108.0130  -140.8003  -124.4067
      0.4800     8.1337    10.9518     9.5428    -2.8181    -0.2953  -105.7630  -137.1772  -121.4701
      0.4900     8.5254    11.4770    10.0012    -2.9515    -0.2951  -102.9967  -133.0565  -118.0266
      0.5000     8.9274    12.0154    10.4714    -3.0879    -0.2949   -99.8305  -128.0211  -113.9258
      0.5100     9.3394    12.5666    10.9530    -3.2272    -0.2946   -96.1687  -122.7190  -109.4439
      0.5200     9.7610    13.1301    11.4456    -3.3691    -0.2944   -92.1633  -116.6346  -104.3989
      0.5300    10.1919    13.7053    11.9486    -3.5134    -0.2940   -87.6042  -109.8438   -98.7240
      0.5400    10.6315    14.2915    12.4615    -3.6600    -0.2937   -82.6260  -102.6340   -92.6300
     0.55000   11.07931   14.88791   12.98361   -3.80860   -0.29334  -77.34360  -94.81505  -86.07932
     0.56000   11.53489   15.49382   13.51435   -3.95892   -0.29294  -71.44942  -86.26955  -78.85948
     0.57000   11.99762   16.10835   14.05299   -4.11073   -0.29252  -65.26920  -77.24731  -71.25826
     0.58000   12.46688   16.73061   14.59874   -4.26373   -0.29206  -58.63166  -67.71060  -63.17113
     0.59000   12.94200   17.35964   15.15082   -4.41764   -0.29158  -51.61295  -57.52575  -54.56935
     0.60000   13.42228   17.99442   15.70835   -4.57214   -0.29106  -44.15520  -46.95901  -45.55711
     0.61000   13.90698   18.63390   16.27044   -4.72693   -0.29052  -36.52558  -35.97245  -36.24902
     0.62000   14.39533   19.27698   16.83615   -4.88165   -0.28995  -28.43862  -24.49040  -26.46451
     0.63000   14.88652   19.92251   17.40451   -5.03598   -0.28935  -20.08442  -12.47408  -16.27925
     0.64000   15.37972   20.56928   17.97450   -5.18955   -0.28872  -11.38689   -0.34332   -5.86511
     0.65000   15.87407   21.21608   18.54507   -5.34202   -0.28806   -2.70842   12.13069    4.71113
     0.66000   16.36868   21.86168   19.11518   -5.49300   -0.28736    6.56129   24.91002   15.73566
     0.67000   16.86264   22.50478   19.68371   -5.64214   -0.28664   15.52585   37.91816   26.72201
     0.68000   17.35504   23.14408   20.24956   -5.78904   -0.28588   24.94802   50.88786   37.91794
     0.69000   17.84495   23.77831   20.81163   -5.93335   -0.28510   34.33234   64.20148   49.26691
     0.70000   18.33143   24.40611   21.36877   -6.07468   -0.28428   43.75466   77.28591   60.52029
     0.71000   18.81353   25.02618   21.91985   -6.21265   -0.28343   53.25296   90.25537   71.75417
      0.7200    19.2903    25.6372    22.4638    -6.3469    -0.2825    62.4845   103.4542    82.9693
      0.7300    19.7608    26.2379    22.9994    -6.4771    -0.2816    71.7169   116.2347    93.9758
      0.7400    20.2242    26.8270    23.5256    -6.6028    -0.2807    80.8717   128.7081   104.7899
      0.7500    20.6795    27.4032    24.0413    -6.7238    -0.2797    89.7213   140.9906   115.3560
      0.7600    21.1258    27.9653    24.5455    -6.8396    -0.2786    98.4188   152.8925   125.6556
      0.7700    21.5622    28.5121    25.0372    -6.9499    -0.2776   106.5447   164.4138   135.4792
      0.7800    21.9880    29.0425    25.5153    -7.0545    -0.2765   114.5937   174.9805   144.7871
      0.7900    22.4023    29.5554    25.9789    -7.1531    -0.2753   122.3750   185.6606   154.0178
      0.8000    22.8044    30.0497    26.4271    -7.2453    -0.2742   129.2040   195.3129   162.2585
      0.8100    23.1936    30.5245    26.8591    -7.3309    -0.2729   136.1468   204.0104   170.0786
      0.8200    23.5692    30.9789    27.2740    -7.4097    -0.2717   141.9070   212.5553   177.2312
      0.8300    23.9306    31.4120    27.6713    -7.4814    -0.2704   147.7808   219.8401   183.8105
      0.8400    24.2772    31.8231    28.0502    -7.5460    -0.2690   152.5119   226.4790   189.4955
      0.8500    24.6085    32.2116    28.4101    -7.6031    -0.2676   156.8607   231.9340   194.3973
      0.8600    24.9242    32.5769    28.7506    -7.6528    -0.2662   160.5981   237.1206   198.8593
      0.8700    25.2238    32.9185    29.0711    -7.6947    -0.2647   163.2693   240.1738   201.7216
      0.8800    25.5071    33.2361    29.3716    -7.7290    -0.2631   165.6736   243.6848   204.6792
      0.8900    25.7738    33.5293    29.6515    -7.7555    -0.2616   166.9305   244.8263   205.8784
      0.9000    26.0238    33.7980    29.9109    -7.7742    -0.2599   167.8450   245.8166   206.8308
      0.9100    26.2570    34.0422    30.1496    -7.7852    -0.2582   167.6954   245.0581   206.3767
      0.9200    26.4735    34.2618    30.3676    -7.7883    -0.2565   166.7417   243.7611   205.2514
      0.9300    26.6732    34.4571    30.5652    -7.7838    -0.2547   165.2129   241.1628   203.1878
      0.9400    26.8565    34.6282    30.7424    -7.7717    -0.2528   162.9632   237.6547   200.3089
      0.9500    27.0235    34.7756    30.8995    -7.7521    -0.2509   159.4174   232.6984   196.0579
      0.9600    27.1745    34.8997    31.0371    -7.7252    -0.2489   155.7162   227.3564   191.5363
      0.9700    27.3099    35.0010    31.1555    -7.6911    -0.2469   150.9860   220.2610   185.6235
      0.9800    27.4303    35.0804    31.2553    -7.6501    -0.2448   145.6445   212.8592   179.2519
      0.9900    27.5361    35.1385    31.3373    -7.6024    -0.2426   139.3885   204.3906   171.8896
      1.0000    27.6279    35.1761    31.4020    -7.5481    -0.2404   133.2476   194.3211   163.7843
      1.0100    27.7065    35.1943    31.4504    -7.4878    -0.2381   125.1605   184.3265   154.7435
      1.0200    27.7725    35.1940    31.4832    -7.4216    -0.2357   117.7204   173.1092   145.4148
      1.0300    27.8267    35.1765    31.5016    -7.3498    -0.2333   108.9861   160.9042   134.9452
      1.0400    27.8700    35.1428    31.5064    -7.2728    -0.2308   100.0227   148.6990   124.3609
      1.0500    27.9034    35.0943    31.4989    -7.1909    -0.2283    90.5992   135.2694   112.9343
      1.0600    27.9277    35.0323    31.4800    -7.1046    -0.2257    80.8336   121.7654   101.2995
      1.0700    27.9438    34.9581    31.4510    -7.0142    -0.2230    70.8382   107.4208    89.1295
     1.08000   27.95296   34.87313   31.41304   -6.92017   -0.22030   60.15718   93.00139   76.57928
     1.09000   27.95605   34.77887   31.36746   -6.82282   -0.21751   49.62931   78.12515   63.87723
     1.10000   27.95418   34.67680   31.31549   -6.72262   -0.21467   38.90998   63.01892   50.96445
     1.11000   27.94841   34.56842   31.25842   -6.62000   -0.21178   28.07656   47.98956   38.03306
     1.12000   27.93984   34.45524   31.19754   -6.51540   -0.20884   16.93729   32.88275   24.91002
     1.13000   27.92958   34.33878   31.13418   -6.40920   -0.20586    6.21789   17.70002   11.95896
     1.14000   27.91870   34.22056   31.06963   -6.30186   -0.20283   -4.42506    2.59400   -0.91553
     1.15000   27.90825   34.10208   31.00517   -6.19382   -0.19977  -15.14438  -12.13076  -13.63757
     1.16000   27.89932   33.98481   30.94207   -6.08549   -0.19667  -25.44378  -26.77891  -26.11134
     1.17000   27.89294   33.87022   30.88158   -5.97728   -0.19355  -35.62891  -40.66426  -38.14659
     1.18000   27.89012   33.75970   30.82491   -5.86958   -0.19042  -44.93776  -54.55093  -49.74434
     1.19000   27.89180   33.65463   30.77321   -5.76283   -0.18727  -54.66537  -67.36848  -61.01693
     1.20000   27.89894   33.55629   30.72761   -5.65735   -0.18411  -63.09521  -80.03250  -71.56386
     1.21000   27.91239   33.46595   30.68917   -5.55356   -0.18096  -71.67744  -91.85699  -81.76721
      1.2200    27.9330    33.3848    30.6589    -5.4518    -0.1778   -79.1542  -102.9958   -91.0750
      1.2300    27.9615    33.3139    30.6377    -5.3524    -0.1747   -86.3649  -112.9153   -99.6401
      1.2400    27.9987    33.2544    30.6265    -5.2557    -0.1716   -92.6592  -122.4520  -107.5556
      1.2500    28.0452    33.2071    30.6261    -5.1619    -0.1685   -98.4194  -130.8444  -114.6319
      1.2600    28.1014    33.1728    30.6371    -5.0714    -0.1655  -103.4166  -138.5501  -120.9834
      1.2700    28.1680    33.1524    30.6602    -4.9844    -0.1626  -107.5747  -144.8062  -126.1904
      1.2800    28.2454    33.1465    30.6960    -4.9011    -0.1597  -110.8935  -150.3757  -130.6346
      1.2900    28.3339    33.1557    30.7448    -4.8218    -0.1568  -113.5638  -154.4192  -133.9915
    1.300      28.43      33.18      30.81     -4.747     -.1541     -115.1     -158.2     -136.7   
    1.310      28.55      33.22      30.88     -4.676     -.1514     -116.4     -160.0     -138.2   
    1.320      28.67      33.28      30.97     -4.609     -.1488     -115.9     -161.4     -138.6   
    1.330      28.80      33.35      31.08     -4.547     -.1463     -115.3     -161.1     -138.2   
    1.340      28.95      33.44      31.19     -4.490     -.1439     -113.9     -160.0     -136.9   
    1.350      29.11      33.54      31.32     -4.437     -.1416     -111.0     -157.9     -134.4   
    1.360      29.27      33.66      31.47     -4.388     -.1395     -107.8     -154.6     -131.2   
    1.370      29.45      33.80      31.63     -4.345     -.1374     -103.6     -150.1     -126.9   
    1.380      29.64      33.95      31.80     -4.306     -.1354     -98.76     -144.5     -121.6   
    1.390      29.84      34.12      31.98     -4.272     -.1336     -93.16     -138.6     -115.9   
      1.4000    30.0523    34.2945    32.1734    -4.2422    -0.1319   -86.4794  -131.0732  -108.7763
      1.4100    30.2699    34.4868    32.3784    -4.2169    -0.1302   -79.6129  -122.6046  -101.1087
      1.4200    30.4954    34.6914    32.5934    -4.1960    -0.1287   -71.7164  -113.7545   -92.7355
      1.4300    30.7281    34.9074    32.8177    -4.1792    -0.1273   -63.3615  -103.9876   -83.6745
     1.44000   30.96717   35.13369   33.05043   -4.16652   -0.12607  -54.62592  -93.07768  -73.85180
     1.45000   31.21167   35.36934   33.29050   -4.15767   -0.12489  -45.28054  -82.01614  -63.64834
     1.46000   31.46069   35.61318   33.53694   -4.15249   -0.12382  -35.32416  -69.96168  -52.64292
     1.47000   31.71325   35.86403   33.78864   -4.15078   -0.12285  -25.10105  -57.67902  -41.39004
     1.48000   31.96832   36.12064   34.04448   -4.15232   -0.12197  -14.61032  -44.78463  -29.69747
     1.49000   32.22484   36.38173   34.30328   -4.15688   -0.12118   -3.73837  -31.66167  -17.70002
     1.50000   32.48175   36.64598   34.56387   -4.16423   -0.12048    7.24794  -17.62393   -5.18800
     1.51000   32.73793   36.91200   34.82496   -4.17407   -0.11986   18.38688   -4.19618    7.09535
     1.52000   32.99227   37.17844   35.08535   -4.18617   -0.11931   29.67840    9.91823   19.79832
     1.53000   33.24364   37.44389   35.34377   -4.20025   -0.11884   40.89315   23.42201   32.15758
     1.54000   33.49092   37.70699   35.59896   -4.21607   -0.11843   52.26145   38.29963   45.28054
     1.55000   33.73298   37.96627   35.84962   -4.23329   -0.11808   63.32485   51.72801   57.52643
     1.56000   33.96870   38.22037   36.09454   -4.25166   -0.11779   74.23415   65.53662   69.88539
     1.57000   34.19701   38.46791   36.33246   -4.27091   -0.11755   84.83802   79.11603   81.97702
     1.58000   34.41682   38.70755   36.56219   -4.29073   -0.11735   95.51906   92.31475   93.91690
      1.5900    34.6271    38.9380    36.7825    -4.3109    -0.1172   105.4384   105.2858   105.3621
    1.600      34.83      39.16      36.99     -4.331     -.1171      115.1      117.6      116.3   
    1.610      35.02      39.37      37.19     -4.351     -.1170      124.7      129.5      127.1   
    1.620      35.19      39.56      37.38     -4.370     -.1169      132.9      140.9      136.9   
    1.630      35.35      39.74      37.55     -4.389     -.1169      141.4      151.4      146.4   
    1.640      35.50      39.91      37.70     -4.407     -.1169      149.1      161.5      155.3   
    1.650      35.63      40.06      37.85     -4.423     -.1169      155.9      170.7      163.3   
    1.660      35.75      40.19      37.97     -4.438     -.1169      162.3      179.4      170.8   
    1.670      35.85      40.31      38.08     -4.451     -.1169      168.2      187.0      177.6   
    1.680      35.94      40.40      38.17     -4.462     -.1169      172.7      193.6      183.1   
    1.690      36.01      40.48      38.24     -4.472     -.1169      177.3      199.9      188.6   
    1.700      36.06      40.54      38.30     -4.479     -.1169      180.5      204.7      192.6   
    1.710      36.09      40.57      38.33     -4.483     -.1170      183.3      208.8      196.1   
    1.720      36.10      40.59      38.34     -4.485     -.1170      185.2      212.4      198.8   
    1.730      36.10      40.58      38.34     -4.484     -.1170      186.2      214.2      200.2   
    1.740      36.07      40.55      38.31     -4.481     -.1170      186.8      216.0      201.4   
    1.750      36.03      40.50      38.27     -4.475     -.1169      186.5      216.1      201.3   
    1.760      35.97      40.43      38.20     -4.465     -.1169      185.2      215.8      200.5   
    1.770      35.89      40.34      38.12     -4.453     -.1168      183.1      214.3      198.7   
    1.780      35.79      40.23      38.01     -4.437     -.1167      181.0      212.0      196.5   
    1.790      35.68      40.09      37.88     -4.418     -.1166      177.3      208.9      193.1   
    1.800      35.54      39.94      37.74     -4.397     -.1165      173.6      205.1      189.3   
    1.810      35.39      39.76      37.58     -4.372     -.1163      168.8      200.3      184.6   
    1.820      35.22      39.57      37.39     -4.343     -.1162      163.3      194.5      178.9   
    1.830      35.04      39.35      37.19     -4.312     -.1159      158.1      188.8      173.4   
    1.840      34.84      39.12      36.98     -4.278     -.1157      151.4      181.5      166.4   
    1.850      34.62      38.86      36.74     -4.240     -.1154      144.7      174.0      159.3   
    1.860      34.39      38.59      36.49     -4.200     -.1151      137.1      166.3      151.7   
    1.870      34.15      38.31      36.23     -4.157     -.1147      129.7      157.5      143.6   
    1.880      33.89      38.00      35.95     -4.111     -.1144      121.5      148.5      135.0   
    1.890      33.63      37.69      35.66     -4.062     -.1139      113.1      138.9      126.0   
    1.900      33.35      37.36      35.35     -4.011     -.1135      104.3      129.2      116.8   
    1.910      33.05      37.01      35.03     -3.957     -.1130      95.52      119.1      107.3   
      1.9200    32.7551    36.6561    34.7056    -3.9010    -0.1124    86.4412   108.7191    97.5801
     1.93000   32.44665   36.28930   34.36797   -3.84265   -0.11181   77.20962   98.26679   87.73820
     1.94000   32.13044   35.91265   34.02155   -3.78220   -0.11117   68.13062   87.66191   77.89627
     1.95000   31.80743   35.52723   33.66733   -3.71980   -0.11049   58.67015   76.75185   67.71101
     1.96000   31.47854   35.13413   33.30634   -3.65559   -0.10976   49.39983   66.45136   57.92560
     1.97000   31.14472   34.73438   32.93955   -3.58967   -0.10898   40.28280   55.46515   47.87397
     1.98000   30.80686   34.32909   32.56798   -3.52223   -0.10815   31.08984   44.93722   38.01353
     1.99000   30.46590   33.91930   32.19260   -3.45340   -0.10727   22.01085   34.48493   28.24789
     2.00000   30.12274   33.50607   31.81440   -3.38333   -0.10635   13.27517   24.56670   18.92093
     2.01000   29.77825   33.09037   31.43431   -3.31212   -0.10537    4.95912   14.26699    9.61306
     2.02000   29.43326   32.67324   31.05325   -3.23998   -0.10434   -3.70026    4.73023    0.51499
     2.03000   29.08865   32.25564   30.67215   -3.16699   -0.10325  -11.52041   -4.80653   -8.16347
     2.04000   28.74518   31.83853   30.29185   -3.09334   -0.10212  -19.34055  -13.42776  -16.38416
     2.05000   28.40366   31.42275   29.91320   -3.01910   -0.10093  -26.62601  -22.50622  -24.56611
     2.06000   28.06479   31.00923   29.53701   -2.94444   -0.09969  -33.87377  -30.51691  -32.19534
     2.07000   27.72931   30.59876   29.16404   -2.86945   -0.09839  -40.16980  -38.37684  -39.27332
     2.08000   27.39785   30.19213   28.79499   -2.79428   -0.09704  -46.73124  -45.58681  -46.15903
     2.09000   27.07107   29.79005   28.43056   -2.71899   -0.09564  -52.29960  -52.60477  -52.45219
     2.10000   26.74951   29.39324   28.07137   -2.64373   -0.09418  -57.75463  -59.01348  -58.38405
     2.11000   26.43373   29.00232   27.71803   -2.56859   -0.09267  -62.90448  -64.65924  -63.78186
     2.12000   26.12424   28.61787   27.37106   -2.49364   -0.09110  -67.06251  -70.15241  -68.60746
     2.13000   25.82145   28.24044   27.03094   -2.41899   -0.08949  -71.33498  -74.80636  -73.07066
     2.14000   25.52580   27.87049   26.69814   -2.34468   -0.08782  -74.88086  -79.42026  -77.15056
     2.15000   25.23764   27.50847   26.37306   -2.27084   -0.08610  -78.16144  -83.04414  -80.60278
    2.160      24.96      27.15      26.06     -2.197     -.8434E-1  -80.76     -86.44     -83.60   
    2.170      24.69      26.81      25.75     -2.125     -.8252E-1  -83.28     -89.45     -86.36   
    2.180      24.42      26.47      25.45     -2.052     -.8066E-1  -85.07     -91.32     -88.20   
    2.190      24.17      26.15      25.16     -1.981     -.7875E-1  -86.56     -93.57     -90.07   
    2.200      23.92      25.83      24.87     -1.910     -.7679E-1  -87.70     -95.02     -91.36   
    2.210      23.68      25.52      24.60     -1.840     -.7479E-1  -88.31     -95.75     -92.03   
    2.220      23.45      25.22      24.34     -1.771     -.7275E-1  -88.81     -96.63     -92.72   
    2.230      23.23      24.93      24.08     -1.702     -.7067E-1  -88.85     -96.63     -92.74   
    2.240      23.02      24.65      23.84     -1.634     -.6856E-1  -88.50     -96.63     -92.56   
    2.250      22.82      24.38      23.60     -1.567     -.6640E-1  -87.96     -95.98     -91.97   
    2.260      22.62      24.12      23.37     -1.501     -.6422E-1  -87.01     -95.25     -91.13   
    2.270      22.44      23.87      23.16     -1.436     -.6200E-1  -85.98     -94.19     -90.08   
    2.280      22.26      23.63      22.95     -1.371     -.5975E-1  -84.61     -92.74     -88.67   
    2.290      22.09      23.40      22.75     -1.307     -.5747E-1  -82.97     -91.10     -87.03   
    2.300      21.93      23.18      22.56     -1.244     -.5517E-1  -81.29     -89.34     -85.32   
    2.310      21.78      22.97      22.37     -1.182     -.5284E-1  -79.38     -87.39     -83.39   
    2.320      21.64      22.76      22.20     -1.121     -.5049E-1  -77.36     -85.18     -81.27   
    2.330      21.50      22.56      22.03     -1.060     -.4813E-1  -75.11     -82.93     -79.02   
    2.340      21.37      22.38      21.88     -1.001     -.4574E-1  -72.94     -80.68     -76.81   
    2.350      21.25      22.20      21.72     -.9416     -.4334E-1  -70.65     -78.05     -74.35   
    2.360      21.14      22.02      21.58     -.8834     -.4093E-1  -68.09     -75.65     -71.87   
    2.370      21.03      21.86      21.45     -.8259     -.3851E-1  -65.81     -73.09     -69.45   
    2.380      20.93      21.70      21.32     -.7691     -.3608E-1  -63.29     -70.53     -66.91   
    2.390      20.84      21.55      21.19     -.7131     -.3364E-1  -60.88     -68.05     -64.47   
    2.400      20.75      21.41      21.08     -.6577     -.3120E-1  -58.40     -65.38     -61.89   
    2.410      20.67      21.27      20.97     -.6031     -.2876E-1  -56.11     -63.17     -59.64   
    2.420      20.59      21.14      20.86     -.5492     -.2632E-1  -53.67     -60.54     -57.10   
    2.430      20.52      21.01      20.77     -.4959     -.2388E-1  -51.54     -58.44     -54.99   
    2.440      20.45      20.90      20.67     -.4434     -.2145E-1  -49.21     -56.08     -52.64   
    2.450      20.39      20.78      20.59     -.3915     -.1902E-1  -47.11     -54.05     -50.58   
    2.460      20.33      20.67      20.50     -.3404     -.1660E-1  -45.24     -51.92     -48.58   
    2.470      20.28      20.57      20.43     -.2899     -.1419E-1  -43.11     -50.13     -46.62   
    2.480      20.23      20.47      20.35     -.2401     -.1179E-1  -41.54     -48.33     -44.94   
    2.490      20.19      20.38      20.29     -.1910     -.9413E-2  -39.60     -46.69     -43.14   
    2.500      20.15      20.29      20.22     -.1425     -.7049E-2  -38.22     -45.20     -41.71   
    2.510      20.12      20.21      20.16     -.9483E-1  -.4703E-2  -36.81     -43.83     -40.32   
    2.520      20.08      20.13      20.11     -.4782E-1  -.2378E-2  -35.32     -42.69     -39.01   
    2.530      20.05      20.06      20.06     -.1539E-2  -.7675E-4  -34.22     -41.54     -37.88   
    2.540      20.03      19.99      20.01     0.4401E-1  0.2200E-2  -33.26     -40.55     -36.91   
    2.550      20.01      19.92      19.96     0.8883E-1  0.4449E-2  -32.23     -39.86     -36.05   
    2.560      19.99      19.86      19.92     0.1329     0.6670E-2  -31.51     -39.14     -35.32   
    2.570      19.97      19.80      19.89     0.1762     0.8859E-2  -30.71     -38.64     -34.68   
    2.580      19.96      19.74      19.85     0.2187     0.1101E-1  -30.25     -38.22     -34.24   
    2.590      19.95      19.69      19.82     0.2604     0.1314E-1  -29.72     -37.96     -33.84   
    2.600      19.95      19.64      19.79     0.3012     0.1522E-1  -29.53     -37.69     -33.61   
    2.610      19.94      19.60      19.77     0.3413     0.1726E-1  -29.11     -37.80     -33.45   
    2.620      19.94      19.56      19.75     0.3805     0.1926E-1  -29.18     -37.65     -33.42   
    2.630      19.94      19.52      19.73     0.4188     0.2122E-1  -29.03     -37.96     -33.49   
    2.640      19.95      19.49      19.72     0.4563     0.2314E-1  -29.07     -38.15     -33.61   
    2.650      19.96      19.46      19.71     0.4928     0.2500E-1  -29.30     -38.26     -33.78   
    2.660      19.97      19.44      19.70     0.5284     0.2682E-1  -29.49     -38.87     -34.18   
    2.670      19.98      19.42      19.70     0.5631     0.2859E-1  -29.68     -39.06     -34.37   
    2.680      20.00      19.40      19.70     0.5969     0.3030E-1  -30.10     -39.63     -34.87   
    2.690      20.02      19.39      19.70     0.6297     0.3196E-1  -30.44     -40.17     -35.30   
    2.700      20.04      19.38      19.71     0.6615     0.3356E-1  -30.94     -40.66     -35.80   
    2.710      20.07      19.38      19.72     0.6924     0.3511E-1  -31.28     -41.28     -36.28   
    2.720      20.10      19.38      19.74     0.7223     0.3660E-1  -31.85     -41.85     -36.85   
    2.730      20.13      19.38      19.75     0.7511     0.3802E-1  -32.20     -42.38     -37.29   
    2.740      20.17      19.39      19.78     0.7790     0.3939E-1  -32.96     -43.03     -37.99   
    2.750      20.20      19.40      19.80     0.8058     0.4069E-1  -33.26     -43.56     -38.41   
    2.760      20.25      19.42      19.83     0.8316     0.4193E-1  -33.84     -44.14     -38.99   
    2.770      20.29      19.44      19.86     0.8564     0.4311E-1  -34.26     -44.75     -39.50   
    2.780      20.34      19.46      19.90     0.8801     0.4422E-1  -34.94     -45.09     -40.02   
    2.790      20.39      19.49      19.94     0.9028     0.4527E-1  -35.13     -45.70     -40.42   
     2.80000   20.45026   19.52579   19.98802    0.92447    0.04625  -35.63019  -46.08273  -40.85646
     2.81000   20.50993   19.56486   20.03739    0.94507    0.04717  -36.08710  -46.50125  -41.29417
     2.82000   20.57321   19.60857   20.09089    0.96464    0.04801  -36.35413  -46.76828  -41.56120
     2.83000   20.64013   19.65697   20.14855    0.98316    0.04880  -36.69746  -47.03531  -41.86638
     2.84000   20.71071   19.71007   20.21039    1.00064    0.04951  -36.85005  -47.30234  -42.07619
     2.85000   20.78498   19.76790   20.27644    1.01708    0.05016  -36.92634  -47.37863  -42.15249
     2.86000   20.86293   19.83047   20.34670    1.03247    0.05074  -37.15522  -47.49307  -42.32415
     2.87000   20.94461   19.89779   20.42120    1.04682    0.05126  -37.11619  -47.37750  -42.24685
     2.88000   21.02999   19.96984   20.49992    1.06015    0.05171  -37.00175  -47.37750  -42.18962
     2.89000   21.11908   20.04664   20.58286    1.07244    0.05210  -37.00264  -47.22604  -42.11434
     2.90000   21.21186   20.12816   20.67001    1.08371    0.05243  -36.77375  -47.03531  -41.90453
     2.91000   21.30833   20.21438   20.76135    1.09395    0.05269  -36.35413  -46.65384  -41.50398
     2.92000   21.40842   20.30526   20.85684    1.10316    0.05289  -36.23969  -46.23422  -41.23695
     2.93000   21.51214   20.40076   20.95646    1.11138    0.05303  -35.51490  -45.77645  -40.64568
     2.94000   21.61941   20.50085   21.06013    1.11856    0.05311  -35.21056  -45.20533  -40.20795
     2.95000   21.73020   20.60545   21.16783    1.12475    0.05313  -34.48575  -44.51866  -39.50220
     2.96000   21.84444   20.71450   21.27947    1.12993    0.05310  -33.68384  -43.79281  -38.73833
     2.97000   21.96205   20.82793   21.39499    1.13411    0.05301  -33.14899  -42.91440  -38.03170
     2.98000   22.08297   20.94566   21.51431    1.13731    0.05286  -32.04276  -42.15148  -37.09711
     2.99000   22.20709   21.06759   21.63734    1.13950    0.05266  -31.16614  -40.96992  -36.06803
     3.00000   22.33433   21.19363   21.76398    1.14071    0.05241  -30.05987  -40.01625  -35.03806
     3.01000   22.46458   21.32366   21.89412    1.14092    0.05211  -29.10620  -38.87184  -33.98902
     3.02000   22.59774   21.45759   22.02766    1.14015    0.05176  -27.73290  -37.65113  -32.69202
     3.03000   22.73368   21.59528   22.16448    1.13840    0.05136  -26.58849  -36.31599  -31.45224
     3.04000   22.87227   21.73660   22.30444    1.13567    0.05092  -25.29149  -35.01899  -30.15524
     3.05000   23.01339   21.88142   22.44741    1.13197    0.05043  -23.84190  -33.49311  -28.66751
     3.06000   23.15690   22.02959   22.59324    1.12730    0.04990  -22.39178  -32.08090  -27.23634
     3.07000   23.30264   22.18097   22.74181    1.12167    0.04932  -20.75150  -30.59320  -25.67235
     3.08000   23.45046   22.33541   22.89294    1.11505    0.04871  -19.26472  -28.83985  -24.05228
     3.09000   23.60020   22.49274   23.04647    1.10747    0.04805  -17.62436  -27.19949  -22.41192
     3.10000   23.75171   22.65278   23.20224    1.09893    0.04736  -15.94547  -25.55852  -20.75199
     3.11000   23.90481   22.81538   23.36009    1.08943    0.04664  -14.22885  -23.61302  -18.92093
     3.12000   24.05933   22.98034   23.51984    1.07899    0.04588  -12.35964  -22.01085  -17.18524
     3.13000   24.21509   23.14750   23.68130    1.06758    0.04508  -10.56673  -19.98905  -15.27789
     3.14000   24.37190   23.31666   23.84428    1.05524    0.04426   -8.96456  -18.27244  -13.61850
     3.15000   24.52961   23.48765   24.00863    1.04197    0.04340   -6.94260  -16.17396  -11.55828
     3.16000   24.68802   23.66025   24.17414    1.02776    0.04252   -4.88271  -14.19036   -9.53653
     3.17000   24.84691   23.83428   24.34059    1.01263    0.04160   -3.28065  -12.13076   -7.70570
     3.18000   25.00613   24.00952   24.50782    0.99661    0.04067   -1.29700  -10.45229   -5.87465
     3.19000   25.16547   24.18580   24.67564    0.97968    0.03970    0.76294   -8.23976   -3.73841
     3.20000   25.32475   24.36290   24.84383    0.96184    0.03872    2.47956   -6.02723   -1.77384
     3.21000   25.48377   24.54061   25.01219    0.94316    0.03771    4.53950   -4.11988    0.20981
     3.22000   25.64234   24.71873   25.18054    0.92361    0.03668    6.29426   -2.13623    2.07901
     3.23000   25.80029   24.89707   25.34868    0.90322    0.03563    8.43050    0.19074    4.31062
     3.24000   25.95739   25.07538   25.51639    0.88201    0.03457    9.99453    2.05994    6.02723
     3.25000   26.11349   25.25349   25.68349    0.86000    0.03348   11.86373    4.19618    8.02995
     3.26000   26.26841   25.43119   25.84980    0.83722    0.03239   14.03811    6.33241   10.18526
     3.27000   26.42193   25.60825   26.01509    0.81368    0.03128   15.44955    8.20161   11.82558
     3.28000   26.57389   25.78448   26.17919    0.78941    0.03015   17.31876   10.45229   13.88552
     3.29000   26.72413   25.95968   26.34190    0.76445    0.02902   19.07352   12.13076   15.60214
     3.30000   26.87246   26.13366   26.50306    0.73880    0.02788   20.86643   14.68661   17.77652
    3.310      27.02      26.31      26.66     0.7125     0.2672E-1   22.28      16.10      19.19   
    3.320      27.16      26.48      26.82     0.6856     0.2556E-1   23.92      18.46      21.19   
    3.330      27.30      26.65      26.98     0.6582     0.2440E-1   25.63      20.14      22.89   
    3.340      27.44      26.81      27.13     0.6302     0.2323E-1   26.93      21.97      24.45   
    3.350      27.58      26.98      27.28     0.6018     0.2206E-1   28.46      23.88      26.17   
    3.360      27.71      27.14      27.43     0.5728     0.2089E-1   29.87      25.71      27.79   
    3.370      27.84      27.30      27.57     0.5435     0.1971E-1   31.13      27.47      29.30   
    3.380      27.97      27.46      27.71     0.5137     0.1854E-1   32.35      29.03      30.69   
    3.390      28.10      27.61      27.85     0.4837     0.1737E-1   33.65      30.90      32.27   
    3.400      28.22      27.76      27.99     0.4534     0.1620E-1   34.56      32.16      33.36   
    3.410      28.33      27.91      28.12     0.4228     0.1503E-1   35.97      34.03      35.00   
    3.420      28.45      28.06      28.25     0.3920     0.1388E-1   36.66      35.17      35.92   
    3.430      28.56      28.20      28.38     0.3611     0.1273E-1   37.88      36.77      37.33   
    3.440      28.66      28.33      28.50     0.3301     0.1158E-1   38.57      37.92      38.24   
    3.450      28.77      28.47      28.62     0.2990     0.1045E-1   39.29      39.22      39.25   
    3.460      28.86      28.60      28.73     0.2679     0.9324E-2   40.25      40.63      40.44   
    3.470      28.96      28.72      28.84     0.2368     0.8211E-2   40.93      41.43      41.18   
    3.480      29.05      28.84      28.95     0.2058     0.7110E-2   41.16      42.69      41.92   
    3.490      29.14      28.96      29.05     0.1749     0.6023E-2   42.00      43.34      42.67   
    3.500      29.22      29.07      29.15     0.1442     0.4948E-2   42.31      44.37      43.34   
    3.510      29.30      29.18      29.24     0.1137     0.3889E-2   42.88      45.32      44.10   
    3.520      29.37      29.29      29.33     0.8343E-1  0.2845E-2   42.88      45.59      44.23   
    3.530      29.44      29.39      29.41     0.5343E-1  0.1816E-2   43.30      46.77      45.03   
    3.540      29.50      29.48      29.49     0.2377E-1  0.8060E-3   43.53      46.81      45.17   
    3.550      29.56      29.57      29.57     -.5556E-2  -.1879E-3   43.45      47.61      45.53   
    3.560      29.62      29.66      29.64     -.3446E-1  -.1163E-2   43.41      47.61      45.51   
    3.570      29.67      29.74      29.70     -.6295E-1  -.2119E-2   43.68      48.18      45.93   
    3.580      29.72      29.81      29.77     -.9099E-1  -.3057E-2   43.49      48.29      45.89   
    3.590      29.76      29.88      29.82     -.1185     -.3975E-2   43.14      48.29      45.72   
    3.600      29.80      29.95      29.87     -.1456     -.4873E-2   42.92      48.33      45.62   
    3.610      29.84      30.01      29.92     -.1721     -.5751E-2   42.72      48.37      45.55   
    3.620      29.87      30.07      29.97     -.1980     -.6608E-2   42.19      48.07      45.13   
    3.630      29.89      30.12      30.00     -.2234     -.7444E-2   41.85      48.03      44.94   
    3.640      29.92      30.16      30.04     -.2481     -.8259E-2   41.28      47.53      44.40   
    3.650      29.93      30.21      30.07     -.2722     -.9053E-2   40.63      47.15      43.89   
    3.660      29.95      30.24      30.09     -.2957     -.9824E-2   40.13      46.65      43.39   
    3.670      29.96      30.27      30.12     -.3185     -.1057E-1   39.52      46.35      42.94   
    3.680      29.96      30.30      30.13     -.3406     -.1130E-1   38.41      45.24      41.83   
    3.690      29.96      30.33      30.14     -.3620     -.1201E-1   37.88      45.05      41.47   
    3.700      29.96      30.34      30.15     -.3827     -.1269E-1   36.77      44.02      40.40   
    3.710      29.96      30.36      30.16     -.4027     -.1335E-1   35.93      43.26      39.60   
    3.720      29.95      30.37      30.16     -.4220     -.1399E-1   35.02      42.46      38.74   
    3.730      29.93      30.38      30.15     -.4405     -.1461E-1   33.84      41.47      37.65   
    3.740      29.92      30.38      30.15     -.4583     -.1520E-1   32.80      40.28      36.54   
    3.750      29.90      30.37      30.14     -.4753     -.1577E-1   31.70      39.40      35.55   
    3.760      29.88      30.37      30.12     -.4915     -.1632E-1   30.17      38.38      34.28   
    3.770      29.85      30.36      30.10     -.5069     -.1684E-1   29.37      37.31      33.34   
    3.780      29.82      30.34      30.08     -.5215     -.1734E-1   27.81      35.82      31.81   
    3.790      29.79      30.33      30.06     -.5354     -.1781E-1   26.47      34.60      30.54   
    3.800      29.76      30.31      30.03     -.5484     -.1826E-1   25.25      33.76      29.51   
    3.810      29.72      30.28      30.00     -.5605     -.1868E-1   23.61      32.12      27.87   
    3.820      29.68      30.25      29.97     -.5718     -.1908E-1   22.13      30.90      26.51   
    3.830      29.64      30.22      29.93     -.5823     -.1945E-1   20.98      29.45      25.22   
    3.840      29.60      30.19      29.89     -.5918     -.1980E-1   19.04      28.23      23.63   
    3.850      29.55      30.15      29.85     -.6005     -.2011E-1   17.55      26.63      22.09   
    3.860      29.51      30.12      29.81     -.6083     -.2040E-1   15.98      25.56      20.77   
    3.870      29.46      30.07      29.77     -.6151     -.2066E-1   14.46      23.84      19.15   
    3.880      29.41      30.03      29.72     -.6209     -.2089E-1   12.78      22.47      17.62   
    3.890      29.36      29.98      29.67     -.6258     -.2109E-1   11.14      21.10      16.12   
    3.900      29.31      29.94      29.62     -.6297     -.2126E-1   9.270      19.68      14.48   
    3.910      29.25      29.89      29.57     -.6326     -.2139E-1   7.706      17.85      12.78   
    3.920      29.20      29.83      29.52     -.6344     -.2149E-1   6.027      16.86      11.44   
    3.930      29.14      29.78      29.46     -.6352     -.2156E-1   4.196      15.18      9.689   
    3.940      29.09      29.72      29.41     -.6348     -.2159E-1   2.594      13.73      8.163   
    3.950      29.03      29.67      29.35     -.6334     -.2158E-1  0.9155      12.21      6.561   
    3.960      28.98      29.61      29.29     -.6308     -.2153E-1  -.8774      10.83      4.978   
    3.970      28.92      29.55      29.24     -.6270     -.2145E-1  -2.632      9.308      3.338   
    3.980      28.87      29.49      29.18     -.6221     -.2132E-1  -4.387      7.896      1.755   
    3.990      28.81      29.43      29.12     -.6159     -.2115E-1  -5.989      6.523     0.2670   
    4.000      28.76      29.37      29.07     -.6085     -.2094E-1  -7.400      4.921     -1.240   
    4.010      28.71      29.31      29.01     -.5999     -.2068E-1  -9.651      3.510     -3.071   
    4.020      28.66      29.25      28.95     -.5899     -.2038E-1  -10.72      2.365     -4.177   
    4.030      28.60      29.18      28.89     -.5786     -.2003E-1  -12.63     0.4578     -6.084   
    4.040      28.55      29.12      28.84     -.5660     -.1963E-1  -13.96     -.3433     -7.153   
    4.050      28.51      29.06      28.78     -.5521     -.1918E-1  -15.87     -2.174     -9.022   
    4.060      28.46      29.00      28.73     -.5368     -.1868E-1  -17.24     -3.242     -10.24   
    4.070      28.41      28.93      28.67     -.5201     -.1814E-1  -18.62     -4.845     -11.73   
    4.080      28.37      28.87      28.62     -.5020     -.1754E-1  -20.18     -5.989     -13.08   
    4.090      28.33      28.81      28.57     -.4825     -.1689E-1  -21.32     -7.362     -14.34   
    4.100      28.29      28.75      28.52     -.4616     -.1618E-1  -22.93     -8.621     -15.77   
    4.110      28.25      28.69      28.47     -.4392     -.1543E-1  -24.15     -9.880     -17.01   
    4.120      28.22      28.64      28.43     -.4155     -.1461E-1  -25.21     -11.18     -18.20   
    4.130      28.19      28.58      28.38     -.3903     -.1375E-1  -26.51     -12.32     -19.42   
    4.140      28.16      28.52      28.34     -.3637     -.1283E-1  -27.81     -13.54     -20.68   
    4.150      28.13      28.47      28.30     -.3357     -.1186E-1  -28.46     -14.57     -21.52   
    4.160      28.11      28.41      28.26     -.3063     -.1084E-1  -29.87     -15.95     -22.91   
    4.170      28.09      28.36      28.23     -.2755     -.9762E-2  -30.52     -16.86     -23.69   
    4.180      28.07      28.31      28.19     -.2434     -.8633E-2  -31.32     -17.97     -24.64   
    4.190      28.06      28.27      28.16     -.2099     -.7454E-2  -32.31     -19.11     -25.71   
    4.200      28.04      28.22      28.13     -.1751     -.6224E-2  -33.00     -19.84     -26.42   
    4.210      28.04      28.18      28.11     -.1390     -.4945E-2  -33.38     -21.06     -27.22   
    4.220      28.03      28.13      28.08     -.1016     -.3619E-2  -34.18     -21.82     -28.00   
    4.230      28.03      28.09      28.06     -.6304E-1  -.2247E-2  -34.60     -22.77     -28.69   
    4.240      28.03      28.06      28.05     -.2327E-1  -.8299E-3  -35.17     -23.50     -29.34   
    4.250      28.04      28.02      28.03     0.1767E-1  0.6302E-3  -35.10     -24.26     -29.68   
    4.260      28.05      27.99      28.02     0.5969E-1  0.2130E-2  -35.59     -25.14     -30.37   
    4.270      28.06      27.96      28.01     0.1028     0.3669E-2  -35.67     -25.56     -30.61   
    4.280      28.08      27.93      28.00     0.1468     0.5243E-2  -35.86     -26.44     -31.15   
    4.290      28.10      27.91      28.00     0.1919     0.6852E-2  -35.67     -26.82     -31.24   
    4.300      28.12      27.88      28.00     0.2378     0.8491E-2  -35.86     -27.50     -31.68   
    4.310      28.15      27.86      28.01     0.2845     0.1016E-1  -35.48     -27.69     -31.59   
    4.320      28.18      27.85      28.01     0.3321     0.1185E-1  -35.40     -28.23     -31.81   
    4.330      28.21      27.83      28.02     0.3803     0.1357E-1  -34.87     -28.53     -31.70   
    4.340      28.25      27.82      28.04     0.4292     0.1531E-1  -34.64     -28.69     -31.66   
    4.350      28.29      27.81      28.05     0.4786     0.1706E-1  -33.87     -29.07     -31.47   
    4.360      28.34      27.81      28.07     0.5286     0.1883E-1  -33.72     -28.88     -31.30   
    4.370      28.39      27.81      28.10     0.5790     0.2061E-1  -32.69     -29.26     -30.98   
    4.380      28.44      27.81      28.12     0.6298     0.2240E-1  -32.31     -29.03     -30.67   
    4.390      28.49      27.81      28.15     0.6809     0.2419E-1  -31.13     -28.99     -30.06   
    4.400      28.55      27.82      28.18     0.7322     0.2598E-1  -30.67     -28.76     -29.72   
    4.410      28.61      27.83      28.22     0.7837     0.2777E-1  -29.30     -28.72     -29.01   
     4.42000   28.67400   27.83870   28.25635    0.83530    0.02956  -28.34326  -28.22881  -28.28603
     4.43000   28.74047   27.85359   28.29703    0.88688    0.03134  -27.61846  -27.80919  -27.71383
     4.44000   28.80970   27.87127   28.34048    0.93843    0.03311  -26.13072  -27.54217  -26.83644
     4.45000   28.88154   27.89170   28.38662    0.98985    0.03487  -25.02446  -26.85552  -25.93999
     4.46000   28.95589   27.91481   28.43535    1.04108    0.03661  -23.84190  -26.51220  -25.17705
     4.47000   29.03263   27.94058   28.48660    1.09204    0.03834  -22.27894  -25.63604  -23.95749
     4.48000   29.11159   27.96891   28.54025    1.14268    0.04004  -21.17060  -25.06141  -23.11601
     4.49000   29.19267   27.99975   28.59621    1.19292    0.04172  -19.49221  -23.99335  -21.74278
     4.50000   29.27570   28.03299   28.65435    1.24271    0.04337  -18.08170  -23.53673  -20.80921
     4.51000   29.36054   28.06858   28.71456    1.29196    0.04499  -16.74655  -22.35417  -19.55036
     4.52000   29.44706   28.10641   28.77673    1.34064    0.04659  -15.02994  -21.59123  -18.31058
     4.53000   29.53507   28.14640   28.84074    1.38867    0.04815  -13.38961  -20.40867  -16.89914
     4.54000   29.62443   28.18843   28.90643    1.43600    0.04968  -11.74929  -19.34055  -15.54492
     4.55000   29.71496   28.23239   28.97367    1.48257    0.05117  -10.41414  -18.38688  -14.40051
     4.56000   29.80653   28.27819   29.04236    1.52834    0.05262   -8.39235  -17.01358  -12.70297
     4.57000   29.89894   28.32569   29.11232    1.57325    0.05404   -6.63759  -15.90732  -11.27245
     4.58000   29.99201   28.37479   29.18340    1.61723    0.05542   -5.11170  -14.49588   -9.80379
     4.59000   30.08559   28.42533   29.25546    1.66026    0.05675   -3.35694  -13.50405   -8.43050
     4.60000   30.17951   28.47723   29.32837    1.70229    0.05804   -1.60225  -11.86430   -6.73327
     4.61000   30.27359   28.53031   29.40195    1.74328    0.05929    0.26703  -10.64303   -5.18800
     4.62000   30.36765   28.58446   29.47605    1.78319    0.06050    1.79291   -9.19344   -3.70026
     4.63000   30.46152   28.63952   29.55052    1.82200    0.06166    3.62397   -7.89644   -2.13623
     4.64000   30.55503   28.69537   29.62520    1.85966    0.06277    5.45503   -6.37056   -0.45776
     4.65000   30.64800   28.75186   29.69993    1.89614    0.06384    7.05720   -5.03541    1.01090
     4.66000   30.74026   28.80886   29.77456    1.93141    0.06487    8.69711   -3.43307    2.63202
     4.67000   30.83166   28.86619   29.84892    1.96547    0.06585   10.45179   -1.90726    4.27227
     4.68000   30.92200   28.92372   29.92286    1.99829    0.06678   12.05447   -0.83923    5.60762
     4.69000   31.01114   28.98133   29.99624    2.02981    0.06767   13.69479    0.99182    7.34331
     4.70000   31.09892   29.03884   30.06888    2.06008    0.06851   15.22067    2.44141    8.83104
     4.71000   31.18517   29.09611   30.14064    2.08906    0.06931   16.63211    3.62397   10.12804
     4.72000   31.26976   29.15301   30.21138    2.11675    0.07006   18.31058    5.34059   11.82558
     4.73000   31.35252   29.20938   30.28095    2.14313    0.07077   19.68481    6.59975   13.14228
     4.74000   31.43331   29.26510   30.34920    2.16821    0.07144   20.98088    7.97273   14.47680
     4.75000   31.51200   29.32001   30.41601    2.19199    0.07207   22.43046    9.30788   15.86917
     4.76000   31.58845   29.37400   30.48122    2.21445    0.07265   23.46043   10.79561   17.12802
     4.77000   31.66255   29.42690   30.54473    2.23565    0.07319   24.91002   11.90188   18.40595
     4.78000   31.73416   29.47862   30.60639    2.25554    0.07370   25.90184   13.27517   19.58851
     4.79000   31.80319   29.52901   30.66610    2.27418    0.07416   27.00811   14.38144   20.69477
     4.80000   31.86951   29.57796   30.72374    2.29155    0.07459   27.92364   15.56399   21.74382
     4.81000   31.93304   29.62536   30.77920    2.30769    0.07498   29.02990   16.74655   22.88823
     4.82000   31.99367   29.67108   30.83237    2.32260    0.07533   29.67840   17.73838   23.70839
     4.83000   32.05133   29.71502   30.88318    2.33632    0.07565   30.44134   18.99723   24.71928
     4.84000   32.10595   29.75706   30.93151    2.34888    0.07594   31.12650   19.60665   25.36658
     4.85000   32.15746   29.79715   30.97730    2.36031    0.07619   31.81312   20.78915   26.30113
     4.86000   32.20578   29.83515   31.02047    2.37063    0.07642   32.35023   21.51596   26.93310
     4.87000   32.25087   29.87100   31.06094    2.37987    0.07662   32.65387   22.27787   27.46587
     4.88000   32.29269   29.90463   31.09866    2.38806    0.07679   33.18793   23.11711   28.15252
     4.89000   32.33120   29.93594   31.13357    2.39525    0.07693   33.34052   23.65117   28.49584
     4.90000   32.36636   29.96489   31.16563    2.40147    0.07706   33.41681   24.37596   28.89639
     4.91000   32.39819   29.99140   31.19479    2.40679    0.07715   33.72199   24.87187   29.29693
     4.92000   32.42663   30.01542   31.22103    2.41121    0.07723   33.64569   25.32964   29.48767
     4.93000   32.45171   30.03691   31.24431    2.41480    0.07729   33.72199   25.71111   29.71655
     4.94000   32.47343   30.05583   31.26463    2.41759    0.07733   33.64569   26.24517   29.94543
     4.95000   32.49178   30.07213   31.28195    2.41965    0.07735   33.34052   26.20702   29.77377
     4.96000   32.50679   30.08580   31.29630    2.42099    0.07736   33.11163   26.66479   29.88821
     4.97000   32.51850   30.09681   31.30765    2.42169    0.07735   32.88275   26.77922   29.83099
     4.98000   32.52692   30.10514   31.31603    2.42178    0.07733   32.27240   26.77923   29.52581
     4.99000   32.53211   30.11079   31.32145    2.42132    0.07731   31.89093   27.08440   29.48767
     5.00000   32.53411   30.11373   31.32392    2.42038    0.07727   31.58575   26.89367   29.23971
     5.01000   32.53295   30.11399   31.32347    2.41896    0.07723   30.82281   26.81737   28.82009
     5.02000   32.52871   30.11156   31.32014    2.41714    0.07718   30.21102   26.70166   28.45634
     5.03000   32.52145   30.10647   31.31396    2.41498    0.07712   29.67840   26.70293   28.19067
     5.04000   32.51122   30.09870   31.30496    2.41251    0.07706   28.91546   26.39775   27.65661
     5.05000   32.49809   30.08829   31.29319    2.40980    0.07701   28.30511   26.09258   27.19884
     5.06000   32.48214   30.07528   31.27871    2.40686    0.07695   27.46587   25.90184   26.68386
     5.07000   32.46344   30.05967   31.26156    2.40377    0.07689   26.77923   25.63481   26.20702
     5.08000   32.44207   30.04151   31.24179    2.40057    0.07684   25.86370   25.17705   25.52037
     5.09000   32.41811   30.02082   31.21947    2.39729    0.07679   25.17705   25.02446   25.10075
     5.10000   32.39163   29.99763   31.19463    2.39400    0.07674   24.33781   24.37596   24.35689
     5.11000   32.36272   29.97201   31.16736    2.39071    0.07671   23.49858   24.26152   23.88005
     5.12000   32.33146   29.94396   31.13771    2.38750    0.07668   22.96452   23.65117   23.30785
     5.13000   32.29789   29.91355   31.10572    2.38435    0.07665   21.89640   23.38414   22.64027
     5.14000   32.26215   29.88079   31.07147    2.38135    0.07664   21.36234   22.88823   22.12529
     5.15000   32.22426   29.84576   31.03501    2.37851    0.07664   20.52311   22.50676   21.51493
     5.16000   32.18432   29.80847   30.99640    2.37585    0.07665   19.83646   22.08714   20.96180
     5.17000   32.14240   29.76897   30.95568    2.37343    0.07667   19.22611   21.74382   20.48496
     5.18000   32.09855   29.72730   30.91293    2.37125    0.07671   18.76924   21.32522   20.04723
     5.19000   32.05283   29.68350   30.86816    2.36933    0.07676   18.08170   21.09532   19.58851
     5.20000   32.00529   29.63759   30.82144    2.36771    0.07682   17.62393   20.71385   19.16889
     5.21000   31.95600   29.58960   30.77280    2.36639    0.07690   17.31793   20.52213   18.92003
     5.22000   31.90496   29.53957   30.72227    2.36539    0.07699   16.78390   20.14068   18.46229
     5.23000   31.85225   29.48752   30.66989    2.36473    0.07710   16.78470   20.02720   18.40595
     5.24000   31.79786   29.43347   30.61567    2.36439    0.07723   16.44138   19.87461   18.15799
     5.25000   31.74182   29.37743   30.55963    2.36439    0.07737   16.36508   19.91276   18.13892
     5.26000   31.68415   29.31941   30.50178    2.36474    0.07753   16.47952   19.72202   18.10077
     5.27000   31.62483   29.25941   30.44212    2.36542    0.07770   16.36508   19.83646   18.10077
     5.28000   31.56387   29.19743   30.38065    2.36645    0.07789   16.78470   19.91276   18.34873
     5.29000   31.50124   29.13345   30.31734    2.36778    0.07810   16.97544   20.14164   18.55854
     5.30000   31.43690   29.06747   30.25219    2.36944    0.07832   17.39505   20.33237   18.86371
     5.31000   31.37083   28.99945   30.18514    2.37138    0.07856   17.85367   20.52409   19.18888
     5.32000   31.30298   28.92938   30.11618    2.37360    0.07881   18.53946   21.13346   19.83646
     5.33000   31.23326   28.85719   30.04523    2.37607    0.07908   19.30240   21.43864   20.37052
     5.34000   31.16162   28.78286   29.97224    2.37876    0.07937   20.02720   22.12529   21.07624
     5.35000   31.08798   28.70632   29.89715    2.38166    0.07966   21.05717   22.69749   21.87733
     5.36000   31.01224   28.62751   29.81987    2.38472    0.07997   22.08714   23.26970   22.67842
     5.37000   30.93428   28.54638   29.74033    2.38791    0.08029   23.30784   24.29967   23.80376
     5.38000   30.85400   28.46281   29.65840    2.39119    0.08062   24.41411   25.10076   24.75743
     5.39000   30.77127   28.37673   29.57400    2.39454    0.08097   25.97690   26.01504   25.99597
     5.40000   30.68595   28.28805   29.48700    2.39790    0.08132   27.31198   27.12126   27.21662
     5.41000   30.59789   28.19666   29.39727    2.40123    0.08168   29.06805   28.26696   28.66750
     5.42000   30.50693   28.10244   29.30468    2.40449    0.08205   30.55578   29.41137   29.98358
     5.43000   30.41291   28.00528   29.20910    2.40763    0.08243   32.38684   30.74652   31.56668
     5.44000   30.31565   27.90504   29.11035    2.41061    0.08281   34.29583   32.00690   33.15136
     5.45000   30.21496   27.80161   29.00829    2.41335    0.08320   36.12525   33.56940   34.84733
     5.46000   30.11066   27.69482   28.90274    2.41585    0.08359   38.14705   34.82825   36.48765
     5.47000   30.00255   27.58455   28.79355    2.41800    0.08398   40.16884   36.65931   38.41407
     5.48000   29.89042   27.47061   28.68052    2.41981    0.08437   42.34322   37.99446   40.16884
     5.49000   29.77405   27.35288   28.56347    2.42117    0.08476   44.36501   39.74922   42.05712
     5.50000   29.65325   27.23117   28.44221    2.42208    0.08516   46.76828   41.31325   44.04076
     5.51000   29.52777   27.10533   28.31655    2.42244    0.08555   48.71378   43.06801   45.89089
     5.52000   29.39742   26.97519   28.18630    2.42223    0.08594   51.15519   44.78463   47.96991
     5.53000   29.26195   26.84056   28.05126    2.42138    0.08632   53.29142   46.50125   49.89633
     5.54000   29.12115   26.70129   27.91122    2.41986    0.08670   55.54210   48.21786   51.87998
     5.55000   28.97481   26.55720   27.76600    2.41761    0.08707   57.75463   49.93448   53.84455
     5.56000   28.82269   26.40811   27.61540    2.41458    0.08744   59.85271   51.68925   55.77098
     5.57000   28.66458   26.25385   27.45921    2.41073    0.08779   62.10043   53.44146   57.77094
     5.58000   28.50026   26.09424   27.29725    2.40602    0.08814   63.96954   54.96727   59.46841
     5.59000   28.32955   25.92914   27.12934    2.40041    0.08848   66.18828   56.68921   61.43874
     5.60000   28.15221   25.75837   26.95529    2.39384    0.08881   68.01618   58.13610   63.07614
     5.61000   27.96808   25.58179   26.77493    2.38629    0.08912   69.84724   59.77642   64.81183
     5.62000   27.77696   25.39923   26.58810    2.37773    0.08943   71.60201   61.11156   66.35678
     5.63000   27.57868   25.21056   26.39462    2.36812    0.08972   73.20419   62.48486   67.84452
     5.64000   27.37309   25.01565   26.19437    2.35744    0.09000   74.69192   63.66742   69.17967
     5.65000   27.16002   24.81437   25.98720    2.34565    0.09026   75.95077   64.81184   70.38130
     5.66000   26.93936   24.60661   25.77298    2.33275    0.09051   77.20963   65.80365   71.50664
     5.67000   26.71097   24.39227   25.55162    2.31870    0.09075   78.23959   66.68103   72.46031
     5.68000   26.47476   24.17126   25.32301    2.30350    0.09096   78.92624   67.40583   73.16603
     5.69000   26.23066   23.94352   25.08709    2.28714    0.09117   79.80362   68.01618   73.90990
     5.70000   25.97857   23.70897   24.84377    2.26961    0.09136   80.18509   68.47395   74.32951
     5.71000   25.71847   23.46757   24.59302    2.25090    0.09153   80.37582   68.70283   74.53932
     5.72000   25.45033   23.21930   24.33481    2.23103    0.09168   80.52841   68.81727   74.67284
     5.73000   25.17413   22.96415   24.06914    2.20998    0.09182   80.37582   68.77912   74.57747
     5.74000   24.88989   22.70212   23.79601    2.18777    0.09194   79.91806   68.47395   74.19600
     5.75000   24.59767   22.43325   23.51546    2.16442    0.09204   79.41836   68.12737   73.77287
     5.76000   24.29749   22.15756   23.22753    2.13994    0.09213   78.46847   67.29139   72.87993
     5.77000   23.98948   21.87514   22.93231    2.11433    0.09220   77.36221   66.60474   71.98347
     5.78000   23.67372   21.58607   22.62989    2.08766    0.09225   76.14150   65.42218   70.78185
     5.79000   23.35035   21.29045   22.32040    2.05991    0.09229   74.61562   64.27777   69.44669
     5.80000   23.01952   20.98840   22.00396    2.03112    0.09231   72.70827   62.79004   67.74915
     5.81000   22.68142   20.68007   21.68074    2.00135    0.09231   70.83907   61.14971   65.99438
     5.82000   22.33623   20.36562   21.35092    1.97061    0.09230   68.51209   59.35680   63.93445
     5.83000   21.98419   20.04524   21.01471    1.93895    0.09227   66.03253   57.25871   61.64562
     5.84000   21.62555   19.71914   20.67234    1.90641    0.09222   63.32409   55.08433   59.20421
     5.85000   21.26057   19.38753   20.32405    1.87304    0.09216   60.50122   52.52848   56.51485
     5.86000   20.88954   19.05066   19.97010    1.83888    0.09208   57.29686   49.93448   53.61567
     5.87000   20.51278   18.70881   19.61079    1.80398    0.09199   53.97807   47.22604   50.60205
     5.88000   20.13063   18.36223   19.24643    1.76840    0.09188   50.54483   44.21243   47.37863
     5.89000   19.74342   18.01123   18.87733    1.73219    0.09176   46.80865   41.04818   43.92842
     5.90000   19.35153   17.65613   18.50383    1.69540    0.09162   42.91542   37.80372   40.35957
     5.91000   18.95535   17.29725   18.12630    1.65810    0.09147   38.98628   34.29419   36.64024
     5.92000   18.55527   16.93494   17.74510    1.62033    0.09131   34.79011   30.82281   32.80646
     5.93000   18.15170   16.56955   17.36063    1.58216    0.09113   30.55578   27.08440   28.82009
     5.94000   17.74509   16.20145   16.97327    1.54364    0.09095   26.24392   23.45931   24.85162
     5.95000   17.33585   15.83100   16.58343    1.50485    0.09074   21.51391   19.24427   20.37909
     5.96000   16.92447   15.45863   16.19155    1.46583    0.09053   17.08988   15.46863   16.27925
     5.97000   16.51137   15.08471   15.79804    1.42665    0.09031   12.39779   11.40597   11.90188
     5.98000   16.09703   14.70966   15.40334    1.38737    0.09007    7.78200    7.32423    7.55311
     5.99000   15.68192   14.33387   15.00789    1.34805    0.08982    2.99454    3.16620    3.08037
     6.00000   15.26650   13.95776   14.61213    1.30874    0.08957    2.99454    3.16620    3.08037
# 
# YAMBO_SURF@dafne x 001 CPUs * 04/06/2013  16:02 [start]
#                               04/06/2013  16:02 [end]
# 
# Cpu Timing [Min/Max/Average]: 08s/08s/08s
#
# .-Input file : Inputs/06_REELS_bulk
# | sursp                        # [R] Surface Spectroscopy
# | reels                        # [R] Reflection EELS (3-layer model)
# | % BndsRnXd
# |    1 | 200 |                 # [Xd] Polarization function bands
# | %
# | % EnRngeXd
# |  0.000000 | 6.000000 | eV    # [Xd] Energy range
# | %
# | % DmRngeXd
# |    0.0060 |   0.0060 | eV    # [Xd] Damping range
# | %
# | ETStpsXd=  601               # [Xd] Total Energy steps
# | FFTGvecs= 1007         RL    # [FFT] Plane-waves
# | % XfnQP_E
# |  0.500000 | 1.000000 | 1.000000 |        # [EXTQP Xd] E parameters  (c/v) eV|adim|adim
# | %
# | BulkFile= "Experiment/EPSILON_Si_bulk_RPA.dat" # [RAS] File containing bulk
# | BulkForm= "3ir"              # [RAS] Format of bulk (`3ri`,`3ir`,`2KK`,`3KK`)
# | BlkShift= 0.500000     eV    # [RAS] GW shift of bulk eps
# | BlkBroad= 0.000000     eV    # [RAS] Broadening of bulk eps
# | % Layers
# |  22.00000 | 12.00000 |  0.00000 |        # [RAS] Atomic layers in cell/slab/bulk
# | %
# | % q0x
# | 0.1000E-4 | 0.000    | 0.000    |        # [RAS] [cc] X-polarization direction
# | %
# | % q0y
# |  0.000    |0.1000E-4 | 0.000    |        # [RAS] [cc] Y-polarization direction
# | %
# | #Cutoff                      # [RAS] Cutoff mode (Uncomment to use)
# | CutZero= 0.000000            # [RAS] Zero position of cutoff fn (Frac)
# | CutStep= 1.000000            # [RAS] Width of cutoff function (Frac)
# | E0= 40.00000           eV    # [REELS] Incident energy
# | Theta0= 60.00000             # [REELS] Incident angle   (deg)
# | Thetap= 0.000000             # [REELS] Deflection angle (deg)
# | DetAngle=  0.02618           # [REELS] Detector window  (deg)
# | LossForm= "ar"               # [REELS] Functional form of loss (1b/2b/2e/aq/az/ar/ig/iq/id/ip/ap/is)
# | DetIntMd= "av"               # [REELS] Detector integration (`av`,`no`,`nu`)
# | NumIntPt= 1                  # [REELS] Number of points for integral
# | PenDepth= 12.00000           # [REELS] Penetration depth of electron (a.u.)
# | GausConv= 0.700000     eV    # [REELS] Gaussian convolution (FWHM)
