#                                                           
#                                                           
# Y88b    /   e           e    e      888~~\    ,88~-_      
#  Y88b  /   d8b         d8b  d8b     888   |  d888   \     
#   Y88b/   /Y88b       d888bdY88b    888 _/  88888    |    
#    Y8Y   /  Y88b     / Y88Y Y888b   888  \  88888    |    
#     Y   /____Y88b   /   YY   Y888b  888   |  Y888   /     
#    /   /      Y88b /          Y888b 888__/    `88_-~      
#                                                           
#                                                           
#       Version 4.3.0 Revision 15746 Hash 61e4334           
#                     MPI+SLK Build                         
#               http://www.yambo-code.org                   
#
# EELS @ Q(1)  [q->0 direction]:0.1000E-4  0.000     0.000   
#
#
# - Energies      are Teter 93(XC)
# - Wavefunctions are Teter 93(XC)
#
# - The Green`s function is Retarded -
# - Using the Length Gauge -
# - [r,Vnl] *is* included -
#
#   BSK|Identifier              :4619
#      |Dimension               :9
#      |Bands                   :1 - 10
#      |Exchange           [res]: yes
#      |Correlation        [res]: no
#      |Kernel`s coupling       : yes
#      |Exchange           [cpl]: yes
#      |Correlation        [cpl]: no
#      |W interaction is bare   : no
#      |ALDA kernel in R-space  : no
#      |RL vectors    [exchange]:4945
#      |E/h energy range    [ev]:-1.000000 - -1.000000
#      |Coupling range     [o/o]: 100.0000 -  100.0000
#
#    E/ev[1]      EEL-Im[2]    EEL-Re[3]    EELo-Im[4]   EELo-Re[5]
#
    6.000       0.9580E-4    -.9854       0.1540E-3    -.9813   
    6.020       0.9638E-4    -.9853       0.1550E-3    -.9813   
    6.040       0.9697E-4    -.9853       0.1560E-3    -.9813   
    6.060       0.9756E-4    -.9853       0.1571E-3    -.9812   
    6.080       0.9816E-4    -.9853       0.1582E-3    -.9812   
    6.100       0.9876E-4    -.9853       0.1592E-3    -.9812   
    6.120       0.9936E-4    -.9852       0.1603E-3    -.9812   
    6.140       0.9997E-4    -.9852       0.1614E-3    -.9811   
    6.160       0.1006E-3    -.9852       0.1625E-3    -.9811   
    6.180       0.1012E-3    -.9852       0.1636E-3    -.9811   
    6.200       0.1018E-3    -.9852       0.1647E-3    -.9810   
    6.220       0.1024E-3    -.9851       0.1658E-3    -.9810   
    6.240       0.1031E-3    -.9851       0.1670E-3    -.9810   
    6.261       0.1037E-3    -.9851       0.1681E-3    -.9809   
    6.281       0.1043E-3    -.9851       0.1693E-3    -.9809   
    6.301       0.1050E-3    -.9851       0.1704E-3    -.9809   
    6.321       0.1056E-3    -.9850       0.1716E-3    -.9808   
    6.341       0.1063E-3    -.9850       0.1728E-3    -.9808   
    6.361       0.1069E-3    -.9850       0.1740E-3    -.9807   
    6.381       0.1076E-3    -.9850       0.1752E-3    -.9807   
    6.401       0.1082E-3    -.9849       0.1764E-3    -.9807   
    6.421       0.1089E-3    -.9849       0.1776E-3    -.9806   
    6.441       0.1096E-3    -.9849       0.1788E-3    -.9806   
    6.461       0.1103E-3    -.9849       0.1801E-3    -.9806   
    6.481       0.1109E-3    -.9849       0.1813E-3    -.9805   
    6.501       0.1116E-3    -.9848       0.1826E-3    -.9805   
    6.521       0.1123E-3    -.9848       0.1839E-3    -.9805   
    6.541       0.1130E-3    -.9848       0.1851E-3    -.9804   
    6.561       0.1137E-3    -.9848       0.1864E-3    -.9804   
    6.581       0.1144E-3    -.9847       0.1877E-3    -.9804   
    6.601       0.1151E-3    -.9847       0.1891E-3    -.9803   
    6.621       0.1158E-3    -.9847       0.1904E-3    -.9803   
    6.641       0.1166E-3    -.9847       0.1917E-3    -.9802   
    6.661       0.1173E-3    -.9847       0.1931E-3    -.9802   
    6.681       0.1180E-3    -.9846       0.1944E-3    -.9802   
    6.701       0.1188E-3    -.9846       0.1958E-3    -.9801   
    6.721       0.1195E-3    -.9846       0.1972E-3    -.9801   
    6.741       0.1202E-3    -.9846       0.1986E-3    -.9800   
    6.762       0.1210E-3    -.9845       0.2000E-3    -.9800   
    6.782       0.1218E-3    -.9845       0.2014E-3    -.9800   
    6.802       0.1225E-3    -.9845       0.2029E-3    -.9799   
    6.822       0.1233E-3    -.9845       0.2043E-3    -.9799   
    6.842       0.1241E-3    -.9844       0.2058E-3    -.9798   
    6.862       0.1248E-3    -.9844       0.2072E-3    -.9798   
    6.882       0.1256E-3    -.9844       0.2087E-3    -.9798   
    6.902       0.1264E-3    -.9844       0.2102E-3    -.9797   
    6.922       0.1272E-3    -.9843       0.2117E-3    -.9797   
    6.942       0.1280E-3    -.9843       0.2133E-3    -.9796   
    6.962       0.1288E-3    -.9843       0.2148E-3    -.9796   
    6.982       0.1297E-3    -.9843       0.2164E-3    -.9795   
    7.002       0.1305E-3    -.9842       0.2179E-3    -.9795   
    7.022       0.1313E-3    -.9842       0.2195E-3    -.9795   
    7.042       0.1322E-3    -.9842       0.2211E-3    -.9794   
    7.062       0.1330E-3    -.9842       0.2227E-3    -.9794   
    7.082       0.1339E-3    -.9841       0.2244E-3    -.9793   
    7.102       0.1347E-3    -.9841       0.2260E-3    -.9793   
    7.122       0.1356E-3    -.9841       0.2277E-3    -.9792   
    7.142       0.1364E-3    -.9840       0.2294E-3    -.9792   
    7.162       0.1373E-3    -.9840       0.2311E-3    -.9791   
    7.182       0.1382E-3    -.9840       0.2328E-3    -.9791   
    7.202       0.1391E-3    -.9840       0.2345E-3    -.9790   
    7.222       0.1400E-3    -.9839       0.2362E-3    -.9790   
    7.242       0.1409E-3    -.9839       0.2380E-3    -.9790   
    7.263       0.1418E-3    -.9839       0.2398E-3    -.9789   
    7.283       0.1427E-3    -.9839       0.2416E-3    -.9789   
    7.303       0.1437E-3    -.9838       0.2434E-3    -.9788   
    7.323       0.1446E-3    -.9838       0.2452E-3    -.9788   
    7.343       0.1455E-3    -.9838       0.2471E-3    -.9787   
    7.363       0.1465E-3    -.9837       0.2489E-3    -.9787   
    7.383       0.1475E-3    -.9837       0.2508E-3    -.9786   
    7.403       0.1484E-3    -.9837       0.2527E-3    -.9786   
    7.423       0.1494E-3    -.9836       0.2546E-3    -.9785   
    7.443       0.1504E-3    -.9836       0.2566E-3    -.9785   
    7.463       0.1514E-3    -.9836       0.2586E-3    -.9784   
    7.483       0.1524E-3    -.9836       0.2605E-3    -.9784   
    7.503       0.1534E-3    -.9835       0.2625E-3    -.9783   
    7.523       0.1544E-3    -.9835       0.2646E-3    -.9782   
    7.543       0.1554E-3    -.9835       0.2666E-3    -.9782   
    7.563       0.1565E-3    -.9834       0.2687E-3    -.9781   
    7.583       0.1575E-3    -.9834       0.2708E-3    -.9781   
    7.603       0.1586E-3    -.9834       0.2729E-3    -.9780   
    7.623       0.1596E-3    -.9833       0.2750E-3    -.9780   
    7.643       0.1607E-3    -.9833       0.2772E-3    -.9779   
    7.663       0.1618E-3    -.9833       0.2793E-3    -.9779   
    7.683       0.1629E-3    -.9832       0.2815E-3    -.9778   
    7.703       0.1640E-3    -.9832       0.2838E-3    -.9778   
    7.723       0.1651E-3    -.9832       0.2860E-3    -.9777   
    7.743       0.1662E-3    -.9831       0.2883E-3    -.9776   
    7.764       0.1673E-3    -.9831       0.2906E-3    -.9776   
    7.784       0.1685E-3    -.9831       0.2929E-3    -.9775   
    7.804       0.1696E-3    -.9830       0.2952E-3    -.9775   
    7.824       0.1708E-3    -.9830       0.2976E-3    -.9774   
    7.844       0.1719E-3    -.9830       0.3000E-3    -.9773   
    7.864       0.1731E-3    -.9829       0.3024E-3    -.9773   
    7.884       0.1743E-3    -.9829       0.3049E-3    -.9772   
    7.904       0.1755E-3    -.9829       0.3074E-3    -.9772   
    7.924       0.1767E-3    -.9828       0.3099E-3    -.9771   
    7.944       0.1780E-3    -.9828       0.3124E-3    -.9770   
    7.964       0.1792E-3    -.9828       0.3150E-3    -.9770   
    7.984       0.1804E-3    -.9827       0.3176E-3    -.9769   
    8.004       0.1817E-3    -.9827       0.3202E-3    -.9768   
    8.024       0.1830E-3    -.9827       0.3228E-3    -.9768   
    8.044       0.1842E-3    -.9826       0.3255E-3    -.9767   
    8.064       0.1855E-3    -.9826       0.3282E-3    -.9767   
    8.084       0.1869E-3    -.9825       0.3310E-3    -.9766   
    8.104       0.1882E-3    -.9825       0.3337E-3    -.9765   
    8.124       0.1895E-3    -.9825       0.3366E-3    -.9765   
    8.144       0.1908E-3    -.9824       0.3394E-3    -.9764   
    8.164       0.1922E-3    -.9824       0.3423E-3    -.9763   
    8.184       0.1936E-3    -.9823       0.3452E-3    -.9762   
    8.204       0.1950E-3    -.9823       0.3481E-3    -.9762   
    8.224       0.1964E-3    -.9823       0.3511E-3    -.9761   
    8.244       0.1978E-3    -.9822       0.3541E-3    -.9760   
    8.265       0.1992E-3    -.9822       0.3572E-3    -.9760   
    8.285       0.2006E-3    -.9822       0.3603E-3    -.9759   
    8.305       0.2021E-3    -.9821       0.3634E-3    -.9758   
    8.325       0.2036E-3    -.9821       0.3665E-3    -.9758   
    8.345       0.2050E-3    -.9820       0.3697E-3    -.9757   
    8.365       0.2065E-3    -.9820       0.3730E-3    -.9756   
    8.385       0.2081E-3    -.9819       0.3763E-3    -.9755   
    8.405       0.2096E-3    -.9819       0.3796E-3    -.9755   
    8.425       0.2111E-3    -.9819       0.3830E-3    -.9754   
    8.445       0.2127E-3    -.9818       0.3864E-3    -.9753   
    8.465       0.2143E-3    -.9818       0.3898E-3    -.9752   
    8.485       0.2159E-3    -.9817       0.3933E-3    -.9751   
    8.505       0.2175E-3    -.9817       0.3968E-3    -.9751   
    8.525       0.2191E-3    -.9816       0.4004E-3    -.9750   
    8.545       0.2207E-3    -.9816       0.4041E-3    -.9749   
    8.565       0.2224E-3    -.9816       0.4077E-3    -.9748   
    8.585       0.2241E-3    -.9815       0.4115E-3    -.9747   
    8.605       0.2258E-3    -.9815       0.4152E-3    -.9747   
    8.625       0.2275E-3    -.9814       0.4191E-3    -.9746   
    8.645       0.2292E-3    -.9814       0.4229E-3    -.9745   
    8.665       0.2310E-3    -.9813       0.4269E-3    -.9744   
    8.685       0.2327E-3    -.9813       0.4308E-3    -.9743   
    8.705       0.2345E-3    -.9812       0.4349E-3    -.9742   
    8.725       0.2363E-3    -.9812       0.4389E-3    -.9741   
    8.745       0.2382E-3    -.9811       0.4431E-3    -.9741   
    8.766       0.2400E-3    -.9811       0.4473E-3    -.9740   
    8.786       0.2419E-3    -.9810       0.4515E-3    -.9739   
    8.806       0.2438E-3    -.9810       0.4558E-3    -.9738   
    8.826       0.2457E-3    -.9810       0.4602E-3    -.9737   
    8.846       0.2476E-3    -.9809       0.4646E-3    -.9736   
    8.866       0.2496E-3    -.9809       0.4691E-3    -.9735   
    8.886       0.2515E-3    -.9808       0.4737E-3    -.9734   
    8.906       0.2535E-3    -.9808       0.4783E-3    -.9733   
    8.926       0.2555E-3    -.9807       0.4830E-3    -.9732   
    8.946       0.2576E-3    -.9806       0.4878E-3    -.9731   
    8.966       0.2597E-3    -.9806       0.4926E-3    -.9730   
    8.986       0.2617E-3    -.9805       0.4975E-3    -.9729   
    9.006       0.2639E-3    -.9805       0.5024E-3    -.9728   
    9.026       0.2660E-3    -.9804       0.5075E-3    -.9727   
    9.046       0.2682E-3    -.9804       0.5126E-3    -.9726   
    9.066       0.2704E-3    -.9803       0.5177E-3    -.9725   
    9.086       0.2726E-3    -.9803       0.5230E-3    -.9724   
    9.106       0.2748E-3    -.9802       0.5283E-3    -.9723   
    9.126       0.2771E-3    -.9802       0.5338E-3    -.9722   
    9.146       0.2794E-3    -.9801       0.5393E-3    -.9721   
    9.166       0.2817E-3    -.9801       0.5448E-3    -.9720   
    9.186       0.2841E-3    -.9800       0.5505E-3    -.9719   
    9.206       0.2864E-3    -.9799       0.5563E-3    -.9718   
    9.226       0.2888E-3    -.9799       0.5621E-3    -.9717   
    9.246       0.2913E-3    -.9798       0.5680E-3    -.9715   
    9.267       0.2938E-3    -.9798       0.5740E-3    -.9714   
    9.287       0.2963E-3    -.9797       0.5802E-3    -.9713   
    9.307       0.2988E-3    -.9796       0.5864E-3    -.9712   
    9.327       0.3014E-3    -.9796       0.5927E-3    -.9711   
    9.347       0.3039E-3    -.9795       0.5991E-3    -.9710   
    9.367       0.3066E-3    -.9795       0.6056E-3    -.9708   
    9.387       0.3092E-3    -.9794       0.6122E-3    -.9707   
    9.407       0.3119E-3    -.9793       0.6189E-3    -.9706   
    9.427       0.3147E-3    -.9793       0.6258E-3    -.9705   
    9.447       0.3174E-3    -.9792       0.6327E-3    -.9703   
    9.467       0.3202E-3    -.9792       0.6398E-3    -.9702   
    9.487       0.3231E-3    -.9791       0.6470E-3    -.9701   
    9.507       0.3260E-3    -.9790       0.6543E-3    -.9700   
    9.527       0.3289E-3    -.9790       0.6617E-3    -.9698   
    9.547       0.3318E-3    -.9789       0.6692E-3    -.9697   
    9.567       0.3348E-3    -.9788       0.6769E-3    -.9696   
    9.587       0.3378E-3    -.9788       0.6847E-3    -.9694   
    9.607       0.3409E-3    -.9787       0.6926E-3    -.9693   
    9.627       0.3440E-3    -.9786       0.7007E-3    -.9691   
    9.647       0.3472E-3    -.9786       0.7089E-3    -.9690   
    9.667       0.3504E-3    -.9785       0.7173E-3    -.9689   
    9.687       0.3536E-3    -.9784       0.7258E-3    -.9687   
    9.707       0.3569E-3    -.9783       0.7345E-3    -.9686   
    9.727       0.3603E-3    -.9783       0.7433E-3    -.9684   
    9.747       0.3637E-3    -.9782       0.7522E-3    -.9683   
    9.768       0.3671E-3    -.9781       0.7614E-3    -.9681   
    9.788       0.3706E-3    -.9781       0.7707E-3    -.9680   
    9.808       0.3741E-3    -.9780       0.7801E-3    -.9678   
    9.828       0.3777E-3    -.9779       0.7898E-3    -.9677   
    9.848       0.3813E-3    -.9778       0.7996E-3    -.9675   
    9.868       0.3850E-3    -.9777       0.8096E-3    -.9673   
    9.888       0.3888E-3    -.9777       0.8198E-3    -.9672   
    9.908       0.3926E-3    -.9776       0.8302E-3    -.9670   
    9.928       0.3964E-3    -.9775       0.8408E-3    -.9668   
    9.948       0.4003E-3    -.9774       0.8516E-3    -.9667   
    9.968       0.4043E-3    -.9774       0.8626E-3    -.9665   
    9.988       0.4083E-3    -.9773       0.8738E-3    -.9663   
    10.01       0.4124E-3    -.9772       0.8852E-3    -.9662   
    10.03       0.4166E-3    -.9771       0.8969E-3    -.9660   
    10.05       0.4208E-3    -.9770       0.9088E-3    -.9658   
    10.07       0.4251E-3    -.9769       0.9209E-3    -.9656   
    10.09       0.4294E-3    -.9769       0.9333E-3    -.9654   
    10.11       0.4338E-3    -.9768       0.9459E-3    -.9652   
    10.13       0.4383E-3    -.9767       0.9588E-3    -.9650   
    10.15       0.4429E-3    -.9766       0.9720E-3    -.9649   
    10.17       0.4475E-3    -.9765       0.9854E-3    -.9647   
    10.19       0.4522E-3    -.9764       0.9991E-3    -.9645   
    10.21       0.4570E-3    -.9763       0.1013E-2    -.9643   
    10.23       0.4619E-3    -.9762       0.1027E-2    -.9641   
    10.25       0.4668E-3    -.9761       0.1042E-2    -.9638   
    10.27       0.4718E-3    -.9760       0.1057E-2    -.9636   
    10.29       0.4769E-3    -.9759       0.1072E-2    -.9634   
    10.31       0.4821E-3    -.9759       0.1088E-2    -.9632   
    10.33       0.4874E-3    -.9758       0.1104E-2    -.9630   
    10.35       0.4928E-3    -.9757       0.1120E-2    -.9628   
    10.37       0.4982E-3    -.9756       0.1137E-2    -.9625   
    10.39       0.5038E-3    -.9755       0.1154E-2    -.9623   
    10.41       0.5094E-3    -.9754       0.1171E-2    -.9621   
    10.43       0.5152E-3    -.9753       0.1189E-2    -.9618   
    10.45       0.5210E-3    -.9751       0.1207E-2    -.9616   
    10.47       0.5270E-3    -.9750       0.1226E-2    -.9614   
    10.49       0.5330E-3    -.9749       0.1245E-2    -.9611   
    10.51       0.5392E-3    -.9748       0.1264E-2    -.9609   
    10.53       0.5455E-3    -.9747       0.1284E-2    -.9606   
    10.55       0.5519E-3    -.9746       0.1305E-2    -.9604   
    10.57       0.5584E-3    -.9745       0.1326E-2    -.9601   
    10.59       0.5650E-3    -.9744       0.1347E-2    -.9598   
    10.61       0.5718E-3    -.9743       0.1369E-2    -.9596   
    10.63       0.5787E-3    -.9742       0.1392E-2    -.9593   
    10.65       0.5857E-3    -.9740       0.1415E-2    -.9590   
    10.67       0.5928E-3    -.9739       0.1439E-2    -.9587   
    10.69       0.6001E-3    -.9738       0.1463E-2    -.9584   
    10.71       0.6076E-3    -.9737       0.1488E-2    -.9581   
    10.73       0.6151E-3    -.9736       0.1514E-2    -.9578   
    10.75       0.6229E-3    -.9734       0.1541E-2    -.9575   
    10.77       0.6307E-3    -.9733       0.1568E-2    -.9572   
    10.79       0.6388E-3    -.9732       0.1595E-2    -.9569   
    10.81       0.6470E-3    -.9731       0.1624E-2    -.9566   
    10.83       0.6553E-3    -.9729       0.1653E-2    -.9562   
    10.85       0.6639E-3    -.9728       0.1684E-2    -.9559   
    10.87       0.6726E-3    -.9727       0.1715E-2    -.9556   
    10.89       0.6815E-3    -.9725       0.1746E-2    -.9552   
    10.91       0.6905E-3    -.9724       0.1779E-2    -.9549   
    10.93       0.6998E-3    -.9723       0.1813E-2    -.9545   
    10.95       0.7093E-3    -.9721       0.1848E-2    -.9542   
    10.97       0.7190E-3    -.9720       0.1884E-2    -.9538   
    10.99       0.7288E-3    -.9718       0.1920E-2    -.9534   
    11.01       0.7389E-3    -.9717       0.1958E-2    -.9530   
    11.03       0.7493E-3    -.9715       0.1998E-2    -.9526   
    11.05       0.7598E-3    -.9714       0.2038E-2    -.9522   
    11.07       0.7706E-3    -.9712       0.2080E-2    -.9518   
    11.09       0.7817E-3    -.9711       0.2123E-2    -.9514   
    11.11       0.7930E-3    -.9709       0.2167E-2    -.9510   
    11.13       0.8045E-3    -.9708       0.2213E-2    -.9505   
    11.15       0.8164E-3    -.9706       0.2260E-2    -.9501   
    11.17       0.8285E-3    -.9704       0.2309E-2    -.9496   
    11.19       0.8409E-3    -.9703       0.2359E-2    -.9492   
    11.21       0.8536E-3    -.9701       0.2411E-2    -.9487   
    11.23       0.8666E-3    -.9699       0.2465E-2    -.9482   
    11.25       0.8799E-3    -.9697       0.2521E-2    -.9477   
    11.27       0.8935E-3    -.9696       0.2579E-2    -.9472   
    11.29       0.9075E-3    -.9694       0.2639E-2    -.9467   
    11.31       0.9219E-3    -.9692       0.2701E-2    -.9461   
    11.33       0.9366E-3    -.9690       0.2765E-2    -.9456   
    11.35       0.9517E-3    -.9688       0.2832E-2    -.9450   
    11.37       0.9672E-3    -.9686       0.2901E-2    -.9445   
    11.39       0.9831E-3    -.9684       0.2973E-2    -.9439   
    11.41       0.9995E-3    -.9682       0.3047E-2    -.9433   
    11.43       0.1016E-2    -.9680       0.3125E-2    -.9427   
    11.45       0.1033E-2    -.9678       0.3205E-2    -.9421   
    11.47       0.1051E-2    -.9676       0.3289E-2    -.9414   
    11.49       0.1069E-2    -.9674       0.3376E-2    -.9407   
    11.51       0.1088E-2    -.9672       0.3467E-2    -.9401   
    11.53       0.1107E-2    -.9670       0.3561E-2    -.9394   
    11.55       0.1127E-2    -.9668       0.3660E-2    -.9387   
    11.57       0.1148E-2    -.9665       0.3763E-2    -.9379   
    11.59       0.1168E-2    -.9663       0.3870E-2    -.9372   
    11.61       0.1190E-2    -.9661       0.3982E-2    -.9364   
    11.63       0.1212E-2    -.9658       0.4100E-2    -.9356   
    11.65       0.1235E-2    -.9656       0.4222E-2    -.9348   
    11.67       0.1259E-2    -.9653       0.4350E-2    -.9339   
    11.69       0.1283E-2    -.9651       0.4485E-2    -.9330   
    11.71       0.1309E-2    -.9648       0.4626E-2    -.9321   
    11.73       0.1334E-2    -.9646       0.4774E-2    -.9312   
    11.75       0.1361E-2    -.9643       0.4929E-2    -.9302   
    11.77       0.1389E-2    -.9640       0.5092E-2    -.9293   
    11.79       0.1418E-2    -.9637       0.5263E-2    -.9282   
    11.81       0.1447E-2    -.9635       0.5444E-2    -.9272   
    11.83       0.1478E-2    -.9632       0.5634E-2    -.9261   
    11.85       0.1510E-2    -.9629       0.5834E-2    -.9249   
    11.87       0.1542E-2    -.9626       0.6046E-2    -.9238   
    11.89       0.1576E-2    -.9623       0.6270E-2    -.9226   
    11.91       0.1611E-2    -.9619       0.6507E-2    -.9213   
    11.93       0.1648E-2    -.9616       0.6757E-2    -.9200   
    11.95       0.1686E-2    -.9613       0.7023E-2    -.9186   
    11.97       0.1725E-2    -.9609       0.7305E-2    -.9172   
    11.99       0.1766E-2    -.9606       0.7605E-2    -.9158   
    12.01       0.1808E-2    -.9602       0.7924E-2    -.9143   
    12.03       0.1852E-2    -.9599       0.8264E-2    -.9127   
    12.05       0.1898E-2    -.9595       0.8626E-2    -.9110   
    12.07       0.1946E-2    -.9591       0.9014E-2    -.9093   
    12.09       0.1995E-2    -.9587       0.9429E-2    -.9075   
    12.11       0.2047E-2    -.9583       0.9874E-2    -.9056   
    12.13       0.2101E-2    -.9579       0.1035E-1    -.9036   
    12.15       0.2157E-2    -.9575       0.1086E-1    -.9016   
    12.17       0.2216E-2    -.9571       0.1142E-1    -.8994   
    12.19       0.2278E-2    -.9566       0.1202E-1    -.8972   
    12.21       0.2342E-2    -.9562       0.1266E-1    -.8948   
    12.23       0.2409E-2    -.9557       0.1336E-1    -.8923   
    12.25       0.2479E-2    -.9552       0.1413E-1    -.8896   
    12.27       0.2553E-2    -.9547       0.1495E-1    -.8868   
    12.29       0.2631E-2    -.9542       0.1586E-1    -.8839   
    12.31       0.2712E-2    -.9537       0.1685E-1    -.8808   
    12.33       0.2797E-2    -.9531       0.1794E-1    -.8775   
    12.35       0.2887E-2    -.9526       0.1914E-1    -.8739   
    12.37       0.2982E-2    -.9520       0.2046E-1    -.8702   
    12.39       0.3081E-2    -.9514       0.2192E-1    -.8662   
    12.41       0.3186E-2    -.9508       0.2355E-1    -.8620   
    12.43       0.3297E-2    -.9501       0.2537E-1    -.8574   
    12.45       0.3415E-2    -.9495       0.2741E-1    -.8526   
    12.47       0.3539E-2    -.9488       0.2970E-1    -.8473   
    12.49       0.3671E-2    -.9481       0.3229E-1    -.8417   
    12.51       0.3811E-2    -.9473       0.3524E-1    -.8356   
    12.53       0.3959E-2    -.9466       0.3860E-1    -.8291   
    12.55       0.4117E-2    -.9458       0.4246E-1    -.8219   
    12.57       0.4285E-2    -.9449       0.4692E-1    -.8142   
    12.59       0.4465E-2    -.9441       0.5211E-1    -.8058   
    12.61       0.4656E-2    -.9432       0.5818E-1    -.7966   
    12.63       0.4862E-2    -.9423       0.6535E-1    -.7865   
    12.65       0.5082E-2    -.9413       0.7389E-1    -.7756   
    12.67       0.5318E-2    -.9403       0.8413E-1    -.7636   
    12.69       0.5572E-2    -.9392       0.9653E-1    -.7505   
    12.71       0.5846E-2    -.9381       0.1117       -.7363   
    12.73       0.6142E-2    -.9370       0.1305       -.7211   
    12.75       0.6462E-2    -.9357       0.1538       -.7050   
    12.77       0.6810E-2    -.9345       0.1832       -.6888   
    12.79       0.7187E-2    -.9331       0.2204       -.6735   
    12.81       0.7599E-2    -.9317       0.2674       -.6614   
    12.83       0.8049E-2    -.9302       0.3262       -.6564   
    12.85       0.8541E-2    -.9286       0.3977       -.6649   
    12.87       0.9083E-2    -.9269       0.4792       -.6962   
    12.89       0.9679E-2    -.9252       0.5608       -.7601   
    12.91       0.1034E-1    -.9233       0.6236       -.8603   
    12.93       0.1107E-1    -.9213       0.6459       -.9851   
    12.95       0.1189E-1    -.9191       0.6184       -1.108   
    12.97       0.1280E-1    -.9168       0.5525       -1.205   
    12.99399      0.01382     -0.91438      0.47018     -1.26481
    13.01403      0.01498     -0.91174      0.38950     -1.29310
    13.03407      0.01628     -0.90891      0.31936     -1.29971
    13.05411      0.01777     -0.90586      0.26192     -1.29361
    13.07415      0.01948     -0.90256      0.21612     -1.28094
    13.09419      0.02145     -0.89898      0.17994     -1.26541
    13.11423      0.02373     -0.89509      0.15132     -1.24909
    13.13427      0.02639     -0.89087      0.12855     -1.23307
    13.15431      0.02952     -0.88626      0.11028     -1.21788
    13.17435      0.03324     -0.88123      0.09547     -1.20373
    13.19439      0.03768     -0.87574      0.08337     -1.19068
    13.21443      0.04303     -0.86975      0.07337     -1.17871
    13.23447      0.04956     -0.86325      0.06504     -1.16773
    13.25451      0.05760     -0.85624      0.05804     -1.15768
    13.27455      0.06757     -0.84881      0.05211     -1.14846
    13.29459      0.08008     -0.84114      0.04705     -1.13999
    13.31463      0.09587     -0.83366      0.04270     -1.13219
    13.33467      0.11585     -0.82718      0.03894     -1.12498
    13.35471      0.14101     -0.82317      0.03567     -1.11832
    13.37475      0.17203     -0.82414      0.03281     -1.11214
    13.39479      0.20847     -0.83391      0.03030     -1.10638
    13.41483      0.24724     -0.85720      0.02808     -1.10102
    13.43487      0.28110     -0.89732      0.02612     -1.09600
    13.45491      0.29978     -0.95202      0.02437     -1.09130
    13.47495      0.29586     -1.01118      0.02281     -1.08688
    13.49499      0.27101     -1.06176      0.02141     -1.08271
    13.51503      0.23447     -1.09613      0.02015     -1.07878
    13.53507      0.19593     -1.11437      0.01902     -1.07506
    13.55511      0.16116     -1.12067      0.01800     -1.07153
    13.57515      0.13216     -1.11959      0.01708     -1.06817
    13.59519      0.10886     -1.11449      0.01624     -1.06498
    13.61523      0.09042     -1.10750      0.01548     -1.06192
    13.63527      0.07586     -1.09984      0.01479     -1.05900
    13.65531      0.06430     -1.09216      0.01416     -1.05620
    13.68       0.5507E-1    -1.085       0.1359E-1    -1.054   
    13.70       0.4761E-1    -1.078       0.1307E-1    -1.051   
    13.72       0.4154E-1    -1.071       0.1260E-1    -1.048   
    13.74       0.3655E-1    -1.066       0.1216E-1    -1.046   
    13.76       0.3240E-1    -1.060       0.1177E-1    -1.044   
    13.78       0.2893E-1    -1.055       0.1141E-1    -1.041   
    13.80       0.2601E-1    -1.051       0.1109E-1    -1.039   
    13.82       0.2351E-1    -1.046       0.1080E-1    -1.037   
    13.84       0.2138E-1    -1.042       0.1053E-1    -1.035   
    13.86       0.1955E-1    -1.039       0.1030E-1    -1.033   
    13.88       0.1795E-1    -1.035       0.1009E-1    -1.031   
    13.90       0.1656E-1    -1.032       0.9901E-2    -1.029   
    13.92       0.1535E-1    -1.029       0.9738E-2    -1.027   
    13.94       0.1428E-1    -1.027       0.9597E-2    -1.025   
    13.96       0.1334E-1    -1.024       0.9478E-2    -1.023   
    13.98       0.1250E-1    -1.022       0.9380E-2    -1.021   
    14.00       0.1175E-1    -1.019       0.9303E-2    -1.020   
    14.02       0.1109E-1    -1.017       0.9246E-2    -1.018   
    14.04       0.1049E-1    -1.015       0.9209E-2    -1.016   
    14.06       0.9961E-2    -1.013       0.9193E-2    -1.014   
    14.08       0.9481E-2    -1.011       0.9196E-2    -1.012   
    14.10       0.9049E-2    -1.010       0.9220E-2    -1.011   
    14.12       0.8660E-2    -1.008       0.9266E-2    -1.009   
    14.14       0.8308E-2    -1.006       0.9333E-2    -1.007   
    14.16       0.7991E-2    -1.005       0.9423E-2    -1.005   
    14.18       0.7703E-2    -1.003       0.9536E-2    -1.003   
    14.20       0.7443E-2    -1.002       0.9674E-2    -1.001   
    14.22       0.7208E-2    -1.000       0.9839E-2    -.9994   
    14.24       0.6996E-2    -.9989       0.1003E-1    -.9975   
    14.26       0.6805E-2    -.9976       0.1025E-1    -.9955   
    14.28       0.6632E-2    -.9963       0.1051E-1    -.9934   
    14.30       0.6477E-2    -.9950       0.1080E-1    -.9914   
    14.32       0.6338E-2    -.9937       0.1113E-1    -.9892   
    14.34       0.6214E-2    -.9925       0.1150E-1    -.9871   
    14.36       0.6104E-2    -.9913       0.1191E-1    -.9848   
    14.38       0.6007E-2    -.9901       0.1238E-1    -.9825   
    14.40       0.5922E-2    -.9889       0.1291E-1    -.9800   
    14.42       0.5849E-2    -.9878       0.1350E-1    -.9775   
    14.44       0.5787E-2    -.9866       0.1416E-1    -.9749   
    14.46       0.5735E-2    -.9855       0.1491E-1    -.9721   
    14.48       0.5693E-2    -.9844       0.1575E-1    -.9692   
    14.50       0.5661E-2    -.9832       0.1669E-1    -.9662   
    14.52       0.5639E-2    -.9821       0.1776E-1    -.9629   
    14.54       0.5625E-2    -.9810       0.1898E-1    -.9595   
    14.56       0.5620E-2    -.9799       0.2036E-1    -.9559   
    14.58       0.5624E-2    -.9788       0.2194E-1    -.9521   
    14.60       0.5637E-2    -.9777       0.2374E-1    -.9479   
    14.62       0.5658E-2    -.9766       0.2583E-1    -.9435   
    14.64       0.5688E-2    -.9754       0.2824E-1    -.9388   
    14.66       0.5726E-2    -.9743       0.3106E-1    -.9337   
    14.68       0.5773E-2    -.9732       0.3436E-1    -.9281   
    14.70       0.5828E-2    -.9720       0.3825E-1    -.9221   
    14.72       0.5892E-2    -.9709       0.4289E-1    -.9156   
    14.74       0.5966E-2    -.9697       0.4845E-1    -.9085   
    14.76       0.6048E-2    -.9685       0.5517E-1    -.9008   
    14.78       0.6140E-2    -.9673       0.6339E-1    -.8924   
    14.80       0.6242E-2    -.9661       0.7351E-1    -.8835   
    14.82       0.6355E-2    -.9648       0.8611E-1    -.8740   
    14.84       0.6478E-2    -.9636       0.1019       -.8643   
    14.86       0.6612E-2    -.9623       0.1219       -.8548   
    14.88       0.6758E-2    -.9609       0.1472       -.8468   
    14.90       0.6916E-2    -.9596       0.1791       -.8419   
    14.92       0.7088E-2    -.9582       0.2183       -.8436   
    14.94       0.7274E-2    -.9568       0.2641       -.8567   
    14.96       0.7474E-2    -.9553       0.3125       -.8870   
    14.98       0.7690E-2    -.9539       0.3539       -.9385   
    15.00       0.7924E-2    -.9523       0.3755       -1.008   
    15.02       0.8176E-2    -.9507       0.3685       -1.081   
    15.04       0.8447E-2    -.9491       0.3360       -1.143   
    15.06       0.8739E-2    -.9474       0.2898       -1.185   
    15.08       0.9055E-2    -.9457       0.2418       -1.206   
    15.10       0.9396E-2    -.9439       0.1987       -1.213   
    15.12       0.9763E-2    -.9420       0.1629       -1.212   
    15.14       0.1016E-1    -.9401       0.1342       -1.205   
    15.16       0.1059E-1    -.9380       0.1115       -1.196   
    15.18       0.1106E-1    -.9359       0.9355E-1    -1.187   
    15.20       0.1156E-1    -.9337       0.7928E-1    -1.177   
    15.22       0.1211E-1    -.9315       0.6786E-1    -1.168   
    15.24       0.1270E-1    -.9291       0.5863E-1    -1.159   
    15.26       0.1335E-1    -.9265       0.5110E-1    -1.152   
    15.28       0.1406E-1    -.9239       0.4489E-1    -1.144   
    15.30       0.1483E-1    -.9211       0.3973E-1    -1.138   
    15.31864      0.01568     -0.91820      0.03539     -1.13154
    15.33868      0.01661     -0.91512      0.03172     -1.12594
    15.35872      0.01763     -0.91186      0.02860     -1.12081
    15.37876      0.01877     -0.90841      0.02591     -1.11609
    15.39880      0.02002     -0.90475      0.02358     -1.11173
    15.41884      0.02141     -0.90086      0.02156     -1.10771
    15.43888      0.02295     -0.89671      0.01979     -1.10398
    15.45892      0.02468     -0.89229      0.01823     -1.10052
    15.47896      0.02663     -0.88755      0.01686     -1.09730
    15.49900      0.02882     -0.88247      0.01563     -1.09430
    15.52       0.3129E-1    -.8770       0.1454E-1    -1.091   
    15.54       0.3411E-1    -.8711       0.1356E-1    -1.089   
    15.56       0.3733E-1    -.8648       0.1268E-1    -1.086   
    15.58       0.4103E-1    -.8579       0.1189E-1    -1.084   
    15.60       0.4531E-1    -.8504       0.1117E-1    -1.082   
    15.62       0.5030E-1    -.8423       0.1051E-1    -1.080   
    15.64       0.5614E-1    -.8334       0.9916E-2    -1.078   
    15.66       0.6304E-1    -.8237       0.9371E-2    -1.076   
    15.68       0.7125E-1    -.8131       0.8872E-2    -1.074   
    15.70       0.8111E-1    -.8015       0.8413E-2    -1.073   
    15.72       0.9306E-1    -.7889       0.7991E-2    -1.071   
    15.74       0.1077       -.7753       0.7601E-2    -1.070   
    15.76       0.1257       -.7606       0.7240E-2    -1.068   
    15.78       0.1483       -.7452       0.6906E-2    -1.067   
    15.80       0.1766       -.7296       0.6595E-2    -1.065   
    15.82       0.2125       -.7149       0.6306E-2    -1.064   
    15.84       0.2578       -.7032       0.6036E-2    -1.063   
    15.86       0.3146       -.6984       0.5785E-2    -1.062   
    15.88       0.3836       -.7068       0.5550E-2    -1.061   
    15.90       0.4622       -.7371       0.5329E-2    -1.060   
    15.92       0.5408       -.7989       0.5122E-2    -1.059   
    15.94       0.6012       -.8957       0.4928E-2    -1.058   
    15.96       0.6226       -1.016       0.4745E-2    -1.057   
    15.98       0.5959       -1.135       0.4573E-2    -1.056   
    16.00       0.5322       -1.228       0.4411E-2    -1.055   
# 
# 08/25/2018 at 16:09 YAMBO_RT @ NewLaptop [start]
# 08/25/2018 at 16:09                      [end]
#
# .-Input file : yambo.in
# | optics                         # [R OPT] Optics
# | bse                            # [R BSE] Bethe Salpeter Equation.
# | bsk                            # [R BSK] Bethe Salpeter Equation kernel
# | bss                            # [R BSS] Bethe Salpeter Equation solver
# | BoseTemp= 0.000000     eV      # Bosonic Temperature
# | BSEmod= "coupling"             # [BSE] resonant/retarded/coupling
# | BSKmod= "Hartree"              # [BSE] IP/Hartree/HF/ALDA/SEX/BSfxc
# | BSSmod= "d"                    # [BSS] (h)aydock/(d)iagonalization/(i)nversion/(t)ddft`
# | BSENGexx=  4945        RL      # [BSK] Exchange components
# | % BEnRange
# |   6.00000 | 16.00000 | eV      # [BSS] Energy range
# | %
# | % BDmRange
# |   0.10000 |  0.10000 | eV      # [BSS] Damping range
# | %
# | BEnSteps=  500                 # [BSS] Energy steps
# | % BLongDir
# | 0.1000E-4 | 0.000    | 0.000    |        # [BSS] [cc] Electric Field
# | %
# | % BSEBands
# |   1 | 10 |                     # [BSK] Bands range
# | %
