#  __  __   ________   ___ __ __    _______   ______        
# /_/\/_/\ /_______/\ /__//_//_/\ /_______/\ /_____/\       
# \ \ \ \ \\::: _  \ \\::\| \| \ \\::: _  \ \\:::_ \ \      
#  \:\_\ \ \\::(_)  \ \\:.      \ \\::(_)  \/_\:\ \ \ \     
#   \::::_\/ \:: __  \ \\:.\-/\  \ \\::  _  \ \\:\ \ \ \    
#     \::\ \  \:.\ \  \ \\. \  \  \ \\::(_)  \ \\:\_\ \ \   
#      \__\/   \__\/\__\/ \__\/ \__\/ \_______\/ \_____\/   
#                                                           
#               Version 3.4.2 Revision 4952                 
#                http://www.yambo-code.org                  
#
# Absorption @ Q(1) [q->0 direction] : 0.000    0.1000E-4  0.000   
#
#
# - Energies      are Slater exchange(X)+Perdew & Zunger(C)
# - Wavefunctions are Slater exchange(X)+Perdew & Zunger(C)
#
# - The Green`s function is resonant -
# - Using Shifted Grids -
# - [r,Vnl] *is* included -
#
#   BSK|Identifier              :2138
#      |Dimension               :192
#      |Bands                   :23 - 27
#      |Exchange           [res]: yes
#      |Correlation        [res]: no
#      |Kernel`s coupling       : no
#      |Exchange           [cpl]: no
#      |W interaction is bare   : no
#      |Correlation        [cpl]: no
#      |ALDA kernel in R-space  : yes
#      |RL vectors    [exchange]:995
#      |E/h energy range    [ev]:-1.000000 - -1.000000
#      |Coupling range     [o/o]: 100.0000 -  100.0000
#  
#   Haydock|Accuracy (requested) [o/o]:   0.0100
#          |Accuracy (reached)   [o/o]:   0.0077
#          |Iteration                 :17
#
#  E/ev[1]    eps /Im[2] eps /Re[3] eps0/Im[4] eps0/Re[5] eps`/Im[6] eps`/Re[7]
#
   0.00000    1.03250   15.97552    1.17083   16.99908    1.03250   15.97552
 0.5017E-2   1.065      16.15      1.210      17.19      1.065      16.15   
 0.1003E-1   1.100      16.32      1.250      17.39      1.100      16.32   
 0.1505E-1   1.135      16.50      1.293      17.60      1.135      16.50   
   0.02007    1.17251   16.68732    1.33691   17.80709    1.17251   16.68732
   0.02508    1.21113   16.87611    1.38295   18.02210    1.21113   16.87611
   0.03010    1.25135   17.06955    1.43101   18.24271    1.25135   17.06955
   0.03512    1.29325   17.26782    1.48119   18.46914    1.29325   17.26782
   0.04013    1.33693   17.47110    1.53362   18.70163    1.33693   17.47110
   0.04515    1.38249   17.67958    1.58842   18.94042    1.38249   17.67958
   0.05017    1.43003   17.89346    1.64575   19.18576    1.43003   17.89346
   0.05518    1.47967   18.11295    1.70575   19.43792    1.47967   18.11295
   0.06020    1.53152   18.33827    1.76859   19.69719    1.53152   18.33827
   0.06522    1.58572   18.56966    1.83443   19.96387    1.58572   18.56966
   0.07023    1.64240   18.80736    1.90347   20.23828    1.64240   18.80736
   0.07525    1.70171   19.05162    1.97592   20.52073    1.70171   19.05162
   0.08027    1.76381   19.30273    2.05198   20.81161    1.76381   19.30273
   0.08528    1.82888   19.56096    2.13190   21.11127    1.82888   19.56096
   0.09030    1.89709   19.82663    2.21593   21.42011    1.89709   19.82663
   0.09532    1.96866   20.10004    2.30435   21.73855    1.96866   20.10004
   0.10033    2.04379   20.38155    2.39745   22.06703    2.04379   20.38155
   0.10535    2.12271   20.67151    2.49558   22.40603    2.12271   20.67151
   0.11037    2.20569   20.97029    2.59907   22.75604    2.20569   20.97029
   0.11538    2.29298   21.27830    2.70833   23.11760    2.29298   21.27830
   0.12040    2.38490   21.59595    2.82376   23.49127    2.38490   21.59595
   0.12542    2.48175   21.92372    2.94582   23.87764    2.48175   21.92372
   0.13043    2.58389   22.26206    3.07502   24.27736    2.58389   22.26206
   0.13545    2.69171   22.61148    3.21191   24.69110    2.69171   22.61148
   0.14047    2.80560   22.97253    3.35709   25.11958    2.80560   22.97253
   0.14548    2.92604   23.34577    3.51121   25.56358    2.92604   23.34577
   0.15050    3.05350   23.73181    3.67501   26.02391    3.05350   23.73181
   0.15552    3.18854   24.13130    3.84929   26.50146    3.18854   24.13130
   0.16054    3.33174   24.54493    4.03492   26.99715    3.33174   24.54493
   0.16555    3.48376   24.97343    4.23288   27.51199    3.48376   24.97343
   0.17057    3.64532   25.41757    4.44425   28.04703    3.64532   25.41757
   0.17559    3.81720   25.87820    4.67023   28.60343    3.81720   25.87820
   0.18060    4.00028   26.35620    4.91216   29.18238    4.00028   26.35620
   0.18562    4.19553   26.85251    5.17150   29.78521    4.19553   26.85251
   0.19064    4.40400   27.36815    5.44992   30.41330    4.40400   27.36815
   0.19565    4.62689   27.90419    5.74927   31.06811    4.62689   27.90419
   0.20067    4.86552   28.46179    6.07162   31.75126    4.86552   28.46179
   0.20569    5.12136   29.04215    6.41930   32.46442    5.12136   29.04215
   0.21070    5.39604   29.64661    6.79492   33.20938    5.39604   29.64661
   0.21572    5.69141   30.27655    7.20145   33.98808    5.69141   30.27655
   0.22074    6.00952   30.93343    7.64224   34.80251    6.00952   30.93343
   0.22575    6.35268   31.61884    8.12107   35.65483    6.35268   31.61884
   0.23077    6.72352   32.33446    8.64226   36.54729    6.72352   32.33446
   0.23579    7.12498   33.08204    9.21071   37.48223    7.12498   33.08204
   0.24080    7.56038   33.86343    9.83205   38.46210    7.56038   33.86343
   0.24582    8.03351   34.68058   10.51270   39.48939    8.03351   34.68058
   0.25084    8.54867   35.53551   11.26003   40.56660    8.54867   35.53551
   0.25585    9.11079   36.43031   12.08253   41.69625    9.11079   36.43031
   0.26087    9.72545   37.36708   12.99001   42.88067    9.72545   37.36708
   0.26589   10.39910   38.34798   13.99378   44.12201   10.39910   38.34798
   0.27090   11.13912   39.37503   15.10695   45.42196   11.13912   39.37503
   0.27592   11.95398   40.45018   16.34470   46.78164   11.95398   40.45018
   0.28094   12.85348   41.57510   17.72470   48.20117   12.85348   41.57510
   0.28595   13.84890   42.75106   19.26739   49.67928   13.84890   42.75106
   0.29097   14.95330   43.97873   20.99652   51.21272   14.95330   43.97873
   0.29599   16.18172   45.25782   22.93955   52.79541   16.18172   45.25782
   0.30100   17.55154   46.58678   25.12807   54.41731   17.55154   46.58678
   0.30602   19.08276   47.96215   27.59822   56.06292   19.08276   47.96216
   0.31104   20.79827   49.37787   30.39079   57.70929   20.79828   49.37789
   0.31605   22.72411   50.82430   33.55099   59.32345   22.72411   50.82430
   0.32107   24.88949   52.28691   37.12750   60.85905   24.88948   52.28691
   0.32609   27.32657   53.74466   41.17037   62.25245   27.32660   53.74467
   0.33110   30.06995   55.16806   45.72705   63.41812   30.06995   55.16807
   0.33612   33.15486   56.51671   50.83574   64.24421   33.15488   56.51674
   0.34114   36.61497   57.73703   56.51540   64.58931   36.61500   57.73705
   0.34615   40.47816   58.76010   62.75154   64.28252   40.47816   58.76011
   0.35117   44.76077   59.50084   69.47890   63.12990   44.76080   59.50085
   0.35619   49.46060   59.85955   76.56373   60.93099   49.46060   59.85956
   0.36120   54.54947   59.72716   83.79222   57.50703   54.54951   59.72717
   0.36622   59.96837   58.99477   90.87363   52.73868   59.96841   58.99477
   0.37124   65.62784   57.56606   97.46529   46.60289   65.62794   57.56604
    0.3763    71.4166    55.3680   103.2184    39.1929    71.4167    55.3679
    0.3813    77.2156    52.3532   107.8284    30.7093    77.2157    52.3531
    0.3863    82.9089    48.4910   111.0695    21.4257    82.9090    48.4908
    0.3913    88.3826    43.7493   112.7990    11.6487    88.3826    43.7491
    0.3963    93.5038    38.0841   112.9438     1.6963    93.5037    38.0840
    0.4013    98.0897    31.4511   111.4922    -8.1025    98.0894    31.4510
    0.4064   101.8875    23.8454   108.5056   -17.4079   101.8873    23.8453
    0.4114   104.5880    15.3579   104.1402   -25.8893   104.5877    15.3579
    0.4164   105.8799     6.2213    98.6518   -33.2682   105.8796     6.2214
    0.4214   105.5333    -3.1861    92.3711   -39.3634   105.5331    -3.1860
    0.4264   103.4773   -12.3919    85.6534   -44.1142   103.4772   -12.3916
   0.43144   99.83469  -20.92003   78.82674  -47.57260   99.83469  -20.91970
   0.43645   94.89645  -28.38622   72.15540  -49.87228   94.89656  -28.38587
   0.44147   89.05238  -34.55730   65.82607  -51.19066   89.05261  -34.55698
   0.44649   82.70891  -39.36193   59.95201  -51.71595   82.70913  -39.36174
   0.45151   76.22461  -42.86138   54.58715  -51.62498   76.22482  -42.86130
   0.45652   69.87629  -45.20221   49.74252  -51.07154   69.87653  -45.20215
   0.46154   63.85277  -46.57034   45.40168  -50.18252   63.85295  -46.57034
   0.46656   58.26513  -47.15706   41.53199  -49.05874   58.26538  -47.15710
   0.47157   53.16519  -47.13818   38.09314  -47.77807   53.16542  -47.13827
   0.47659   48.56323  -46.66441   35.04258  -46.39943   48.56336  -46.66452
   0.48161   44.44332  -45.85896   32.33869  -44.96656   44.44349  -45.85910
   0.48662   40.77488  -44.81934   29.94267  -43.51148   40.77502  -44.81949
   0.49164   37.52020  -43.62079   27.81935  -42.05717   37.52031  -43.62096
   0.49666   34.63968  -42.32041   25.93756  -40.61996   34.63977  -42.32059
   0.50167   32.09470  -40.96082   24.26996  -39.21114   32.09476  -40.96099
   0.50669   29.84936  -39.57343   22.79286  -37.83836   29.84938  -39.57360
   0.51171   27.87125  -38.18122   21.48593  -36.50667   27.87126  -38.18140
   0.51672   26.13177  -36.80081   20.33179  -35.21931   26.13176  -36.80100
   0.52174   24.60594  -35.44417   19.31575  -33.97828   24.60591  -35.44437
   0.52676   23.27240  -34.11995   18.42541  -32.78488   23.27234  -34.12014
   0.53177   22.11291  -32.83450   17.65043  -31.64011   22.11284  -32.83469
   0.53679   21.11213  -31.59270   16.98219  -30.54490   21.11203  -31.59288
   0.54181   20.25722  -30.39862   16.41354  -29.50055   20.25710  -30.39880
   0.54682   19.53751  -29.25611   15.93853  -28.50886   19.53735  -29.25628
   0.55184   18.94406  -28.16927   15.55202  -27.57251   18.94388  -28.16942
   0.55686   18.46931  -27.14282   15.24941  -26.69518   18.46910  -27.14296
   0.56187   18.10653  -26.18260   15.02608  -25.88180   18.10628  -26.18271
   0.56689   17.84924  -25.29577   14.87686  -25.13864   17.84896  -25.29586
   0.57191   17.69046  -24.49109   14.79534  -24.47325   17.69016  -24.49114
   0.57692   17.62188  -23.77888   14.77304  -23.89422   17.62155  -23.77889
   0.58194   17.63269  -23.17080   14.79860  -23.41051   17.63235  -23.17076
   0.58696   17.70864  -22.67913   14.85700  -23.03040   17.70827  -22.67902
   0.59197   17.83089  -22.31547   14.92927  -22.75989   17.83055  -22.31529
   0.59699   17.97553  -22.08888   14.99274  -22.60073   17.97519  -22.08863
   0.60201   18.11366  -22.00338   15.02245  -22.54845   18.11335  -22.00305
   0.60702   18.21293  -22.05530   14.99354  -22.59083   18.21267  -22.05490
   0.61204   18.24039  -22.23119   14.88458  -22.70770   18.24020  -22.23072
   0.61706   18.16656  -22.50704   14.68090  -22.87232   18.16649  -22.50653
   0.62207   17.96998  -22.84972   14.37714  -23.05451   17.97001  -22.84920
   0.62709   17.64066  -23.22048   13.97791  -23.22468   17.64078  -23.21996
   0.63211   17.18168  -23.58007   13.49651  -23.35765   17.18191  -23.57960
   0.63712   16.60812  -23.89395   12.95209  -23.43529   16.60843  -23.89354
   0.64214   15.94364  -24.13614   12.36625  -23.44750   15.94402  -24.13580
   0.64716   15.21621  -24.29096   11.75994  -23.39153   15.21662  -24.29071
   0.65217   14.45384  -24.35272   11.15136  -23.27033   14.45427  -24.35255
   0.65719   13.68151  -24.32378   10.55486  -23.09069   13.68195  -24.32368
   0.66221   12.91947  -24.21210    9.98082  -22.86132   12.91990  -24.21207
   0.66722   12.18270  -24.02876    9.43596  -22.59157   12.18310  -24.02879
   0.67224   11.48125  -23.78604    8.92406  -22.29038   11.48163  -23.78611
   0.67726   10.82109  -23.49601    8.44662  -21.96582   10.82144  -23.49613
   0.68227   10.20496  -23.16972    8.00360  -21.62486   10.20529  -23.16988
   0.68729    9.63335  -22.81683    7.59384  -21.27325    9.63364  -22.81700
   0.69231    9.10514  -22.44542    7.21560  -20.91569    9.10540  -22.44562
   0.69732    8.61825  -22.06213    6.86674  -20.55587    8.61848  -22.06235
   0.70234    8.17006  -21.67228    6.54503  -20.19670    8.17026  -21.67251
   0.70736    7.75767  -21.28005    6.24819  -19.84039    7.75784  -21.28029
   0.71237    7.37815  -20.88866    5.97406  -19.48858    7.37829  -20.88890
   0.71739    7.02862  -20.50056    5.72057  -19.14249    7.02875  -20.50082
   0.72241    6.70639  -20.11760    5.48584  -18.80298    6.70649  -20.11785
   0.72742    6.40892  -19.74109    5.26813  -18.47065    6.40900  -19.74135
   0.73244    6.13390  -19.37201    5.06587  -18.14587    6.13397  -19.37227
   0.73746    5.87924  -19.01097    4.87765  -17.82885    5.87928  -19.01124
   0.74247    5.64303  -18.65841    4.70218  -17.51970    5.64305  -18.65868
   0.74749    5.42357  -18.31454    4.53833  -17.21840    5.42357  -18.31481
   0.75251    5.21932  -17.97945    4.38507  -16.92487    5.21931  -17.97972
   0.75753    5.02891  -17.65313    4.24148  -16.63900    5.02888  -17.65339
   0.76254    4.85112  -17.33548    4.10675  -16.36063    4.85106  -17.33575
   0.76756    4.68484  -17.02637    3.98015  -16.08956    4.68477  -17.02663
   0.77258    4.52910  -16.72558    3.86100  -15.82558    4.52901  -16.72585
   0.77759    4.38301  -16.43292    3.74873  -15.56848    4.38290  -16.43319
   0.78261    4.24580  -16.14814    3.64281  -15.31803    4.24566  -16.14841
   0.78763    4.11674  -15.87099    3.54274  -15.07401    4.11658  -15.87125
   0.79264    3.99521  -15.60121    3.44812  -14.83618    3.99503  -15.60147
   0.79766    3.88063  -15.33854    3.35854  -14.60432    3.88043  -15.33879
   0.80268    3.77249  -15.08272    3.27367  -14.37821    3.77226  -15.08296
   0.80769    3.67033  -14.83350    3.19317  -14.15765    3.67008  -14.83373
   0.81271    3.57374  -14.59062    3.11678  -13.94240    3.57345  -14.59084
   0.81773    3.48232  -14.35384    3.04422  -13.73228    3.48200  -14.35405
   0.82274    3.39574  -14.12292    2.97527  -13.52709    3.39539  -14.12311
   0.82776    3.31368  -13.89764    2.90971  -13.32663    3.31330  -13.89780
   0.83278    3.23588  -13.67776    2.84734  -13.13072    3.23547  -13.67789
   0.83779    3.16206  -13.46307    2.78800  -12.93919    3.16162  -13.46317
   0.84281    3.09201  -13.25337    2.73152  -12.75187    3.09154  -13.25343
   0.84783    3.02550  -13.04845    2.67776  -12.56859    3.02501  -13.04847
   0.85284    2.96235  -12.84813    2.62659  -12.38919    2.96184  -12.84809
   0.85786    2.90239  -12.65221    2.57788  -12.21354    2.90187  -12.65212
   0.86288    2.84546  -12.46052    2.53154  -12.04148    2.84493  -12.46037
   0.86789    2.79141  -12.27289    2.48747  -11.87287    2.79088  -12.27268
   0.87291    2.74013  -12.08915    2.44558  -11.70759    2.73961  -12.08888
   0.87793    2.69149  -11.90914    2.40580  -11.54549    2.69099  -11.90881
   0.88294    2.64540  -11.73272    2.36806  -11.38648    2.64492  -11.73232
   0.88796    2.60177  -11.55974    2.33229  -11.23042    2.60133  -11.55929
   0.89298    2.56052  -11.39005    2.29846  -11.07720    2.56011  -11.38955
   0.89799    2.52158  -11.22353    2.26652  -10.92672    2.52122  -11.22298
   0.90301    2.48489  -11.06005    2.23643  -10.77887    2.48458  -11.05946
   0.90803    2.45041  -10.89949    2.20817  -10.63356    2.45015  -10.89886
   0.91304    2.41810  -10.74173    2.18173  -10.49069    2.41790  -10.74107
   0.91806    2.38793  -10.58667    2.15708  -10.35019    2.38778  -10.58597
   0.92308    2.35988  -10.43419    2.13423  -10.21196    2.35978  -10.43348
   0.92809    2.33393  -10.28421    2.11318  -10.07594    2.33390  -10.28348
   0.93311    2.31009  -10.13663    2.09395   -9.94204    2.31011  -10.13588
  0.938127   2.288361  -9.991371   2.076560  -9.810211   2.288446  -9.990609
  0.943144   2.268763  -9.848345   2.061036  -9.680394   2.268909  -9.847573
  0.948161   2.251321  -9.707483   2.047422  -9.552540   2.251530  -9.706705
  0.953177   2.236073  -9.568724   2.035765  -9.426609   2.236347  -9.567940
  0.958194   2.223067  -9.432012   2.026124  -9.302572   2.223406  -9.431223
  0.963211   2.212361  -9.297298   2.018568  -9.180409   2.212771  -9.296511
  0.968227   2.204027  -9.164553   2.013175  -9.060122   2.204509  -9.163767
  0.973244   2.198147  -9.033752   2.010033  -8.941718   2.198706  -9.032974
  0.978261   2.194816  -8.904892   2.009243  -8.825226   2.195454  -8.904122
  0.983278   2.194140  -8.777980   2.010911  -8.710697   2.194863  -8.777225
  0.988294   2.196240  -8.653052   2.015154  -8.598210   2.197053  -8.652318
  0.993311   2.201247  -8.530163   2.022094  -8.487870   2.202157  -8.529453
  0.998328   2.209305  -8.409390   2.031862  -8.379814   2.210315  -8.408716
  1.003345   2.220565  -8.290853   2.044585  -8.274218   2.221684  -8.290221
  1.008361   2.235190  -8.174700   2.060389  -8.171303   2.236423  -8.174124
  1.013378   2.253346  -8.061126   2.079388  -8.071338   2.254699  -8.060617
  1.018395   2.275196  -7.950374   2.101678  -7.974654   2.276675  -7.949952
  1.023411   2.300901  -7.842749   2.127323  -7.881631   2.302512  -7.842429
  1.028428   2.330606  -7.738612   2.156342  -7.792723   2.332351  -7.738419
  1.033445   2.364424  -7.638401   2.188688  -7.708445   2.366304  -7.638361
  1.038462   2.402431  -7.542629   2.224232  -7.629375   2.404446  -7.542768
  1.043478   2.444638  -7.451887   2.262731  -7.556146   2.446779  -7.452242
  1.048495   2.490973  -7.366852   2.303807  -7.489426   2.493228  -7.367459
  1.053512   2.541246  -7.288279   2.346915  -7.429899   2.543595  -7.289178
  1.058529   2.595124  -7.216985   2.391325  -7.378227   2.597539  -7.218216
  1.063545   2.652095  -7.153831   2.436098  -7.334990   2.654534  -7.155438
  1.068562   2.711433  -7.099689   2.480090  -7.300639   2.713844  -7.101711
  1.073579   2.772168  -7.055387   2.521962  -7.275415   2.774482  -7.057858
  1.078595   2.833070  -7.021651   2.560224  -7.259288   2.835206  -7.024595
  1.083612   2.892642  -6.999020   2.593304  -7.251878   2.894504  -7.002444
  1.088629   2.949154  -6.987755   2.619640  -7.252430   2.950637  -6.991647
  1.093645   3.000692  -6.987755   2.637804  -7.259785   3.001686  -6.992077
  1.098662   3.045254  -6.998473   2.646617  -7.272428   3.045651  -7.003159
  1.103679   3.080880  -7.018870   2.645270  -7.288548   3.080580  -7.023823
  1.108696   3.105797  -7.047412   2.633395  -7.306171   3.104723  -7.052507
  1.113712   3.118577  -7.082112   2.611109  -7.323284   3.116677  -7.087203
  1.118729   3.118268  -7.120639   2.578997  -7.337989   3.115531  -7.125566
  1.123746   3.104503  -7.160472   2.538049  -7.348635   3.100953  -7.165072
  1.128763   3.077520  -7.199077   2.489552  -7.353897   3.073219  -7.203200
  1.133779   3.038138  -7.234092   2.434974  -7.352839   3.033184  -7.237605
  1.138796   2.987671  -7.263475   2.375847  -7.344912   2.982184  -7.266275
  1.143813   2.927786  -7.285625   2.313659  -7.329918   2.921905  -7.287638
  1.148829   2.860364  -7.299418   2.249778  -7.307964   2.854230  -7.300608
  1.153846   2.787338  -7.304217   2.185400  -7.279389   2.781090  -7.304574
  1.158863   2.710578  -7.299828   2.121527  -7.244694   2.704345  -7.299371
  1.163880   2.631794  -7.286419   2.058964  -7.204476   2.625690  -7.285189
  1.168896   2.552478  -7.264446   1.998320  -7.159387   2.546596  -7.262495
  1.173913   2.473872  -7.234556   1.940043  -7.110078   2.468291  -7.231948
  1.178930   2.396967  -7.197518   1.884434  -7.057185   2.391748  -7.194321
  1.183947   2.322524  -7.154153   1.831678  -7.001296   2.317712  -7.150433
  1.188963   2.251095  -7.105289   1.781870  -6.942950   2.246723  -7.101110
  1.193980   2.183054  -7.051723   1.735027  -6.882629   2.179145  -7.047149
  1.198997   2.118628  -6.994197   1.691118  -6.820755   2.115196  -6.989282
  1.204013   2.057934  -6.933388   1.650074  -6.757697   2.054987  -6.928185
  1.209030   2.000996  -6.869901   1.611801  -6.693769   1.998540  -6.864456
  1.214047   1.947778  -6.804273   1.576188  -6.629240   1.945812  -6.798623
  1.219064   1.898193  -6.736962   1.543117  -6.564339   1.896719  -6.731146
  1.224080   1.852128  -6.668370   1.512468  -6.499258   1.851143  -6.662418
  1.229097   1.809447  -6.598835   1.484123  -6.434158   1.808953  -6.592779
  1.234114   1.770007  -6.528650   1.457964  -6.369174   1.770005  -6.522513
  1.239130   1.733660  -6.458056   1.433886  -6.304417   1.734151  -6.451864
  1.244147   1.700261  -6.387258   1.411785  -6.239984   1.701251  -6.381035
  1.249164   1.669671  -6.316432   1.391569  -6.175956   1.671166  -6.310197
  1.254181   1.641757  -6.245716   1.373151  -6.112398   1.643765  -6.239495
  1.259197   1.616398  -6.175237   1.356455  -6.049372   1.618930  -6.169054
  1.264214   1.593483  -6.105096   1.341411  -5.986930   1.596552  -6.098976
  1.269231   1.572912  -6.035381   1.327955  -5.925121   1.576532  -6.029352
  1.274248   1.554593  -5.966170   1.316034  -5.863990   1.558783  -5.960262
  1.279264   1.538450  -5.897529   1.305597  -5.803578   1.543228  -5.891778
  1.284281   1.524413  -5.829520   1.296597  -5.743934   1.529800  -5.823968
  1.289298   1.512425  -5.762205   1.288993  -5.685099   1.518443  -5.756896
  1.294314   1.502436  -5.695639   1.282746  -5.627126   1.509106  -5.690626
  1.299331   1.494406  -5.629883   1.277817  -5.570065   1.501750  -5.625228
  1.304348   1.488300  -5.565000   1.274168  -5.513972   1.496337  -5.560774
  1.309365   1.484090  -5.501060   1.271755  -5.458907   1.492836  -5.497342
  1.314381   1.481751  -5.438132   1.270535  -5.404935   1.491218  -5.435018
  1.319398   1.481260  -5.376307   1.270455  -5.352123   1.491451  -5.373898
  1.324415   1.482594  -5.315677   1.271457  -5.300547   1.493503  -5.314092
  1.329432   1.485727  -5.256349   1.273469  -5.250281   1.497331  -5.255718
  1.334448   1.490626  -5.198443   1.276412  -5.201404   1.502887  -5.198911
  1.339465   1.497245  -5.142092   1.280190  -5.153989   1.510104  -5.143814
  1.344482   1.505528  -5.087439   1.284689  -5.108112   1.518893  -5.090583
  1.349498   1.515397  -5.034644   1.289781  -5.063841   1.529146  -5.039384
  1.354515   1.526747  -4.983876   1.295317  -5.021229   1.540720  -4.990384
  1.359532   1.539445  -4.935308   1.301128  -4.980320   1.553434  -4.943752
  1.364548   1.553321  -4.889115   1.307027  -4.941131   1.567072  -4.899646
  1.369565   1.568166  -4.845464   1.312811  -4.903651   1.581372  -4.858207
  1.374582   1.583724  -4.804509   1.318267  -4.867837   1.596030  -4.819543
  1.379599   1.599697  -4.766374   1.323175  -4.833603   1.610699  -4.783721
  1.384615   1.615741  -4.731140   1.327324  -4.800818   1.625001  -4.750749
  1.389632   1.631476  -4.698839   1.330519  -4.769306   1.638531  -4.720564
  1.394649   1.646491  -4.669428   1.332597  -4.738848   1.650880  -4.693028
  1.399666   1.660366  -4.642789   1.333435  -4.709186   1.661651  -4.667910
  1.404682   1.672685  -4.618714   1.332963  -4.680040   1.670481  -4.644895
  1.409699   1.683060  -4.596906   1.331171  -4.651113   1.677067  -4.623589
  1.414716   1.691159  -4.576980   1.328106  -4.622110   1.681185  -4.603529
  1.419732   1.696722  -4.558482   1.323878  -4.592759   1.682708  -4.584212
  1.424749   1.699585  -4.540899   1.318645  -4.562814   1.681616  -4.565110
  1.429766   1.699692  -4.523695   1.312607  -4.532073   1.677999  -4.545705
  1.434783   1.697101  -4.506326   1.305992  -4.500378   1.672047  -4.525515
  1.439799   1.691975  -4.488280   1.299044  -4.467625   1.664041  -4.504112
  1.444816   1.684577  -4.469097   1.292008  -4.433755   1.654328  -4.481147
  1.449833   1.675246  -4.448385   1.285127  -4.398758   1.643306  -4.456354
  1.454850   1.664376  -4.425839   1.278626  -4.362659   1.631392  -4.429551
  1.459866   1.652398  -4.401246   1.272712  -4.325513   1.619011  -4.400646
  1.464883   1.639747  -4.374477   1.267572  -4.287403   1.606571  -4.369620
  1.469900   1.626854  -4.345490   1.263365  -4.248428   1.594455  -4.336518
  1.474916   1.614126  -4.314308   1.260233  -4.208697   1.583011  -4.301441
  1.479933   1.601933  -4.281018   1.258294  -4.168331   1.572544  -4.264525
  1.484950   1.590608  -4.245750   1.257648  -4.127450   1.563324  -4.225939
  1.489967   1.580442  -4.208669   1.258382  -4.086179   1.555578  -4.185870
  1.494983   1.571684  -4.169960   1.260567  -4.044641   1.549497  -4.144511
  1.500000   1.564545  -4.129825   1.264265  -4.002964   1.545243  -4.102068
# 
# YAMBO@anomaly x 001 CPUs * 11/19/2015  13:07 [start]
#                            11/19/2015  13:07 [end]
# 
# Cpu Timing [Min/Max/Average]: 03s/03s/03s
#
# .-Input file : yambo.in
# | optics                       # [R OPT] Optics
# | bse                          # [R BSE] Bethe Salpeter Equation.
# | bss                          # [R BSS] Bethe Salpeter Equation solver
# | tddft                        # [R   K] Use TDDFT kernel
# | BoseTemp= 0.000000     eV    # Bosonic Temperature
# | FFTGvecs=  995         RL    # [FFT] Plane-waves
# | NonPDirs= "X"                # [X/BSS] Non periodic chartesian directions (X,Y,Z,XY...)
# | BSEmod= "resonant"           # [BSE] resonant/causal/coupling
# | BSKmod= "ALDA"               # [BSE] IP/Hartree/HF/ALDA/SEX/BSfxc
# | BSSmod= "hd"                 # [BSS] (h)aydock/(d)iagonalization/(i)nversion/(t)ddft`
# | % BEnRange
# |  0.000000 | 1.500000 | eV    # [BSS] Energy range
# | %
# | % BDmRange
# |   0.03000 |  0.10000 | eV    # [BSS] Damping range
# | %
# | BEnSteps= 300                # [BSS] Energy steps
# | % BLongDir
# |  0.000    |0.1000E-4 | 0.000    |        # [BSS] [cc] Electric Field
# | %
# | % BSEBands
# |  23 | 27 |                   # [BSK] Bands range
# | %
# | BSHayTrs=   0.0100           # [BSS] [o/o] Haydock treshold. Strict(>0)/Average(<0)
