#                                                           
#                                                           
# Y88b    /   e           e    e      888~~\    ,88~-_      
#  Y88b  /   d8b         d8b  d8b     888   |  d888   \     
#   Y88b/   /Y88b       d888bdY88b    888 _/  88888    |    
#    Y8Y   /  Y88b     / Y88Y Y888b   888  \  88888    |    
#     Y   /____Y88b   /   YY   Y888b  888   |  Y888   /     
#    /   /      Y88b /          Y888b 888__/    `88_-~      
#                                                           
#                                                           
#       Version 4.3.0 Revision 15652 Hash 9dc5f79           
#                  MPI+SLK+OpenMP Build                     
#               http://www.yambo-code.org                   
#
# Absorption @ Q(1) [q->0 direction] :0.1000E-4  0.000     0.000   
#
#
#
# - The Green`s function is Retarded -
# - Using the Length Gauge -
# - [r,Vnl] *is* included -
#
#
#    E/ev[1]      EPS-Im[2]    EPS-Re[3]
#
   0.2000        220.2       -306.6   
   0.2016        217.9       -297.0   
   0.2032        215.6       -287.6   
   0.2048        213.5       -278.4   
   0.2064        211.4       -269.4   
   0.2080        209.3       -260.5   
   0.2096        207.4       -251.9   
   0.2112        205.5       -243.5   
   0.2128        203.6       -235.2   
   0.2144        201.9       -227.1   
   0.2160        200.2       -219.1   
      0.2176     198.5022    -211.3123
      0.2192     196.9056    -203.6729
      0.2208     195.3649    -196.1826
      0.2224     193.8792    -188.8365
      0.2240     192.4469    -181.6299
      0.2257     191.0669    -174.5600
      0.2273     189.7384    -167.6221
      0.2289     188.4601    -160.8120
      0.2305     187.2311    -154.1270
      0.2321     186.0504    -147.5626
      0.2337     184.9173    -141.1157
      0.2353     183.8308    -134.7831
      0.2369     182.7903    -128.5619
      0.2385     181.7947    -122.4478
      0.2401     180.8435    -116.4398
      0.2417     179.9357    -110.5333
      0.2433     179.0709    -104.7264
      0.2449     178.2484     -99.0160
      0.2465     177.4676     -93.4002
      0.2481     176.7278     -87.8752
      0.2497     176.0287     -82.4405
      0.2513     175.3695     -77.0919
      0.2529     174.7497     -71.8280
      0.2545     174.1691     -66.6463
      0.2561     173.6270     -61.5449
      0.2577     173.1231     -56.5222
      0.2593     172.6570     -51.5758
      0.2609     172.2282     -46.7039
      0.2625     171.8365     -41.9046
      0.2641     171.4815     -37.1761
      0.2657     171.1630     -32.5173
      0.2673     170.8806     -27.9253
      0.2689     170.6339     -23.4003
      0.2705     170.4232     -18.9391
      0.2721     170.2476     -14.5416
      0.2737     170.1071     -10.2055
      0.2754     170.0018      -5.9296
      0.2770     169.9312      -1.7126
      0.2786     169.8951       2.4461
      0.2802     169.8935       6.5488
      0.2818     169.9262      10.5960
      0.2834     169.9931      14.5886
      0.2850     170.0942      18.5282
      0.2866     170.2291      22.4149
      0.2882     170.3980      26.2503
      0.2898     170.6007      30.0354
      0.2914     170.8372      33.7714
      0.2930     171.1073      37.4584
      0.2946     171.4112      41.0974
      0.2962     171.7485      44.6890
      0.2978     172.1195      48.2328
      0.2994     172.5238      51.7314
      0.3010     172.9618      55.1851
      0.3026     173.4331      58.5940
      0.3042     173.9379      61.9586
      0.3058     174.4761      65.2798
      0.3074     175.0478      68.5572
      0.3090     175.6528      71.7914
      0.3106     176.2913      74.9833
      0.3122     176.9628      78.1330
      0.3138     177.6676      81.2409
      0.3154     178.4057      84.3071
      0.3170     179.1769      87.3316
      0.3186     179.9813      90.3146
      0.3202     180.8187      93.2565
      0.3218     181.6890      96.1580
      0.3234     182.5922      99.0191
      0.3251     183.5282     101.8382
      0.3267     184.4968     104.6169
      0.3283     185.4978     107.3547
      0.3299     186.5310     110.0514
      0.3315     187.5964     112.7076
      0.3331     188.6935     115.3220
      0.3347     189.8225     117.8958
      0.3363     190.9826     120.4281
      0.3379     192.1736     122.9187
      0.3395     193.3955     125.3684
      0.3411     194.6477     127.7757
      0.3427     195.9297     130.1412
      0.3443     197.2413     132.4646
      0.3459     198.5819     134.7454
      0.3475     199.9507     136.9835
      0.3491     201.3476     139.1787
      0.3507     202.7718     141.3308
      0.3523     204.2225     143.4399
      0.3539     205.6992     145.5051
      0.3555     207.2012     147.5264
      0.3571     208.7276     149.5043
      0.3587     210.2780     151.4379
      0.3603     211.8508     153.3278
      0.3619     213.4455     155.1733
      0.3635     215.0614     156.9753
      0.3651     216.6972     158.7331
      0.3667     218.3522     160.4467
      0.3683     220.0252     162.1165
      0.3699     221.7150     163.7414
      0.3715     223.4211     165.3231
      0.3731     225.1418     166.8618
      0.3747     226.8761     168.3580
      0.3764     228.6232     169.8113
      0.3780     230.3822     171.2236
      0.3796     232.1511     172.5929
      0.3812     233.9301     173.9228
      0.3828     235.7172     175.2120
      0.3844     237.5119     176.4628
      0.3860     239.3126     177.6753
      0.3876     241.1191     178.8505
      0.3892     242.9297     179.9903
      0.3908     244.7444     181.0946
      0.3924     246.5622     182.1657
      0.3940     248.3828     183.2043
      0.3956     250.2049     184.2118
      0.3972     252.0285     185.1901
      0.3988     253.8530     186.1412
      0.4004     255.6788     187.0648
      0.4020     257.5048     187.9647
      0.4036     259.3318     188.8410
      0.4052     261.1594     189.6955
      0.4068     262.9885     190.5305
      0.4084     264.8191     191.3471
      0.4100     266.6515     192.1472
      0.4116     268.4870     192.9317
      0.4132     270.3261     193.7032
      0.4148     272.1698     194.4626
      0.4164     274.0190     195.2119
      0.4180     275.8752     195.9521
      0.4196     277.7395     196.6845
      0.4212     279.6140     197.4107
      0.4228     281.4995     198.1308
      0.4244     283.3986     198.8469
      0.4261     285.3128     199.5597
      0.4277     287.2438     200.2703
      0.4293     289.1941     200.9784
      0.4309     291.1651     201.6846
      0.4325     293.1597     202.3898
      0.4341     295.1802     203.0942
      0.4357     297.2283     203.7975
      0.4373     299.3069     204.4995
      0.4389     301.4182     205.2007
      0.4405     303.5647     205.8997
      0.4421     305.7487     206.5959
      0.4437     307.9732     207.2883
      0.4453     310.2401     207.9773
      0.4469     312.5518     208.6609
      0.4485     314.9114     209.3376
      0.4501     317.3203     210.0060
      0.4517     319.7811     210.6644
      0.4533     322.2969     211.3115
      0.4549     324.8688     211.9442
      0.4565     327.5002     212.5612
      0.4581     330.1923     213.1601
      0.4597     332.9469     213.7385
      0.4613     335.7668     214.2938
      0.4629     338.6533     214.8223
      0.4645     341.6078     215.3223
      0.4661     344.6324     215.7902
      0.4677     347.7284     216.2225
      0.4693     350.8976     216.6162
      0.4709     354.1412     216.9673
      0.4725     357.4596     217.2727
      0.4741     360.8543     217.5280
      0.4758     364.3264     217.7298
      0.4774     367.8758     217.8745
      0.4790     371.5035     217.9568
      0.4806     375.2096     217.9731
      0.4822     378.9943     217.9193
      0.4838     382.8576     217.7893
      0.4854     386.7994     217.5803
      0.4870     390.8189     217.2866
      0.4886     394.9156     216.9032
      0.4902     399.0880     216.4265
      0.4918     403.3355     215.8501
      0.4934     407.6559     215.1701
      0.4950     412.0487     214.3800
      0.4966     416.5116     213.4758
      0.4982     421.0418     212.4520
      0.4998     425.6370     211.3022
      0.5014     430.2945     210.0231
      0.5030     435.0107     208.6085
      0.5046     439.7831     207.0533
      0.5062     444.6066     205.3518
      0.5078     449.4776     203.4985
      0.5094     454.3921     201.4890
      0.5110     459.3442     199.3183
      0.5126     464.3293     196.9816
      0.5142     469.3417     194.4736
      0.5158     474.3743     191.7899
      0.5174     479.4219     188.9256
      0.5190     484.4770     185.8769
      0.5206     489.5332     182.6398
      0.5222     494.5831     179.2108
      0.5238     499.6171     175.5862
      0.5255     504.6283     171.7634
      0.5271     509.6078     167.7390
      0.5287     514.5462     163.5112
      0.5303     519.4354     159.0781
      0.5319     524.2645     154.4380
      0.5335     529.0239     149.5905
      0.5351     533.7037     144.5353
   0.5367        538.3        139.3   
   0.5383        542.8        133.8   
   0.5399        547.2        128.1   
   0.5415        551.4        122.3   
   0.5431        555.5        116.2   
   0.5447        559.5        109.9   
   0.5463        563.3        103.4   
   0.5479        567.0        96.78   
   0.5495        570.5        89.94   
   0.5511        573.8        82.93   
   0.5527        576.9        75.75   
   0.5543        579.8        68.41   
   0.5559        582.5        60.91   
   0.5575        584.9        53.28   
   0.5591        587.1        45.51   
   0.5607        589.1        37.62   
   0.5623        590.9        29.61   
   0.5639        592.3        21.51   
   0.5655        593.6        13.32   
   0.5671        594.5        5.051   
   0.5687        595.2       -3.279   
   0.5703        595.6       -11.66   
   0.5719        595.7       -20.07   
   0.5735        595.6       -28.51   
   0.5752        595.2       -36.96   
   0.5768        594.5       -45.40   
   0.5784        593.5       -53.83   
   0.5800        592.2       -62.22   
   0.5816        590.7       -70.56   
   0.5832        588.9       -78.85   
   0.5848        586.8       -87.07   
      0.5864     584.4790     -95.2014
      0.5880     581.8906    -103.2384
      0.5896     579.0521    -111.1680
      0.5912     575.9710    -118.9787
      0.5928     572.6554    -126.6607
      0.5944     569.1127    -134.2036
      0.5960     565.3520    -141.5985
      0.5976     561.3828    -148.8363
      0.5992     557.2139    -155.9102
      0.6008     552.8561    -162.8125
      0.6024     548.3188    -169.5359
      0.6040     543.6129    -176.0757
      0.6056     538.7480    -182.4261
      0.6072     533.7352    -188.5831
      0.6088     528.5856    -194.5435
      0.6104     523.3090    -200.3038
      0.6120     517.9161    -205.8616
      0.6136     512.4178    -211.2162
      0.6152     506.8244    -216.3654
      0.6168     501.1454    -221.3092
      0.6184     495.3910    -226.0472
      0.6200     489.5708    -230.5810
      0.6216     483.6941    -234.9109
      0.6232     477.7707    -239.0395
      0.6248     471.8086    -242.9669
      0.6265     465.8163    -246.6972
      0.6281     459.8028    -250.2329
      0.6297     453.7746    -253.5768
      0.6313     447.7391    -256.7324
      0.6329     441.7039    -259.7036
      0.6345     435.6755    -262.4928
      0.6361     429.6604    -265.1056
      0.6377     423.6640    -267.5459
      0.6393     417.6923    -269.8172
      0.6409     411.7499    -271.9254
      0.6425     405.8423    -273.8749
      0.6441     399.9730    -275.6691
      0.6457     394.1473    -277.3133
      0.6473     388.3690    -278.8127
      0.6489     382.6406    -280.1719
      0.6505     376.9659    -281.3954
      0.6521     371.3475    -282.4880
      0.6537     365.7881    -283.4542
      0.6553     360.2907    -284.2988
      0.6569     354.8565    -285.0264
      0.6585     349.4878    -285.6420
      0.6601     344.1863    -286.1494
      0.6617     338.9531    -286.5523
      0.6633     333.7899    -286.8571
      0.6649     328.6975    -287.0669
      0.6665     323.6769    -287.1852
      0.6681     318.7285    -287.2169
      0.6697     313.8528    -287.1652
      0.6713     309.0505    -287.0337
      0.6729     304.3216    -286.8274
      0.6745     299.6664    -286.5489
      0.6762     295.0849    -286.2014
      0.6778     290.5775    -285.7884
      0.6794     286.1427    -285.3136
      0.6810     281.7811    -284.7795
      0.6826     277.4921    -284.1904
      0.6842     273.2752    -283.5475
      0.6858     269.1300    -282.8554
      0.6874     265.0560    -282.1151
      0.6890     261.0527    -281.3298
      0.6906     257.1190    -280.5020
      0.6922     253.2544    -279.6347
      0.6938     249.4577    -278.7299
      0.6954     245.7284    -277.7895
      0.6970     242.0661    -276.8160
      0.6986     238.4694    -275.8112
      0.7002     234.9369    -274.7769
      0.7018     231.4685    -273.7144
      0.7034     228.0629    -272.6271
      0.7050     224.7191    -271.5156
      0.7066     221.4364    -270.3816
      0.7082     218.2135    -269.2269
      0.7098     215.0498    -268.0536
      0.7114     211.9442    -266.8616
      0.7130     208.8955    -265.6540
      0.7146     205.9028    -264.4310
      0.7162     202.9652    -263.1938
      0.7178     200.0813    -261.9438
      0.7194     197.2508    -260.6824
      0.7210     194.4724    -259.4108
      0.7226     191.7453    -258.1293
      0.7242     189.0684    -256.8397
      0.7259     186.4405    -255.5420
      0.7275     183.8614    -254.2371
      0.7291     181.3294    -252.9267
      0.7307     178.8439    -251.6115
      0.7323     176.4040    -250.2915
      0.7339     174.0087    -248.9689
      0.7355     171.6571    -247.6426
      0.7371     169.3484    -246.3141
      0.7387     167.0820    -244.9836
      0.7403     164.8569    -243.6523
      0.7419     162.6722    -242.3206
      0.7435     160.5269    -240.9887
      0.7451     158.4202    -239.6573
      0.7467     156.3517    -238.3266
      0.7483     154.3204    -236.9967
      0.7499     152.3255    -235.6693
      0.7515     150.3662    -234.3440
      0.7531     148.4420    -233.0217
      0.7547     146.5520    -231.7020
      0.7563     144.6955    -230.3855
      0.7579     142.8720    -229.0723
      0.7595     141.0806    -227.7631
      0.7611     139.3206    -226.4573
      0.7627     137.5917    -225.1565
      0.7643     135.8930    -223.8603
      0.7659     134.2237    -222.5684
      0.7675     132.5836    -221.2808
      0.7691     130.9718    -219.9996
      0.7707     129.3880    -218.7235
      0.7723     127.8316    -217.4530
      0.7739     126.3018    -216.1882
      0.7756     124.7981    -214.9295
      0.7772     123.3198    -213.6765
      0.7788     121.8667    -212.4300
      0.7804     120.4382    -211.1894
      0.7820     119.0338    -209.9557
      0.7836     117.6529    -208.7280
      0.7852     116.2951    -207.5072
      0.7868     114.9600    -206.2926
      0.7884     113.6470    -205.0849
      0.7900     112.3560    -203.8843
      0.7916     111.0861    -202.6905
      0.7932     109.8370    -201.5035
      0.7948     108.6084    -200.3234
      0.7964     107.3999    -199.1506
      0.7980     106.2109    -197.9847
      0.7996     105.0416    -196.8256
      0.8012     103.8907    -195.6740
      0.8028     102.7583    -194.5297
      0.8044     101.6440    -193.3921
      0.8060     100.5475    -192.2619
      0.8076      99.4684    -191.1387
      0.8092      98.4064    -190.0227
      0.8108      97.3611    -188.9143
      0.8124      96.3322    -187.8126
      0.8140      95.3194    -186.7180
      0.8156      94.3223    -185.6311
      0.8172      93.3407    -184.5510
      0.8188      92.3743    -183.4783
      0.8204      91.4227    -182.4126
      0.8220      90.4857    -181.3539
      0.8236      89.5630    -180.3029
      0.8253      88.6543    -179.2587
      0.8269      87.7595    -178.2217
      0.8285      86.8781    -177.1916
      0.8301      86.0100    -176.1687
      0.8317      85.1550    -175.1531
      0.8333      84.3127    -174.1436
      0.8349      83.4828    -173.1414
      0.8365      82.6653    -172.1459
      0.8381      81.8598    -171.1575
      0.8397      81.0662    -170.1762
      0.8413      80.2841    -169.2012
      0.8429      79.5134    -168.2334
      0.8445      78.7540    -167.2726
      0.8461      78.0055    -166.3178
      0.8477      77.2679    -165.3698
      0.8493      76.5407    -164.4288
      0.8509      75.8241    -163.4939
      0.8525      75.1176    -162.5656
      0.8541      74.4212    -161.6438
      0.8557      73.7345    -160.7286
      0.8573      73.0576    -159.8197
      0.8589      72.3903    -158.9172
      0.8605      71.7322    -158.0208
      0.8621      71.0833    -157.1313
      0.8637      70.4435    -156.2478
      0.8653      69.8124    -155.3702
      0.8669      69.1901    -154.4989
      0.8685      68.5762    -153.6339
      0.8701      67.9707    -152.7747
      0.8717      67.3736    -151.9213
      0.8733      66.7846    -151.0742
      0.8749      66.2035    -150.2330
      0.8766      65.6303    -149.3974
      0.8782      65.0649    -148.5680
      0.8798      64.5069    -147.7443
      0.8814      63.9565    -146.9262
      0.8830      63.4133    -146.1139
      0.8846      62.8774    -145.3072
      0.8862      62.3485    -144.5064
      0.8878      61.8265    -143.7107
      0.8894      61.3114    -142.9208
      0.8910      60.8031    -142.1359
      0.8926      60.3015    -141.3564
      0.8942      59.8064    -140.5829
      0.8958      59.3175    -139.8142
      0.8974      58.8351    -139.0511
      0.8990      58.3588    -138.2928
      0.9006      57.8887    -137.5403
      0.9022      57.4246    -136.7929
      0.9038      56.9664    -136.0504
      0.9054      56.5141    -135.3129
      0.9070      56.0675    -134.5805
      0.9086      55.6265    -133.8533
      0.9102      55.1910    -133.1307
      0.9118      54.7611    -132.4129
      0.9134      54.3365    -131.7002
      0.9150      53.9173    -130.9925
      0.9166      53.5032    -130.2893
      0.9182      53.0943    -129.5911
      0.9198      52.6905    -128.8973
      0.9214      52.2916    -128.2079
      0.9230      51.8977    -127.5235
      0.9246      51.5086    -126.8438
      0.9263      51.1242    -126.1683
      0.9279      50.7446    -125.4971
      0.9295      50.3695    -124.8307
      0.9311      49.9992    -124.1686
      0.9327      49.6332    -123.5113
      0.9343      49.2717    -122.8580
      0.9359      48.9146    -122.2091
      0.9375      48.5618    -121.5641
      0.9391      48.2131    -120.9235
      0.9407      47.8687    -120.2871
      0.9423      47.5285    -119.6550
      0.9439      47.1922    -119.0267
      0.9455      46.8600    -118.4029
      0.9471      46.5317    -117.7827
      0.9487      46.2074    -117.1668
      0.9503      45.8868    -116.5550
      0.9519      45.5700    -115.9470
      0.9535      45.2570    -115.3427
      0.9551      44.9478    -114.7425
      0.9567      44.6420    -114.1461
      0.9583      44.3399    -113.5535
      0.9599      44.0414    -112.9648
      0.9615      43.7464    -112.3799
      0.9631      43.4547    -111.7985
      0.9647      43.1665    -111.2208
      0.9663      42.8816    -110.6467
      0.9679      42.6000    -110.0761
      0.9695      42.3217    -109.5094
      0.9711      42.0466    -108.9459
      0.9727      41.7748    -108.3863
      0.9743      41.5060    -107.8300
      0.9760      41.2404    -107.2772
      0.9776      40.9779    -106.7278
      0.9792      40.7184    -106.1819
      0.9808      40.4617    -105.6393
      0.9824      40.2082    -105.1002
      0.9840      39.9575    -104.5644
      0.9856      39.7097    -104.0318
      0.9872      39.4647    -103.5024
      0.9888      39.2225    -102.9766
      0.9904      38.9831    -102.4536
      0.9920      38.7464    -101.9342
      0.9936      38.5124    -101.4176
      0.9952      38.2810    -100.9044
      0.9968      38.0523    -100.3942
     0.99840     37.82618    -99.88712
     1.00000     37.60269    -99.38323
# 
# 07/28/2018 at 15:53 YAMBO @ narro [start]
# 07/28/2018 at 15:53               [end]
#
# .-Input file : yambo.in
# | optics                         # [R OPT] Optics
# | bse                            # [R BSE] Bethe Salpeter Equation.
# | BoseTemp=  0.02586     eV      # Bosonic Temperature
# | FFTGvecs=  603         RL      # [FFT] Plane-waves
# | X_Threads= 1                   # [OPENMP/X] Number of threads for response functions
# | DIP_Threads= 1                 # [OPENMP/X] Number of threads for dipoles
# | K_Threads= 1                   # [OPENMP/BSK] Number of threads for response functions
# | BSEmod= "retarded"             # [BSE] resonant/retarded/coupling
# | BSKmod= "IP"                   # [BSE] IP/Hartree/HF/ALDA/SEX/BSfxc
# | DipApproach= "Shifted grids"   # [Xd] [G-space v/R-space x/Covariant/Shifted grids]
# | ShiftedPaths= "SHIFTED_grids/shift_1 SHIFTED_grids/shift_2 SHIFTED_grids/shift_3" # [Xd] Shifted grids paths (separated by a space)
# | DrudeWBS= ( 4.800000 , 5.650000 )  eV  # [BSE] Drude plasmon
# | % BEnRange
# |  0.200000 | 1.000000 | eV      # [BSS] Energy range
# | %
# | % BDmRange
# |   0.10000 |  0.10000 | eV      # [BSS] Damping range
# | %
# | BEnSteps=  500                 # [BSS] Energy steps
# | % BLongDir
# | 0.1000E-4 | 0.000    | 0.000    |        # [BSS] [cc] Electric Field
# | %
# | % BSEBands
# |   1 |  9 |                     # [BSK] Bands range
# | %
