#                                                                     
#  __  __   ________   ___ __ __    _______   ______                  
# /_/\/_/\ /_______/\ /__//_//_/\ /_______/\ /_____/\                 
# \ \ \ \ \\::: _  \ \\::\| \| \ \\::: _  \ \\:::_ \ \                
#  \:\_\ \ \\::(_)  \ \\:.      \ \\::(_)  \/_\:\ \ \ \               
#   \::::_\/ \:: __  \ \\:.\-/\  \ \\::  _  \ \\:\ \ \ \              
#     \::\ \  \:.\ \  \ \\. \  \  \ \\::(_)  \ \\:\_\ \ \             
#      \__\/   \__\/\__\/ \__\/ \__\/ \_______\/ \_____\/             
#                                                                     
#                                                                     
# Version 5.3.0 Revision 23897 Hash (prev commit) 1ec507d413          
#                 Branch is phys-magnons                              
#         MPI+OpenMP+SLK+SLEPC+HDF5_MPI_IO Build                      
#                http://www.yambo-code.eu                             
#
# Joint Density of states @ Q(1):   0.00000000      1.00000000      0.00000000    [q->0 direction]
#
# [GEN] GF Energies                               : Perdew, Burke & Ernzerhof(X)+Perdew, Burke & Ernzerhof(C)
# [GEN] Green`s Function                          : Resonant
#
# [GEN] Gauge                                     : Length
# [GEN] [r,Vnl] included                          : yes
#
# DIP band range                                  :   2   6
# DIP band range limits                           :   6   2
# DIP e/h energy range                            :  -1.00000000     -1.00000000    [eV]
# RL vectors in the sum                           :   603
# [r,Vnl] included                                : yes
# Bands ordered                                   : no
# Direct v evaluation                             : no
# Approach used                                   : G-space v
# Dipoles computed                                : R V P [G-space]  M_spin
# Wavefunctions                                   : Perdew, Burke & Ernzerhof(X)+Perdew, Burke & Ernzerhof(C)
#
#
# [K] Identifier                                  :   3898
# [K] Dimension                                   :   894
# [K] Bands                                       :   2   6
# [K] Exchange res                                : no
# [K] Correlation res                             : no
# [K] Kernel`s coupling                           : no
# [K] Exchange cpl                                : no
# [K] Correlation cpl                             : no
# [K] W interaction is bare                       : no
# [K] ALDA kernel in R-space                      : yes
# [K] E/h energy range                            :  -1.00000000     -1.00000000    [eV]
# [K] Coupling range                              :   100.000000      100.000000    [o/o]
# [X] Response Kind                               : BAR
#
#
#    E[1] [eV]          Im(jdos)           Re(jdos)           Im(jdos_o)         Re(jdos_o)
#
       -2.000000           0.231492           10.96404           0.212081           10.82560
       -1.996000           0.232081           10.97327           0.212439           10.83406
       -1.992000           0.232676           10.98251           0.212798           10.84256
       -1.988000           0.233276           10.99179           0.213158           10.85108
       -1.984000           0.233882           11.00108           0.213519           10.85960
       -1.980000           0.234493           11.01039           0.213880           10.86813
       -1.976000           0.235111           11.01973           0.214242           10.87671
       -1.972000           0.235734           11.02909           0.214606           10.88524
       -1.968000           0.236363           11.03849           0.214971           10.89384
       -1.964000           0.236999           11.04791           0.215336           10.90244
       -1.960000           0.237641           11.05733           0.215703           10.91104
       -1.956000           0.238289           11.06679           0.216070           10.91969
       -1.952000           0.238945           11.07628           0.216439           10.92831
       -1.948000           0.239606           11.08580           0.216808           10.93699
       -1.944000           0.240276           11.09534           0.217178           10.94567
       -1.940000           0.240952           11.10490           0.217551           10.95433
       -1.936000           0.241635           11.11448           0.217923           10.96305
       -1.932000           0.242326           11.12409           0.218296           10.97177
       -1.928000           0.243025           11.13375           0.218671           10.98045
       -1.924000           0.243731           11.14341           0.219048           10.98923
       -1.920000           0.244446           11.15311           0.219424           10.99802
       -1.916000           0.245170           11.16282           0.219801           11.00675
       -1.912000           0.245900           11.17256           0.220180           11.01557
       -1.908000           0.246641           11.18233           0.220560           11.02436
       -1.904000           0.247391           11.19213           0.220941           11.03316
       -1.900000           0.248148           11.20197           0.221323           11.04199
       -1.896000           0.248916           11.21182           0.221706           11.05085
       -1.892000           0.249694           11.22172           0.222090           11.05976
       -1.888000           0.250482           11.23162           0.222475           11.06860
       -1.884000           0.251279           11.24158           0.222862           11.07751
       -1.880000           0.252087           11.25154           0.223248           11.08641
       -1.876000           0.252907           11.26156           0.223637           11.09536
       -1.872000           0.253737           11.27158           0.224026           11.10432
       -1.868000           0.254578           11.28164           0.224416           11.11327
       -1.864000           0.255432           11.29173           0.224808           11.12225
       -1.860000           0.256297           11.30187           0.225201           11.13117
       -1.856000           0.257175           11.31203           0.225595           11.14024
       -1.852000           0.258066           11.32222           0.225990           11.14927
       -1.848000           0.258970           11.33244           0.226386           11.15832
       -1.844000           0.259888           11.34270           0.226783           11.16736
       -1.840000           0.260819           11.35299           0.227182           11.17642
       -1.836000           0.261765           11.36329           0.227580           11.18551
       -1.832000           0.262726           11.37366           0.227981           11.19461
       -1.828000           0.263703           11.38406           0.228383           11.20376
       -1.824000           0.264695           11.39448           0.228786           11.21288
       -1.820000           0.265703           11.40493           0.229189           11.22201
       -1.816000           0.266729           11.41543           0.229595           11.23121
       -1.812000           0.267772           11.42596           0.230001           11.24038
       -1.808000           0.268833           11.43653           0.230408           11.24954
       -1.804000           0.269912           11.44713           0.230817           11.25879
       -1.800000           0.271011           11.45778           0.231226           11.26799
       -1.796000           0.272130           11.46847           0.231638           11.27729
       -1.792000           0.273269           11.47918           0.232049           11.28652
       -1.788000           0.274429           11.48994           0.232462           11.29579
       -1.784000           0.275612           11.50074           0.232877           11.30510
       -1.780000           0.276817           11.51158           0.233293           11.31441
       -1.776000           0.278046           11.52245           0.233709           11.32376
       -1.772000           0.279299           11.53339           0.234128           11.33307
       -1.768000           0.280578           11.54433           0.234547           11.34244
       -1.764000           0.281883           11.55536           0.234967           11.35184
       -1.760000           0.283216           11.56641           0.235389           11.36119
       -1.756000           0.284575           11.57751           0.235812           11.37066
       -1.752000           0.285965           11.58864           0.236237           11.38010
       -1.748000           0.287386           11.59981           0.236661           11.38955
       -1.744000           0.288837           11.61104           0.237089           11.39898
       -1.740000           0.290321           11.62232           0.237516           11.40848
       -1.736000           0.291840           11.63363           0.237944           11.41795
       -1.732000           0.293394           11.64503           0.238375           11.42745
       -1.728000           0.294985           11.65643           0.238807           11.43699
       -1.724000           0.296614           11.66792           0.239239           11.44657
       -1.720000           0.298283           11.67941           0.239673           11.45611
       -1.716000           0.299993           11.69098           0.240108           11.46574
       -1.712000           0.301747           11.70259           0.240546           11.47533
       -1.708000           0.303545           11.71429           0.240983           11.48497
       -1.704000           0.305390           11.72600           0.241423           11.49458
       -1.700000           0.307285           11.73779           0.241864           11.50422
       -1.696000           0.309230           11.74962           0.242305           11.51391
       -1.692000           0.311229           11.76150           0.242748           11.52357
       -1.688000           0.313284           11.77346           0.243193           11.53335
       -1.684000           0.315396           11.78546           0.243638           11.54302
       -1.680000           0.317569           11.79751           0.244086           11.55278
       -1.676000           0.319806           11.80962           0.244533           11.56255
       -1.672000           0.322108           11.82182           0.244983           11.57230
       -1.668000           0.324480           11.83405           0.245434           11.58210
       -1.664000           0.326924           11.84636           0.245886           11.59189
       -1.660000           0.329444           11.85872           0.246340           11.60175
       -1.656000           0.332044           11.87111           0.246796           11.61162
       -1.652000           0.334727           11.88362           0.247252           11.62150
       -1.648000           0.337497           11.89615           0.247709           11.63138
       -1.644000           0.340358           11.90880           0.248168           11.64130
       -1.640000           0.343316           11.92147           0.248628           11.65121
       -1.636000           0.346375           11.93419           0.249091           11.66112
       -1.632000           0.349538           11.94702           0.249554           11.67105
       -1.628000           0.352813           11.95989           0.250019           11.68107
       -1.624000           0.356204           11.97280           0.250485           11.69104
       -1.620000           0.359718           11.98583           0.250953           11.70107
       -1.616000           0.363361           11.99889           0.251422           11.71118
       -1.612000           0.367139           12.01200           0.251892           11.72122
       -1.608000           0.371059           12.02520           0.252364           11.73127
       -1.604000           0.375128           12.03844           0.252837           11.74136
       -1.600000           0.379356           12.05177           0.253312           11.75147
       -1.596000           0.383750           12.06515           0.253787           11.76160
       -1.592000           0.388319           12.07858           0.254266           11.77175
       -1.588000           0.393072           12.09206           0.254744           11.78195
       -1.584000           0.398018           12.10561           0.255224           11.79214
       -1.580000           0.403168           12.11921           0.255706           11.80232
       -1.576000           0.408534           12.13286           0.256190           11.81255
       -1.572000           0.414127           12.14651           0.256674           11.82278
       -1.568000           0.419956           12.16022           0.257160           11.83302
       -1.564000           0.426040           12.17399           0.257648           11.84335
       -1.560000           0.432388           12.18774           0.258137           11.85365
       -1.556000           0.439015           12.20154           0.258629           11.86397
       -1.552000           0.445936           12.21532           0.259121           11.87432
       -1.548000           0.453165           12.22910           0.259615           11.88466
       -1.544000           0.460719           12.24287           0.260111           11.89503
       -1.540000           0.468615           12.25659           0.260607           11.90548
       -1.536000           0.476870           12.27028           0.261106           11.91584
       -1.532000           0.485500           12.28390           0.261605           11.92634
       -1.528000           0.494522           12.29742           0.262108           11.93675
       -1.524000           0.503959           12.31086           0.262610           11.94723
       -1.520000           0.513825           12.32417           0.263115           11.95778
       -1.516000           0.524138           12.33727           0.263622           11.96825
       -1.512000           0.534916           12.35021           0.264129           11.97879
       -1.508000           0.546176           12.36290           0.264640           11.98939
       -1.504000           0.557935           12.37536           0.265150           11.99994
       -1.500000           0.570202           12.38746           0.265662           12.01055
       -1.496000           0.582993           12.39924           0.266177           12.02116
       -1.492000           0.596316           12.41058           0.266693           12.03183
       -1.488000           0.610178           12.42146           0.267211           12.04247
       -1.484000           0.624577           12.43176           0.267729           12.05317
       -1.480000           0.639507           12.44148           0.268249           12.06385
       -1.476000           0.654961           12.45053           0.268773           12.07460
       -1.472000           0.670915           12.45883           0.269296           12.08536
       -1.468000           0.687345           12.46627           0.269822           12.09611
       -1.464000           0.704210           12.47278           0.270349           12.10688
       -1.460000           0.721454           12.47828           0.270879           12.11770
       -1.456000           0.739020           12.48266           0.271410           12.12859
       -1.452000           0.756822           12.48589           0.271942           12.13943
       -1.448000           0.774767           12.48783           0.272477           12.15030
       -1.444000           0.792741           12.48840           0.273012           12.16116
       -1.440000           0.810615           12.48755           0.273550           12.17208
       -1.436000           0.828239           12.48519           0.274088           12.18301
       -1.432000           0.845454           12.48136           0.274631           12.19396
       -1.428000           0.862080           12.47596           0.275172           12.20496
       -1.424000           0.877924           12.46905           0.275717           12.21594
       -1.420000           0.892795           12.46062           0.276264           12.22703
       -1.416000           0.906494           12.45076           0.276812           12.23802
       -1.412000           0.918818           12.43955           0.277361           12.24910
       -1.408000           0.929583           12.42714           0.277913           12.26024
       -1.404000           0.938615           12.41368           0.278467           12.27131
       -1.400000           0.945772           12.39936           0.279022           12.28247
       -1.396000           0.950925           12.38440           0.279579           12.29357
       -1.392000           0.953990           12.36905           0.280138           12.30477
       -1.388000           0.954927           12.35357           0.280698           12.31597
       -1.384000           0.953721           12.33814           0.281260           12.32722
       -1.380000           0.950410           12.32312           0.281824           12.33849
       -1.376000           0.945066           12.30871           0.282391           12.34975
       -1.372000           0.937794           12.29511           0.282959           12.36101
       -1.368000           0.928738           12.28254           0.283530           12.37232
       -1.364000           0.918070           12.27118           0.284101           12.38363
       -1.360000           0.905960           12.26115           0.284674           12.39504
       -1.356000           0.892609           12.25262           0.285250           12.40643
       -1.352000           0.878216           12.24557           0.285827           12.41777
       -1.348000           0.862979           12.24011           0.286407           12.42922
       -1.344000           0.847090           12.23624           0.286988           12.44072
       -1.340000           0.830732           12.23394           0.287570           12.45221
       -1.336000           0.814072           12.23317           0.288157           12.46368
       -1.332000           0.797267           12.23391           0.288744           12.47521
       -1.328000           0.780447           12.23607           0.289333           12.48675
       -1.324000           0.763733           12.23960           0.289922           12.49831
       -1.320000           0.747227           12.24437           0.290516           12.50985
       -1.316000           0.731016           12.25033           0.291112           12.52153
       -1.312000           0.715163           12.25736           0.291709           12.53315
       -1.308000           0.699734           12.26543           0.292308           12.54476
       -1.304000           0.684767           12.27439           0.292908           12.55650
       -1.300000           0.670292           12.28419           0.293510           12.56819
       -1.296000           0.656334           12.29471           0.294117           12.57995
       -1.292000           0.642906           12.30594           0.294723           12.59174
       -1.288000           0.630016           12.31778           0.295333           12.60349
       -1.284000           0.617665           12.33014           0.295944           12.61529
       -1.280000           0.605847           12.34299           0.296557           12.62713
       -1.276000           0.594556           12.35628           0.297174           12.63902
       -1.272000           0.583782           12.36992           0.297789           12.65090
       -1.268000           0.573511           12.38392           0.298409           12.66279
       -1.264000           0.563727           12.39818           0.299031           12.67472
       -1.260000           0.554414           12.41273           0.299655           12.68667
       -1.256000           0.545558           12.42746           0.300281           12.69864
       -1.252000           0.537134           12.44240           0.300910           12.71062
       -1.248000           0.529131           12.45749           0.301539           12.72267
       -1.244000           0.521528           12.47272           0.302172           12.73473
       -1.240000           0.514308           12.48805           0.302807           12.74681
       -1.236000           0.507453           12.50353           0.303443           12.75892
       -1.232000           0.500945           12.51906           0.304081           12.77108
       -1.228000           0.494767           12.53468           0.304723           12.78322
       -1.224000           0.488906           12.55032           0.305366           12.79541
       -1.220000           0.483345           12.56603           0.306011           12.80766
       -1.216000           0.478068           12.58178           0.306661           12.81987
       -1.212000           0.473061           12.59752           0.307310           12.83213
       -1.208000           0.468312           12.61333           0.307963           12.84439
       -1.204000           0.463805           12.62911           0.308617           12.85670
       -1.200000           0.459531           12.64494           0.309275           12.86909
       -1.196000           0.455475           12.66073           0.309933           12.88142
       -1.192000           0.451629           12.67654           0.310595           12.89383
       -1.188000           0.447982           12.69234           0.311260           12.90621
       -1.184000           0.444522           12.70815           0.311926           12.91863
       -1.180000           0.441241           12.72393           0.312595           12.93112
       -1.176000           0.438130           12.73970           0.313265           12.94361
       -1.172000           0.435181           12.75546           0.313939           12.95619
       -1.168000           0.432385           12.77118           0.314615           12.96873
       -1.164000           0.429734           12.78689           0.315294           12.98130
       -1.160000           0.427223           12.80261           0.315973           12.99393
       -1.156000           0.424843           12.81830           0.316657           13.00655
       -1.152000           0.422589           12.83397           0.317342           13.01918
       -1.148000           0.420455           12.84962           0.318030           13.03184
       -1.144000           0.418434           12.86526           0.318719           13.04458
       -1.140000           0.416522           12.88089           0.319412           13.05737
       -1.136000           0.414713           12.89647           0.320109           13.07003
       -1.132000           0.413004           12.91207           0.320805           13.08291
       -1.128000           0.411388           12.92763           0.321506           13.09574
       -1.124000           0.409862           12.94317           0.322208           13.10862
       -1.120000           0.408423           12.95872           0.322915           13.12145
       -1.116000           0.407064           12.97423           0.323622           13.13437
       -1.112000           0.405785           12.98971           0.324333           13.14733
       -1.108000           0.404579           13.00522           0.325046           13.16027
       -1.104000           0.403447           13.02070           0.325761           13.17324
       -1.100000           0.402382           13.03618           0.326480           13.18630
       -1.096000           0.401383           13.05162           0.327201           13.19932
       -1.092000           0.400447           13.06706           0.327923           13.21241
       -1.088000           0.399572           13.08252           0.328650           13.22553
       -1.084000           0.398753           13.09793           0.329380           13.23864
       -1.080000           0.397991           13.11334           0.330111           13.25179
       -1.076000           0.397282           13.12877           0.330845           13.26506
       -1.072000           0.396624           13.14417           0.331581           13.27824
       -1.068000           0.396014           13.15955           0.332321           13.29151
       -1.064000           0.395452           13.17496           0.333064           13.30477
       -1.060000           0.394936           13.19036           0.333808           13.31807
       -1.056000           0.394464           13.20574           0.334557           13.33145
       -1.052000           0.394032           13.22114           0.335307           13.34483
       -1.048000           0.393642           13.23651           0.336061           13.35823
       -1.044000           0.393290           13.25189           0.336816           13.37164
       -1.040000           0.392976           13.26731           0.337576           13.38510
       -1.036000           0.392698           13.28269           0.338338           13.39865
       -1.032000           0.392456           13.29807           0.339102           13.41213
       -1.028000           0.392246           13.31347           0.339870           13.42573
       -1.024000           0.392071           13.32885           0.340641           13.43931
       -1.020000           0.391925           13.34424           0.341415           13.45291
       -1.016000           0.391810           13.35965           0.342191           13.46651
       -1.012000           0.391724           13.37505           0.342970           13.48021
       -1.008000           0.391668           13.39048           0.343753           13.49400
       -1.004000           0.391637           13.40591           0.344537           13.50769
       -1.000000           0.391635           13.42133           0.345326           13.52145
       -0.996000           0.391659           13.43676           0.346116           13.53524
       -0.992000           0.391705           13.45223           0.346911           13.54909
       -0.988000           0.391777           13.46767           0.347708           13.56293
       -0.984000           0.391873           13.48314           0.348508           13.57684
       -0.980000           0.391992           13.49862           0.349312           13.59078
       -0.976000           0.392132           13.51410           0.350119           13.60473
       -0.972000           0.392294           13.52959           0.350927           13.61879
       -0.968000           0.392477           13.54512           0.351741           13.63278
       -0.964000           0.392679           13.56064           0.352557           13.64680
       -0.960000           0.392902           13.57619           0.353376           13.66089
       -0.956000           0.393144           13.59173           0.354197           13.67505
       -0.952000           0.393405           13.60730           0.355022           13.68922
       -0.948000           0.393683           13.62288           0.355851           13.70340
       -0.944000           0.393980           13.63850           0.356683           13.71762
       -0.940000           0.394294           13.65412           0.357518           13.73187
       -0.936000           0.394625           13.66971           0.358357           13.74617
       -0.932000           0.394972           13.68538           0.359198           13.76049
       -0.928000           0.395336           13.70105           0.360044           13.77485
       -0.924000           0.395714           13.71673           0.360890           13.78922
       -0.920000           0.396109           13.73245           0.361743           13.80366
       -0.916000           0.396518           13.74816           0.362599           13.81814
       -0.912000           0.396942           13.76390           0.363456           13.83265
       -0.908000           0.397380           13.77967           0.364318           13.84713
       -0.904000           0.397832           13.79544           0.365184           13.86173
       -0.900000           0.398298           13.81125           0.366051           13.87630
       -0.896000           0.398777           13.82709           0.366923           13.89094
       -0.892000           0.399270           13.84293           0.367799           13.90558
       -0.888000           0.399774           13.85881           0.368678           13.92028
       -0.884000           0.400293           13.87471           0.369561           13.93501
       -0.880000           0.400824           13.89061           0.370447           13.94980
       -0.876000           0.401366           13.90655           0.371337           13.96465
       -0.872000           0.401920           13.92253           0.372229           13.97945
       -0.868000           0.402487           13.93851           0.373126           13.99433
       -0.864000           0.403064           13.95451           0.374027           14.00921
       -0.860000           0.403653           13.97057           0.374931           14.02420
       -0.856000           0.404253           13.98661           0.375839           14.03917
       -0.852000           0.404864           14.00269           0.376750           14.05416
       -0.848000           0.405486           14.01882           0.377665           14.06925
       -0.844000           0.406119           14.03494           0.378584           14.08430
       -0.840000           0.406761           14.05114           0.379507           14.09945
       -0.836000           0.407414           14.06734           0.380434           14.11463
       -0.832000           0.408079           14.08355           0.381363           14.12982
       -0.828000           0.408752           14.09981           0.382298           14.14510
       -0.824000           0.409435           14.11610           0.383236           14.16034
       -0.820000           0.410129           14.13237           0.384177           14.17567
       -0.816000           0.410831           14.14872           0.385124           14.19101
       -0.812000           0.411544           14.16509           0.386073           14.20643
       -0.808000           0.412266           14.18150           0.387026           14.22186
       -0.804000           0.412996           14.19792           0.387985           14.23733
       -0.800000           0.413737           14.21437           0.388946           14.25285
       -0.796000           0.414484           14.23086           0.389911           14.26836
       -0.792000           0.415244           14.24739           0.390881           14.28395
       -0.788000           0.416010           14.26392           0.391854           14.29957
       -0.784000           0.416787           14.28052           0.392833           14.31523
       -0.780000           0.417570           14.29712           0.393812           14.33091
       -0.776000           0.418365           14.31378           0.394801           14.34669
       -0.772000           0.419166           14.33045           0.395789           14.36245
       -0.768000           0.419976           14.34715           0.396785           14.37827
       -0.764000           0.420794           14.36391           0.397785           14.39410
       -0.760000           0.421622           14.38068           0.398786           14.41004
       -0.756000           0.422456           14.39750           0.399793           14.42599
       -0.752000           0.423300           14.41435           0.400805           14.44192
       -0.748000           0.424152           14.43123           0.401821           14.45793
       -0.744000           0.425011           14.44813           0.402841           14.47399
       -0.740000           0.425879           14.46508           0.403866           14.49010
       -0.736000           0.426754           14.48208           0.404896           14.50619
       -0.732000           0.427638           14.49905           0.405928           14.52245
       -0.728000           0.428529           14.51617           0.406966           14.53861
       -0.724000           0.429428           14.53325           0.408010           14.55495
       -0.720000           0.430336           14.55037           0.409057           14.57123
       -0.716000           0.431250           14.56754           0.410108           14.58757
       -0.712000           0.432174           14.58474           0.411164           14.60394
       -0.708000           0.433104           14.60200           0.412224           14.62038
       -0.704000           0.434042           14.61927           0.413289           14.63684
       -0.700000           0.434987           14.63657           0.414361           14.65342
       -0.696000           0.435940           14.65394           0.415434           14.66990
       -0.692000           0.436903           14.67132           0.416515           14.68649
       -0.688000           0.437870           14.68877           0.417600           14.70315
       -0.684000           0.438846           14.70622           0.418689           14.71978
       -0.680000           0.439830           14.72372           0.419783           14.73657
       -0.676000           0.440821           14.74130           0.420881           14.75338
       -0.672000           0.441820           14.75886           0.421986           14.77021
       -0.668000           0.442825           14.77652           0.423093           14.78700
       -0.664000           0.443839           14.79418           0.424206           14.80391
       -0.660000           0.444860           14.81188           0.425327           14.82088
       -0.656000           0.445888           14.82965           0.426450           14.83781
       -0.652000           0.446924           14.84744           0.427579           14.85490
       -0.648000           0.447969           14.86527           0.428713           14.87202
       -0.644000           0.449018           14.88313           0.429851           14.88909
       -0.640000           0.450076           14.90109           0.430993           14.90629
       -0.636000           0.451141           14.91902           0.432147           14.92348
       -0.632000           0.452215           14.93703           0.433300           14.94073
       -0.628000           0.453296           14.95510           0.434461           14.95809
       -0.624000           0.454383           14.97319           0.435626           14.97542
       -0.620000           0.455478           14.99131           0.436797           14.99290
       -0.616000           0.456580           15.00948           0.437972           15.01033
       -0.612000           0.457691           15.02771           0.439155           15.02772
       -0.608000           0.458808           15.04600           0.440339           15.04533
       -0.604000           0.459933           15.06427           0.441533           15.06289
       -0.600000           0.461065           15.08264           0.442730           15.08056
       -0.596000           0.462205           15.10108           0.443933           15.09826
       -0.592000           0.463352           15.11951           0.445143           15.11600
       -0.588000           0.464507           15.13799           0.446358           15.13370
       -0.584000           0.465670           15.15650           0.447579           15.15160
       -0.580000           0.466840           15.17513           0.448807           15.16950
       -0.576000           0.468017           15.19375           0.450036           15.18740
       -0.572000           0.469202           15.21243           0.451275           15.20534
       -0.568000           0.470394           15.23116           0.452518           15.22338
       -0.564000           0.471594           15.24994           0.453770           15.24148
       -0.560000           0.472802           15.26873           0.455024           15.25961
       -0.556000           0.474017           15.28763           0.456286           15.27779
       -0.552000           0.475240           15.30655           0.457554           15.29600
       -0.548000           0.476471           15.32553           0.458827           15.31431
       -0.544000           0.477709           15.34457           0.460106           15.33259
       -0.540000           0.478956           15.36362           0.461393           15.35098
       -0.536000           0.480208           15.38273           0.462685           15.36939
       -0.532000           0.481470           15.40191           0.463985           15.38797
       -0.528000           0.482740           15.42111           0.465289           15.40642
       -0.524000           0.484016           15.44041           0.466600           15.42500
       -0.520000           0.485302           15.45970           0.467917           15.44358
       -0.516000           0.486595           15.47906           0.469242           15.46236
       -0.512000           0.487896           15.49850           0.470572           15.48111
       -0.508000           0.489204           15.51799           0.471909           15.49987
       -0.504000           0.490521           15.53750           0.473253           15.51872
       -0.500000           0.491846           15.55709           0.474602           15.53764
       -0.496000           0.493179           15.57673           0.475960           15.55659
       -0.492000           0.494520           15.59639           0.477324           15.57558
       -0.488000           0.495870           15.61613           0.478694           15.59463
       -0.484000           0.497228           15.63593           0.480072           15.61377
       -0.480000           0.498592           15.65577           0.481457           15.63292
       -0.476000           0.499966           15.67568           0.482848           15.65217
       -0.472000           0.501349           15.69565           0.484247           15.67148
       -0.468000           0.502740           15.71566           0.485652           15.69082
       -0.464000           0.504138           15.73572           0.487062           15.71021
       -0.460000           0.505545           15.75585           0.488482           15.72960
       -0.456000           0.506962           15.77603           0.489909           15.74913
       -0.452000           0.508385           15.79625           0.491343           15.76873
       -0.448000           0.509819           15.81655           0.492784           15.78831
       -0.444000           0.511261           15.83694           0.494234           15.80806
       -0.440000           0.512710           15.85730           0.495688           15.82783
       -0.436000           0.514170           15.87778           0.497152           15.84756
       -0.432000           0.515638           15.89828           0.498626           15.86741
       -0.428000           0.517115           15.91887           0.500104           15.88727
       -0.424000           0.518601           15.93949           0.501590           15.90726
       -0.420000           0.520094           15.96022           0.503083           15.92735
       -0.416000           0.521599           15.98096           0.504587           15.94732
       -0.412000           0.523110           16.00178           0.506097           15.96759
       -0.408000           0.524633           16.02266           0.507617           15.98776
       -0.404000           0.526163           16.04362           0.509140           16.00802
       -0.400000           0.527704           16.06461           0.510673           16.02832
       -0.396000           0.529253           16.08564           0.512217           16.04865
       -0.392000           0.530812           16.10678           0.513767           16.06920
       -0.388000           0.532380           16.12798           0.515324           16.08966
       -0.384000           0.533958           16.14923           0.516893           16.11030
       -0.380000           0.535546           16.17054           0.518468           16.13087
       -0.376000           0.537141           16.19189           0.520053           16.15157
       -0.372000           0.538749           16.21334           0.521644           16.17232
       -0.368000           0.540364           16.23482           0.523245           16.19319
       -0.364000           0.541991           16.25640           0.524855           16.21409
       -0.360000           0.543626           16.27804           0.526473           16.23505
       -0.356000           0.545273           16.29972           0.528099           16.25610
       -0.352000           0.546928           16.32150           0.529735           16.27713
       -0.348000           0.548594           16.34328           0.531381           16.29828
       -0.344000           0.550270           16.36520           0.533035           16.31948
       -0.340000           0.551957           16.38716           0.534698           16.34077
       -0.336000           0.553654           16.40921           0.536371           16.36210
       -0.332000           0.555361           16.43130           0.538052           16.38354
       -0.328000           0.557079           16.45343           0.539746           16.40505
       -0.324000           0.558807           16.47569           0.541445           16.42653
       -0.320000           0.560547           16.49798           0.543155           16.44819
       -0.316000           0.562297           16.52035           0.544875           16.46989
       -0.312000           0.564057           16.54276           0.546605           16.49158
       -0.308000           0.565829           16.56528           0.548341           16.51343
       -0.304000           0.567611           16.58786           0.550091           16.53531
       -0.300000           0.569405           16.61049           0.551852           16.55723
       -0.296000           0.571208           16.63319           0.553619           16.57929
       -0.292000           0.573025           16.65599           0.555399           16.60134
       -0.288000           0.574852           16.67885           0.557188           16.62347
       -0.284000           0.576692           16.70179           0.558990           16.64578
       -0.280000           0.578542           16.72483           0.560799           16.66806
       -0.276000           0.580404           16.74791           0.562618           16.69047
       -0.272000           0.582278           16.77106           0.564451           16.71286
       -0.268000           0.584164           16.79427           0.566293           16.73541
       -0.264000           0.586060           16.81757           0.568145           16.75808
       -0.260000           0.587971           16.84098           0.570010           16.78066
       -0.256000           0.589893           16.86441           0.571884           16.80346
       -0.252000           0.591826           16.88794           0.573769           16.82622
       -0.248000           0.593773           16.91156           0.575666           16.84919
       -0.244000           0.595731           16.93526           0.577573           16.87211
       -0.240000           0.597703           16.95901           0.579493           16.89520
       -0.236000           0.599688           16.98284           0.581424           16.91825
       -0.232000           0.601684           17.00675           0.583366           16.94152
       -0.228000           0.603694           17.03078           0.585320           16.96479
       -0.224000           0.605717           17.05484           0.587287           16.98805
       -0.220000           0.607754           17.07899           0.589266           17.01155
       -0.216000           0.609803           17.10326           0.591255           17.03506
       -0.212000           0.611866           17.12756           0.593259           17.05865
       -0.208000           0.613942           17.15195           0.595272           17.08232
       -0.204000           0.616032           17.17643           0.597300           17.10610
       -0.200000           0.618136           17.20099           0.599338           17.12986
       -0.196000           0.620253           17.22565           0.601389           17.15377
       -0.192000           0.622386           17.25041           0.603458           17.17780
       -0.188000           0.624532           17.27520           0.605532           17.20177
       -0.184000           0.626692           17.30011           0.607623           17.22603
       -0.180000           0.628866           17.32511           0.609728           17.25026
       -0.176000           0.631056           17.35017           0.611847           17.27454
       -0.172000           0.633259           17.37534           0.613978           17.29900
       -0.168000           0.635479           17.40059           0.616121           17.32341
       -0.164000           0.637713           17.42592           0.618279           17.34799
       -0.160000           0.639962           17.45133           0.620452           17.37265
       -0.156000           0.642227           17.47687           0.622636           17.39746
       -0.152000           0.644507           17.50247           0.624836           17.42234
       -0.148000           0.646802           17.52816           0.627050           17.44716
       -0.144000           0.649114           17.55398           0.629278           17.47212
       -0.140000           0.651442           17.57984           0.631524           17.49734
       -0.136000           0.653786           17.60579           0.633781           17.52241
       -0.132000           0.656146           17.63185           0.636054           17.54775
       -0.128000           0.658521           17.65801           0.638340           17.57306
       -0.124000           0.660914           17.68426           0.640642           17.59851
       -0.120000           0.663325           17.71062           0.642961           17.62409
       -0.116000           0.665752           17.73705           0.645296           17.64978
       -0.112000           0.668195           17.76360           0.647646           17.67539
       -0.108000           0.670658           17.79021           0.650011           17.70129
       -0.104000           0.673136           17.81695           0.652390           17.72717
       -0.100000           0.675633           17.84376           0.654788           17.75320
       -0.096000           0.678148           17.87068           0.657202           17.77925
       -0.092000           0.680679           17.89773           0.659629           17.80553
       -0.088000           0.683231           17.92484           0.662081           17.83179
       -0.084000           0.685801           17.95206           0.664543           17.85820
       -0.080000           0.688390           17.97937           0.667023           17.88463
       -0.076000           0.690997           18.00680           0.669522           17.91121
       -0.072000           0.693622           18.03435           0.672035           17.93794
       -0.068000           0.696267           18.06198           0.674571           17.96471
       -0.064000           0.698932           18.08971           0.677121           17.99161
       -0.060000           0.701619           18.11754           0.679689           18.01861
       -0.056000           0.704322           18.14550           0.682275           18.04563
       -0.052000           0.707049           18.17356           0.684883           18.07278
       -0.048000           0.709795           18.20171           0.687506           18.10008
       -0.044000           0.712561           18.23000           0.690151           18.12750
       -0.040000           0.715349           18.25840           0.692813           18.15508
       -0.036000           0.718157           18.28688           0.695495           18.18263
       -0.032000           0.720987           18.31548           0.698195           18.21026
       -0.028000           0.723840           18.34416           0.700917           18.23815
       -0.024000           0.726714           18.37303           0.703658           18.26604
       -0.020000           0.729609           18.40195           0.706416           18.29402
       -0.016000           0.732529           18.43103           0.709202           18.32225
       -0.012000           0.735470           18.46015           0.712003           18.35046
       -0.008000           0.738435           18.48947           0.714826           18.37883
       -0.004000           0.741423           18.51884           0.717669           18.40727
        0.000000           0.744435           18.54836           0.720540           18.43590
        0.004000           0.747470           18.57801           0.723427           18.46462
        0.008000           0.750531           18.60775           0.726336           18.49344
        0.012000           0.753613           18.63764           0.729269           18.52234
        0.016000           0.756724           18.66763           0.732222           18.55138
        0.020000           0.759858           18.69775           0.735201           18.58053
        0.024000           0.763018           18.72801           0.738200           18.60978
        0.028000           0.766203           18.75832           0.741224           18.63925
        0.032000           0.769416           18.78884           0.744273           18.66866
        0.036000           0.772654           18.81945           0.747347           18.69838
        0.040000           0.775920           18.85018           0.750443           18.72804
        0.044000           0.779213           18.88107           0.753560           18.75795
        0.048000           0.782533           18.91207           0.756706           18.78792
        0.052000           0.785878           18.94321           0.759879           18.81807
        0.056000           0.789256           18.97447           0.763076           18.84832
        0.060000           0.792660           19.00587           0.766299           18.87867
        0.064000           0.796094           19.03739           0.769547           18.90914
        0.068000           0.799558           19.06905           0.772819           18.93978
        0.072000           0.803051           19.10083           0.776127           18.97049
        0.076000           0.806575           19.13280           0.779459           19.00140
        0.080000           0.810129           19.16484           0.782813           19.03241
        0.084000           0.813714           19.19709           0.786197           19.06357
        0.088000           0.817331           19.22943           0.789616           19.09482
        0.092000           0.820981           19.26192           0.793059           19.12621
        0.096000           0.824661           19.29457           0.796535           19.15771
        0.100000           0.828376           19.32733           0.800034           19.18947
        0.104000           0.832124           19.36027           0.803565           19.22128
        0.108000           0.835904           19.39334           0.807128           19.25331
        0.112000           0.839721           19.42655           0.810729           19.28532
        0.116000           0.843572           19.45993           0.814352           19.31760
        0.120000           0.847460           19.49342           0.818010           19.34992
        0.124000           0.851381           19.52713           0.821700           19.38247
        0.128000           0.855339           19.56093           0.825422           19.41511
        0.132000           0.859336           19.59492           0.829178           19.44795
        0.136000           0.863368           19.62903           0.832970           19.48085
        0.140000           0.867440           19.66333           0.836793           19.51405
        0.144000           0.871551           19.69780           0.840652           19.54726
        0.148000           0.875701           19.73240           0.844547           19.58064
        0.152000           0.879891           19.76717           0.848478           19.61418
        0.156000           0.884121           19.80210           0.852442           19.64798
        0.160000           0.888393           19.83718           0.856446           19.68176
        0.164000           0.892705           19.87247           0.860488           19.71577
        0.168000           0.897062           19.90789           0.864567           19.74996
        0.172000           0.901460           19.94352           0.868686           19.78430
        0.176000           0.905902           19.97928           0.872846           19.81883
        0.180000           0.910390           20.01522           0.877041           19.85348
        0.184000           0.914923           20.05133           0.881279           19.88827
        0.188000           0.919504           20.08764           0.885559           19.92333
        0.192000           0.924129           20.12414           0.889880           19.95841
        0.196000           0.928802           20.16073           0.894244           19.99379
        0.200000           0.933526           20.19758           0.898647           20.02917
        0.204000           0.938299           20.23458           0.903097           20.06485
        0.208000           0.943120           20.27180           0.907596           20.10069
        0.212000           0.947990           20.30917           0.912137           20.13660
        0.216000           0.952917           20.34677           0.916719           20.17293
        0.220000           0.957894           20.38454           0.921356           20.20927
        0.224000           0.962925           20.42246           0.926041           20.24578
        0.228000           0.968010           20.46062           0.930769           20.28249
        0.232000           0.973152           20.49899           0.935549           20.31942
        0.236000           0.978349           20.53753           0.940382           20.35650
        0.240000           0.983607           20.57627           0.945262           20.39375
        0.244000           0.988921           20.61520           0.950193           20.43125
        0.248000           0.994296           20.65435           0.955180           20.46895
        0.252000           0.999729           20.69370           0.960227           20.50670
        0.256000           1.005228           20.73327           0.965319           20.54471
        0.260000           1.010788           20.77304           0.970468           20.58301
        0.264000           1.016414           20.81304           0.975675           20.62145
        0.268000           1.022104           20.85324           0.980945           20.66013
        0.272000           1.027863           20.89366           0.986267           20.69892
        0.276000           1.033689           20.93431           0.991652           20.73796
        0.280000           1.039583           20.97517           0.997102           20.77719
        0.284000           1.045549           21.01627           1.002612           20.81670
        0.288000           1.051589           21.05761           1.008183           20.85633
        0.292000           1.057703           21.09916           1.013823           20.89617
        0.296000           1.063890           21.14093           1.019525           20.93624
        0.300000           1.070155           21.18291           1.025297           20.97658
        0.304000           1.076496           21.22517           1.031134           21.01716
        0.308000           1.082921           21.26770           1.037044           21.05781
        0.312000           1.089425           21.31042           1.043026           21.09888
        0.316000           1.096014           21.35339           1.049083           21.14013
        0.320000           1.102686           21.39666           1.055214           21.18159
        0.324000           1.109445           21.44011           1.061415           21.22326
        0.328000           1.116294           21.48388           1.067700           21.26515
        0.332000           1.123234           21.52790           1.074060           21.30732
        0.336000           1.130267           21.57214           1.080501           21.34969
        0.340000           1.137394           21.61669           1.087031           21.39237
        0.344000           1.144616           21.66146           1.093637           21.43520
        0.348000           1.151941           21.70656           1.100331           21.47828
        0.352000           1.159365           21.75192           1.107116           21.52175
        0.356000           1.166893           21.79752           1.113987           21.56544
        0.360000           1.174525           21.84342           1.120952           21.60920
        0.364000           1.182267           21.88966           1.128005           21.65343
        0.368000           1.190120           21.93611           1.135162           21.69792
        0.372000           1.198086           21.98288           1.142416           21.74249
        0.376000           1.206169           22.02995           1.149770           21.78752
        0.380000           1.214370           22.07732           1.157227           21.83279
        0.384000           1.222692           22.12497           1.164783           21.87825
        0.388000           1.231142           22.17291           1.172454           21.92410
        0.392000           1.239717           22.22124           1.180230           21.97024
        0.396000           1.248426           22.26989           1.188122           22.01653
        0.400000           1.257266           22.31881           1.196129           22.06326
        0.404000           1.266244           22.36810           1.204251           22.11020
        0.408000           1.275363           22.41766           1.212498           22.15752
        0.412000           1.284628           22.46759           1.220861           22.20518
        0.416000           1.294042           22.51786           1.229353           22.25297
        0.420000           1.303611           22.56844           1.237983           22.30112
        0.424000           1.313331           22.61937           1.246740           22.34968
        0.428000           1.323216           22.67074           1.255639           22.39854
        0.432000           1.333266           22.72244           1.264675           22.44773
        0.436000           1.343484           22.77440           1.273853           22.49727
        0.440000           1.353878           22.82679           1.283183           22.54700
        0.444000           1.364447           22.87961           1.292661           22.59726
        0.448000           1.375203           22.93276           1.302296           22.64775
        0.452000           1.386151           22.98628           1.312086           22.69861
        0.456000           1.397288           23.04022           1.322045           22.74990
        0.460000           1.408630           23.09453           1.332177           22.80148
        0.464000           1.420174           23.14931           1.342474           22.85343
        0.468000           1.431935           23.20443           1.352953           22.90565
        0.472000           1.443911           23.25998           1.363609           22.95845
        0.476000           1.456108           23.31598           1.374472           23.01148
        0.480000           1.468545           23.37237           1.385516           23.06498
        0.484000           1.481215           23.42927           1.396753           23.11886
        0.488000           1.494134           23.48654           1.408205           23.17311
        0.492000           1.507308           23.54426           1.419862           23.22774
        0.496000           1.520740           23.60246           1.431746           23.28288
        0.500000           1.534441           23.66115           1.443847           23.33840
        0.504000           1.548425           23.72023           1.456190           23.39434
        0.508000           1.562695           23.77981           1.468749           23.45059
        0.512000           1.577257           23.83999           1.481565           23.50746
        0.516000           1.592135           23.90054           1.494639           23.56475
        0.520000           1.607330           23.96161           1.507966           23.62234
        0.524000           1.622846           24.02324           1.521565           23.68050
        0.528000           1.638703           24.08536           1.535444           23.73920
        0.532000           1.654911           24.14800           1.549605           23.79823
        0.536000           1.671484           24.21115           1.564073           23.85780
        0.540000           1.688430           24.27492           1.578844           23.91791
        0.544000           1.705764           24.33922           1.593914           23.97839
        0.548000           1.723509           24.40410           1.609335           24.03958
        0.552000           1.741664           24.46944           1.625082           24.10107
        0.556000           1.760252           24.53550           1.641190           24.16327
        0.560000           1.779285           24.60211           1.657652           24.22577
        0.564000           1.798791           24.66923           1.674490           24.28900
        0.568000           1.818781           24.73709           1.691721           24.35271
        0.572000           1.839265           24.80554           1.709352           24.41699
        0.576000           1.860278           24.87455           1.727393           24.48189
        0.580000           1.881825           24.94433           1.745884           24.54722
        0.584000           1.903939           25.01466           1.764806           24.61337
        0.588000           1.926634           25.08576           1.784202           24.68000
        0.592000           1.949938           25.15741           1.804078           24.74717
        0.596000           1.973881           25.22981           1.824470           24.81503
        0.600000           1.998472           25.30289           1.845377           24.88356
        0.604000           2.023757           25.37670           1.866814           24.95255
        0.608000           2.049760           25.45120           1.888826           25.02237
        0.612000           2.076504           25.52654           1.911406           25.09283
        0.616000           2.104021           25.60245           1.934618           25.16387
        0.620000           2.132352           25.67926           1.958452           25.23562
        0.624000           2.161528           25.75676           1.982943           25.30812
        0.628000           2.191587           25.83504           2.008133           25.38126
        0.632000           2.222568           25.91405           2.034039           25.45514
        0.636000           2.254519           25.99397           2.060683           25.52971
        0.640000           2.287470           26.07462           2.088107           25.60518
        0.644000           2.321479           26.15611           2.116343           25.68122
        0.648000           2.356593           26.23839           2.145431           25.75813
        0.652000           2.392852           26.32153           2.175398           25.83568
        0.656000           2.430329           26.40546           2.206303           25.91412
        0.660000           2.469061           26.49029           2.238164           25.99339
        0.664000           2.509128           26.57597           2.271041           26.07335
        0.668000           2.550589           26.66239           2.304987           26.15419
        0.672000           2.593501           26.74980           2.340022           26.23577
        0.676000           2.637944           26.83796           2.376225           26.31844
        0.680000           2.683989           26.92702           2.413626           26.40166
        0.684000           2.731716           27.01694           2.452317           26.48582
        0.688000           2.781214           27.10763           2.492329           26.57086
        0.692000           2.832575           27.19921           2.533751           26.65664
        0.696000           2.885886           27.29158           2.576629           26.74325
        0.700000           2.941247           27.38471           2.621037           26.83093
        0.704000           2.998773           27.47859           2.667074           26.91933
        0.708000           3.058554           27.57336           2.714789           27.00858
        0.712000           3.120734           27.66870           2.764287           27.09863
        0.716000           3.185407           27.76475           2.815671           27.18966
        0.720000           3.252717           27.86139           2.869000           27.28139
        0.724000           3.322795           27.95863           2.924418           27.37401
        0.728000           3.395787           28.05635           2.982014           27.46743
        0.732000           3.471833           28.15454           3.041853           27.56163
        0.736000           3.551085           28.25304           3.104142           27.65654
        0.740000           3.633731           28.35171           3.168959           27.75204
        0.744000           3.719919           28.45061           3.236438           27.84841
        0.748000           3.809809           28.54943           3.306728           27.94520
        0.752000           3.903597           28.64810           3.379950           28.04271
        0.756000           4.001450           28.74640           3.456293           28.14044
        0.760000           4.103573           28.84420           3.535897           28.23878
        0.764000           4.210155           28.94123           3.618985           28.33737
        0.768000           4.321359           29.03729           3.705656           28.43625
        0.772000           4.437380           29.13207           3.796118           28.53497
        0.776000           4.558391           29.22523           3.890613           28.63366
        0.780000           4.684578           29.31649           3.989238           28.73229
        0.784000           4.816098           29.40547           4.092350           28.83048
        0.788000           4.953099           29.49166           4.200029           28.92795
        0.792000           5.095686           29.57471           4.312542           29.02453
        0.796000           5.243981           29.65417           4.430147           29.12017
        0.800000           5.398004           29.72933           4.552969           29.21409
        0.804000           5.557815           29.79968           4.681321           29.30645
        0.808000           5.723341           29.86456           4.815340           29.39652
        0.812000           5.894511           29.92337           4.955264           29.48399
        0.816000           6.071198           29.97528           5.101304           29.56858
        0.820000           6.253102           30.01977           5.253576           29.64934
        0.824000           6.439936           30.05588           5.412299           29.72624
        0.828000           6.631246           30.08284           5.577486           29.79824
        0.832000           6.826550           30.10004           5.749303           29.86477
        0.836000           7.025155           30.10652           5.927728           29.92500
        0.840000           7.226317           30.10167           6.112683           29.97831
        0.844000           7.429125           30.08483           6.304050           30.02357
        0.848000           7.632609           30.05533           6.501575           30.06002
        0.852000           7.835634           30.01258           6.705003           30.08663
        0.856000           8.037019           29.95634           6.913865           30.10243
        0.860000           8.235354           29.88625           7.127403           30.10611
        0.864000           8.429318           29.80209           7.345038           30.09712
        0.868000           8.617417           29.70402           7.565689           30.07388
        0.872000           8.798182           29.59208           7.788326           30.03568
        0.876000           8.970013           29.46676           8.011472           29.98136
        0.880000           9.131481           29.32855           8.233656           29.91037
        0.884000           9.281116           29.17835           8.453185           29.82178
        0.888000           9.417429           29.01698           8.667973           29.71533
        0.892000           9.539134           28.84560           8.875952           29.59065
        0.896000           9.645050           28.66556           9.074924           29.44790
        0.900000           9.734054           28.47840           9.262439           29.28728
        0.904000           9.805235           28.28561           9.436137           29.10984
        0.908000           9.857884           28.08909           9.593657           28.91649
        0.912000           9.891531           27.89062           9.732826           28.70897
        0.916000           9.905827           27.69223           9.851432           28.48930
        0.920000           9.900788           27.49585           9.947873           28.25926
        0.924000           9.876619           27.30347           10.02051           28.02201
        0.928000           9.833805           27.11714           10.06845           27.78024
        0.932000           9.773091           26.93879           10.09107           27.53687
        0.936000           9.695452           26.77010           10.08827           27.29495
        0.940000           9.602131           26.61277           10.06048           27.05791
        0.944000           9.494458           26.46821           10.00849           26.82829
        0.948000           9.374070           26.33764           9.933784           26.60906
        0.952000           9.242592           26.22200           9.837834           26.40242
        0.956000           9.101777           26.12211           9.722735           26.21059
        0.960000           8.953396           26.03846           9.590656           26.03536
        0.964000           8.799205           25.97119           9.443925           25.87798
        0.968000           8.640933           25.92037           9.285016           25.73924
        0.972000           8.480181           25.88583           9.116190           25.61992
        0.976000           8.318472           25.86717           8.939892           25.52006
        0.980000           8.157196           25.86386           8.758346           25.43953
        0.984000           7.997553           25.87527           8.573460           25.37800
        0.988000           7.840686           25.90066           8.387177           25.33489
        0.992000           7.687517           25.93923           8.201120           25.30941
        0.996000           7.538859           25.99019           8.016682           25.30072
        1.000000           7.395380           26.05260           7.835186           25.30764
        1.004000           7.257630           26.12563           7.657634           25.32937
        1.008000           7.126034           26.20847           7.484928           25.36472
        1.012000           7.000903           26.30030           7.317677           25.41269
        1.016000           6.882488           26.40043           7.156513           25.47242
        1.020000           6.770972           26.50790           7.001728           25.54256
        1.024000           6.666396           26.62220           6.853731           25.62234
        1.028000           6.568838           26.74267           6.712648           25.71099
        1.032000           6.478319           26.86869           6.578617           25.80753
        1.036000           6.394753           26.99970           6.451597           25.91114
        1.040000           6.318113           27.13525           6.331670           26.02125
        1.044000           6.248270           27.27477           6.218680           26.13729
        1.048000           6.185178           27.41800           6.112585           26.25828
        1.052000           6.128675           27.56452           6.013201           26.38402
        1.056000           6.078698           27.71391           5.920411           26.51399
        1.060000           6.035109           27.86592           5.834039           26.64786
        1.064000           5.997769           28.02024           5.753874           26.78497
        1.068000           5.966616           28.17665           5.679789           26.92510
        1.072000           5.941483           28.33492           5.611570           27.06803
        1.076000           5.922345           28.49475           5.549040           27.21340
        1.080000           5.909090           28.65609           5.491982           27.36094
        1.084000           5.901577           28.81861           5.440243           27.51051
        1.088000           5.899817           28.98230           5.393711           27.66196
        1.092000           5.903683           29.14678           5.352136           27.81508
        1.096000           5.913186           29.31209           5.315447           27.96966
        1.100000           5.928246           29.47783           5.283443           28.12582
        1.104000           5.948807           29.64410           5.256027           28.28323
        1.108000           5.974878           29.81055           5.233052           28.44183
        1.112000           6.006441           29.97726           5.214432           28.60157
        1.116000           6.043451           30.14365           5.200026           28.76237
        1.120000           6.085897           30.30989           5.189775           28.92419
        1.124000           6.133776           30.47563           5.183590           29.08709
        1.128000           6.187088           30.64069           5.181424           29.25083
        1.132000           6.245805           30.80491           5.183179           29.41553
        1.136000           6.309891           30.96796           5.188822           29.58118
        1.140000           6.379328           31.12971           5.198332           29.74751
        1.144000           6.454026           31.28981           5.211617           29.91481
        1.148000           6.533959           31.44802           5.228737           30.08298
        1.152000           6.619040           31.60409           5.249642           30.25187
        1.156000           6.709154           31.75762           5.274293           30.42157
        1.160000           6.804080           31.90838           5.302781           30.59196
        1.164000           6.903689           32.05598           5.335090           30.76298
        1.168000           7.007723           32.20025           5.371233           30.93503
        1.172000           7.115936           32.34083           5.411244           31.10772
        1.176000           7.228005           32.47742           5.455193           31.28092
        1.180000           7.343573           32.60979           5.503128           31.45466
        1.184000           7.462183           32.73776           5.555111           31.62924
        1.188000           7.583493           32.86111           5.611191           31.80424
        1.192000           7.706928           32.97985           5.671502           31.97970
        1.196000           7.832068           33.09384           5.736093           32.15550
        1.200000           7.958375           33.20317           5.805050           32.33169
        1.204000           8.085373           33.30803           5.878469           32.50813
        1.208000           8.212627           33.40847           5.956497           32.68468
        1.212000           8.339684           33.50484           6.039218           32.86103
        1.216000           8.466149           33.59742           6.126770           33.03745
        1.220000           8.591831           33.68671           6.219232           33.21341
        1.224000           8.716418           33.77309           6.316685           33.38887
        1.228000           8.839919           33.85695           6.419328           33.56371
        1.232000           8.962208           33.93860           6.527168           33.73739
        1.236000           9.083408           34.01868           6.640348           33.91001
        1.240000           9.203658           34.09730           6.758938           34.08093
        1.244000           9.323192           34.17487           6.882946           34.25002
        1.248000           9.442198           34.25138           7.012486           34.41698
        1.252000           9.561001           34.32706           7.147517           34.58140
        1.256000           9.679781           34.40187           7.287964           34.74268
        1.260000           9.798774           34.47561           7.433782           34.90044
        1.264000           9.918131           34.54818           7.584795           35.05429
        1.268000           10.03790           34.61934           7.740857           35.20390
        1.272000           10.15804           34.68873           7.901667           35.34848
        1.276000           10.27842           34.75624           8.066811           35.48764
        1.280000           10.39882           34.82153           8.235881           35.62096
        1.284000           10.51885           34.88445           8.408389           35.74807
        1.288000           10.63818           34.94473           8.583681           35.86840
        1.292000           10.75625           35.00251           8.760985           35.98133
        1.296000           10.87249           35.05785           8.939519           36.08732
        1.300000           10.98641           35.11079           9.118382           36.18560
        1.304000           11.09741           35.16196           9.296558           36.27633
        1.308000           11.20505           35.21161           9.473015           36.35970
        1.312000           11.30879           35.26041           9.646815           36.43599
        1.316000           11.40838           35.30905           9.816735           36.50566
        1.320000           11.50360           35.35844           9.981888           36.56966
        1.324000           11.59423           35.40937           10.14127           36.62850
        1.328000           11.68046           35.46272           10.29418           36.68353
        1.332000           11.76245           35.51950           10.43995           36.73598
        1.336000           11.84060           35.58049           10.57816           36.78692
        1.340000           11.91545           35.64672           10.70855           36.83786
        1.344000           11.98768           35.71894           10.83124           36.89059
        1.348000           12.05808           35.79779           10.94649           36.94662
        1.352000           12.12761           35.88384           11.05494           37.00718
        1.356000           12.19740           35.97760           11.15738           37.07388
        1.360000           12.26838           36.07930           11.25481           37.14790
        1.364000           12.34174           36.18898           11.34836           37.23012
        1.368000           12.41855           36.30669           11.43948           37.32159
        1.372000           12.50003           36.43214           11.52967           37.42285
        1.376000           12.58719           36.56509           11.62043           37.53445
        1.380000           12.68103           36.70491           11.71335           37.65643
        1.384000           12.78250           36.85108           11.80988           37.78890
        1.388000           12.89242           37.00288           11.91166           37.93182
        1.392000           13.01149           37.15956           12.02014           38.08458
        1.396000           13.14028           37.32014           12.13667           38.24673
        1.400000           13.27936           37.48376           12.26269           38.41759
        1.404000           13.42904           37.64966           12.39938           38.59652
        1.408000           13.58952           37.81673           12.54780           38.78250
        1.412000           13.76103           37.98411           12.70905           38.97446
        1.416000           13.94360           38.15109           12.88423           39.17157
        1.420000           14.13728           38.31677           13.07406           39.37269
        1.424000           14.34193           38.48031           13.27942           39.57624
        1.428000           14.55752           38.64116           13.50103           39.78138
        1.432000           14.78389           38.79861           13.73951           39.98658
        1.436000           15.02087           38.95199           13.99546           40.19054
        1.440000           15.26857           39.10075           14.26941           40.39142
        1.444000           15.52678           39.24435           14.56166           40.58801
        1.448000           15.79543           39.38236           14.87249           40.77869
        1.452000           16.07466           39.51397           15.20214           40.96157
        1.456000           16.36444           39.63874           15.55065           41.13468
        1.460000           16.66501           39.75569           15.91803           41.29600
        1.464000           16.97631           39.86425           16.30389           41.44380
        1.468000           17.29845           39.96319           16.70781           41.57598
        1.472000           17.63133           40.05161           17.12906           41.69028
        1.476000           17.97487           40.12809           17.56677           41.78400
        1.480000           18.32879           40.19121           18.01968           41.85535
        1.484000           18.69260           40.23962           18.48619           41.90187
        1.488000           19.06550           40.27166           18.96445           41.92145
        1.492000           19.44645           40.28575           19.45207           41.91161
        1.496000           19.83421           40.28020           19.94645           41.87066
        1.500000           20.22695           40.25364           20.44442           41.79667
        1.504000           20.62274           40.20478           20.94259           41.68859
        1.508000           21.01935           40.13221           21.43703           41.54513
        1.512000           21.41400           40.03549           21.92365           41.36583
        1.516000           21.80379           39.91409           22.39788           41.15076
        1.520000           22.18594           39.76808           22.85546           40.90083
        1.524000           22.55698           39.59808           23.29158           40.61758
        1.528000           22.91407           39.40520           23.70187           40.30334
        1.532000           23.25432           39.19104           24.08228           39.96105
        1.536000           23.57476           38.95803           24.42855           39.59470
        1.540000           23.87333           38.70868           24.73813           39.20857
        1.544000           24.14822           38.44627           25.00856           38.80798
        1.548000           24.39795           38.17404           25.23777           38.39831
        1.552000           24.62212           37.89560           25.42571           37.98520
        1.556000           24.82071           37.61478           25.57264           37.57456
        1.560000           24.99443           37.33475           25.67973           37.17174
        1.564000           25.14438           37.05897           25.74929           36.78224
        1.568000           25.27275           36.79036           25.78465           36.41068
        1.572000           25.38169           36.53138           25.78945           36.06127
        1.576000           25.47362           36.28383           25.76820           35.73706
        1.580000           25.55158           36.04911           25.72581           35.44067
        1.584000           25.61833           35.82804           25.66673           35.17366
        1.588000           25.67676           35.62089           25.59663           34.93680
        1.592000           25.72963           35.42730           25.51986           34.72981
        1.596000           25.77942           35.24656           25.44178           34.55164
        1.600000           25.82827           35.07744           25.36594           34.40100
        1.604000           25.87813           34.91858           25.29675           34.27571
        1.608000           25.93052           34.76827           25.23723           34.17276
        1.612000           25.98644           34.62463           25.19032           34.08948
        1.616000           26.04673           34.48557           25.15821           34.02208
        1.620000           26.11160           34.34929           25.14244           33.96753
        1.624000           26.18097           34.21378           25.14433           33.92172
        1.628000           26.25456           34.07710           25.16396           33.88123
        1.632000           26.33145           33.93762           25.20160           33.84249
        1.636000           26.41062           33.79379           25.25611           33.80208
        1.640000           26.49082           33.64427           25.32642           33.75628
        1.644000           26.57028           33.48809           25.41095           33.70252
        1.648000           26.64764           33.32467           25.50763           33.63816
        1.652000           26.72075           33.15358           25.61389           33.56099
        1.656000           26.78792           32.97482           25.72709           33.46901
        1.660000           26.84719           32.78875           25.84415           33.36114
        1.664000           26.89684           32.59612           25.96225           33.23663
        1.668000           26.93542           32.39786           26.07774           33.09493
        1.672000           26.96127           32.19524           26.18807           32.93639
        1.676000           26.97334           31.98972           26.28989           32.76165
        1.680000           26.97083           31.78296           26.38060           32.57185
        1.684000           26.95269           31.57676           26.45726           32.36859
        1.688000           26.91889           31.37276           26.51803           32.15344
        1.692000           26.86919           31.17289           26.56059           31.92891
        1.696000           26.80354           30.97897           26.58346           31.69695
        1.700000           26.72240           30.79267           26.58506           31.46035
        1.704000           26.62625           30.61569           26.56472           31.22156
        1.708000           26.51570           30.44969           26.52157           30.98348
        1.712000           26.39147           30.29614           26.45542           30.74867
        1.716000           26.25445           30.15653           26.36604           30.52009
        1.720000           26.10572           30.03230           26.25405           30.30051
        1.724000           25.94659           29.92485           26.12001           30.09276
        1.728000           25.77826           29.83530           25.96482           29.89939
        1.732000           25.60224           29.76491           25.78994           29.72325
        1.736000           25.42033           29.71495           25.59705           29.56668
        1.740000           25.23416           29.68609           25.38821           29.43185
        1.744000           25.04602           29.67912           25.16585           29.32084
        1.748000           24.85785           29.69464           24.93244           29.23529
        1.752000           24.67206           29.73289           24.69090           29.17668
        1.756000           24.49089           29.79383           24.44426           29.14559
        1.760000           24.31661           29.87718           24.19553           29.14291
        1.764000           24.15184           29.98229           23.94772           29.16850
        1.768000           23.99858           30.10838           23.70402           29.22207
        1.772000           23.85921           30.25409           23.46730           29.30288
        1.776000           23.73566           30.41814           23.24038           29.41009
        1.780000           23.62965           30.59877           23.02576           29.54212
        1.784000           23.54297           30.79412           22.82601           29.69756
        1.788000           23.47686           31.00222           22.64300           29.87441
        1.792000           23.43261           31.22081           22.47876           30.07078
        1.796000           23.41107           31.44766           22.33476           30.28454
        1.800000           23.41272           31.68045           22.21227           30.51321
        1.804000           23.43814           31.91670           22.11245           30.75482
        1.808000           23.48747           32.15414           22.03591           31.00642
        1.812000           23.56034           32.39029           21.98342           31.26606
        1.816000           23.65661           32.62271           21.95510           31.53127
        1.820000           23.77562           32.84940           21.95110           31.79963
        1.824000           23.91647           33.06786           21.97113           32.06879
        1.828000           24.07831           33.27601           22.01484           32.33619
        1.832000           24.25962           33.47193           22.08164           32.59993
        1.836000           24.45912           33.65370           22.17064           32.85760
        1.840000           24.67498           33.81958           22.28067           33.10710
        1.844000           24.90551           33.96804           22.41052           33.34656
        1.848000           25.14877           34.09770           22.55860           33.57412
        1.852000           25.40244           34.20743           22.72310           33.78830
        1.856000           25.66427           34.29622           22.90225           33.98764
        1.860000           25.93192           34.36350           23.09342           34.17079
        1.864000           26.20297           34.40874           23.29476           34.33722
        1.868000           26.47451           34.43193           23.50395           34.48629
        1.872000           26.74427           34.43318           23.71838           34.61809
        1.876000           27.00964           34.41299           23.93553           34.73270
        1.880000           27.26792           34.37230           24.15346           34.83081
        1.884000           27.51664           34.31225           24.36967           34.91338
        1.888000           27.75369           34.23448           24.58250           34.98170
        1.892000           27.97694           34.14081           24.79044           35.03761
        1.896000           28.18469           34.03339           24.99218           35.08268
        1.900000           28.37551           33.91461           25.18708           35.11889
        1.904000           28.54817           33.78706           25.37494           35.14829
        1.908000           28.70224           33.65338           25.55521           35.17274
        1.912000           28.83750           33.51627           25.72902           35.19392
        1.916000           28.95418           33.37841           25.89707           35.21332
        1.920000           29.05281           33.24227           26.06025           35.23194
        1.924000           29.13448           33.11029           26.21983           35.25066
        1.928000           29.20040           32.98450           26.37729           35.26978
        1.932000           29.25220           32.86662           26.53383           35.28915
        1.936000           29.29185           32.75804           26.69052           35.30835
        1.940000           29.32097           32.65982           26.84841           35.32657
        1.944000           29.34160           32.57253           27.00782           35.34280
        1.948000           29.35559           32.49662           27.16917           35.35582
        1.952000           29.36487           32.43192           27.33233           35.36415
        1.956000           29.37071           32.37815           27.49654           35.36686
        1.960000           29.37474           32.33463           27.66091           35.36249
        1.964000           29.37799           32.30069           27.82380           35.35031
        1.968000           29.38121           32.27559           27.98379           35.32974
        1.972000           29.38487           32.25836           28.13882           35.30070
        1.976000           29.38936           32.24823           28.28681           35.26329
        1.980000           29.39478           32.24459           28.42570           35.21842
        1.984000           29.40092           32.24677           28.55352           35.16764
        1.988000           29.40759           32.25457           28.66866           35.11257
        1.992000           29.41458           32.26769           28.76968           35.05527
        1.996000           29.42139           32.28633           28.85556           34.99877
        2.000000           29.42809           32.31055           28.92605           34.94535
        2.004000           29.43434           32.34077           28.98121           34.89837
        2.008000           29.44032           32.37743           29.02167           34.86039
        2.012000           29.44609           32.42088           29.04877           34.83418
        2.016000           29.45202           32.47180           29.06429           34.82238
        2.020000           29.45864           32.53049           29.07037           34.82678
        2.024000           29.46622           32.59721           29.06952           34.84955
        2.028000           29.47549           32.67229           29.06446           34.89130
        2.032000           29.48701           32.75587           29.05792           34.95295
        2.036000           29.50143           32.84809           29.05303           35.03469
        2.040000           29.51924           32.94888           29.05207           35.13629
        2.044000           29.54101           33.05827           29.05801           35.25708
        2.048000           29.56697           33.17611           29.07276           35.39603
        2.052000           29.59774           33.30260           29.09860           35.55201
        2.056000           29.63366           33.43763           29.13718           35.72353
        2.060000           29.67509           33.58141           29.18967           35.90916
        2.064000           29.72237           33.73420           29.25755           36.10727
        2.068000           29.77621           33.89622           29.34147           36.31629
        2.072000           29.83700           34.06782           29.44230           36.53510
        2.076000           29.90574           34.24930           29.56014           36.76208
        2.080000           29.98323           34.44116           29.69600           36.99630
        2.084000           30.07070           34.64352           29.84975           37.23637
        2.088000           30.16927           34.85658           30.02183           37.48170
        2.092000           30.28046           35.08043           30.21276           37.73114
        2.096000           30.40595           35.31491           30.42306           37.98385
        2.100000           30.54734           35.55957           30.65315           38.23904
        2.104000           30.70640           35.81385           30.90365           38.49607
        2.108000           30.88487           36.07683           31.17555           38.75352
        2.112000           31.08461           36.34731           31.46950           39.01036
        2.116000           31.30719           36.62386           31.78630           39.26532
        2.120000           31.55410           36.90475           32.12672           39.51670
        2.124000           31.82704           37.18801           32.49157           39.76304
        2.128000           32.12699           37.47143           32.88131           40.00205
        2.132000           32.45483           37.75262           33.29642           40.23186
        2.136000           32.81161           38.02904           33.73673           40.44980
        2.140000           33.19744           38.29788           34.20286           40.65389
        2.144000           33.61266           38.55648           34.69370           40.84121
        2.148000           34.05705           38.80188           35.20909           41.00941
        2.152000           34.53023           39.03125           35.74771           41.15574
        2.156000           35.03126           39.24166           36.30873           41.27814
        2.160000           35.55919           39.43024           36.88992           41.37372
        2.164000           36.11261           39.59433           37.48985           41.44016
        2.168000           36.68987           39.73127           38.10637           41.47551
        2.172000           37.28900           39.83845           38.73696           41.47771
        2.176000           37.90752           39.91344           39.37836           41.44511
        2.180000           38.54320           39.95428           40.02852           41.37640
        2.184000           39.19309           39.95881           40.68394           41.27015
        2.188000           39.85416           39.92556           41.34122           41.12580
        2.192000           40.52299           39.85308           41.99711           40.94289
        2.196000           41.19627           39.74039           42.64793           40.72144
        2.200000           41.87017           39.58704           43.29023           40.46186
        2.204000           42.54138           39.39296           43.92055           40.16516
        2.208000           43.20607           39.15835           44.53597           39.83263
        2.212000           43.86068           38.88400           45.13309           39.46588
        2.216000           44.50202           38.57122           45.70933           39.06736
        2.220000           45.12662           38.22162           46.26286           38.63936
        2.224000           45.73232           37.83706           46.79134           38.18451
        2.228000           46.31627           37.41956           47.29410           37.70505
        2.232000           46.87680           36.97136           47.76999           37.20377
        2.236000           47.41211           36.49459           48.21869           36.68305
        2.240000           47.92135           35.99135           48.64028           36.14455
        2.244000           48.40303           35.46358           49.03509           35.58997
        2.248000           48.85701           34.91277           49.40326           35.02025
        2.252000           49.28173           34.34021           49.74458           34.43604
        2.256000           49.67665           33.74709           50.05911           33.83753
        2.260000           50.04046           33.13427           50.34573           33.22477
        2.264000           50.37194           32.50267           50.60408           32.59754
        2.268000           50.66907           31.85312           50.83163           31.95580
        2.272000           50.92970           31.18669           51.02621           31.29988
        2.276000           51.15108           30.50494           51.18508           30.63029
        2.280000           51.33068           29.81000           51.30459           29.94860
        2.284000           51.46492           29.10451           51.38128           29.25715
        2.288000           51.55133           28.39204           51.41172           28.55912
        2.292000           51.58700           27.67699           51.39237           27.85863
        2.296000           51.57003           26.96440           51.32038           27.16069
        2.300000           51.49827           26.26017           51.19381           26.47156
        2.304000           51.37166           25.57072           51.01138           25.79787
        2.308000           51.19061           24.90289           50.77337           25.14684
        2.312000           50.95659           24.26362           50.48062           24.52568
        2.316000           50.67228           23.65961           50.13603           23.94174
        2.320000           50.34178           23.09734           49.74316           23.40217
        2.324000           49.97012           22.58260           49.30716           22.91326
        2.328000           49.56324           22.12049           48.83408           22.48055
        2.332000           49.12752           21.71492           48.33031           22.10860
        2.336000           48.67046           21.36895           47.80369           21.80106
        2.340000           48.19908           21.08430           47.26138           21.56029
        2.344000           47.72118           20.86166           46.71182           21.38725
        2.348000           47.24392           20.70075           46.16222           21.28231
        2.352000           46.77444           20.60007           45.62045           21.24440
        2.356000           46.31910           20.55752           45.09361           21.27191
        2.360000           45.88399           20.57006           44.58814           21.36212
        2.364000           45.47432           20.63419           44.11042           21.51204
        2.368000           45.09500           20.74593           43.66534           21.71771
        2.372000           44.74987           20.90094           43.25869           21.97498
        2.376000           44.44202           21.09478           42.89417           22.27986
        2.380000           44.17466           21.32280           42.57560           22.62722
        2.384000           43.94936           21.58057           42.30605           23.01287
        2.388000           43.76781           21.86352           42.08840           23.43155
        2.392000           43.63145           22.16738           41.92494           23.87887
        2.396000           43.54065           22.48794           41.81760           24.34965
        2.400000           43.49596           22.82116           41.76757           24.83925
        2.404000           43.49790           23.16339           41.77631           25.34311
        2.408000           43.54631           23.51101           41.84465           25.85629
        2.412000           43.64054           23.86045           41.97322           26.37408
        2.416000           43.78132           24.20842           42.16225           26.89169
        2.420000           43.96784           24.55158           42.41240           27.40437
        2.424000           44.19986           24.88675           42.72260           27.90740
        2.428000           44.47694           25.21066           43.09344           28.39589
        2.432000           44.79873           25.51993           43.52380           28.86503
        2.436000           45.16459           25.81119           44.01246           29.30969
        2.440000           45.57330           26.08096           44.55853           29.72529
        2.444000           46.02444           26.32553           45.15980           30.10631
        2.448000           46.51622           26.54122           45.81424           30.44796
        2.452000           47.04741           26.72414           46.51951           30.74533
        2.456000           47.61585           26.87050           47.27184           30.99333
        2.460000           48.21893           26.97635           48.06785           31.18745
        2.464000           48.85380           27.03798           48.90313           31.32288
        2.468000           49.51643           27.05182           49.77287           31.39578
        2.472000           50.20382           27.01442           50.67204           31.40239
        2.476000           50.91106           26.92296           51.59432           31.33922
        2.480000           51.63276           26.77492           52.53349           31.20399
        2.484000           52.36428           26.56844           53.48341           30.99482
        2.488000           53.09977           26.30226           54.43638           30.71055
        2.492000           53.83344           25.97586           55.38617           30.35106
        2.496000           54.55996           25.58938           56.32592           29.91676
        2.500000           55.27314           25.14372           57.24867           29.40918
        2.504000           55.96831           24.64047           58.14844           28.83015
        2.508000           56.64015           24.08166           59.01917           28.18283
        2.512000           57.28397           23.46999           59.85565           27.46994
        2.516000           57.89611           22.80847           60.65319           26.69536
        2.520000           58.47302           22.10015           61.40775           25.86278
        2.524000           59.01138           21.34840           62.11546           24.97597
        2.528000           59.50900           20.55652           62.77361           24.03897
        2.532000           59.96325           19.72785           63.37906           23.05555
        2.536000           60.37255           18.86556           63.92966           22.02942
        2.540000           60.73507           17.97255           64.42287           20.96414
        2.544000           61.04947           17.05196           64.85672           19.86341
        2.548000           61.31383           16.10657           65.22921           18.73081
        2.552000           61.52675           15.13941           65.53798           17.56994
        2.556000           61.68741           14.15340           65.78130           16.38486
        2.560000           61.79385           13.15168           65.95764           15.17934
        2.564000           61.84527           12.13719           66.06504           13.95740
        2.568000           61.84034           11.11328           66.10246           12.72346
        2.572000           61.77794           10.08337           66.06820           11.48209
        2.576000           61.65757           9.050936           65.96179           10.23785
        2.580000           61.47846           8.019707           65.78243           8.995760
        2.584000           61.24026           6.993229           65.53004           7.760206
        2.588000           60.94258           5.975260           65.20458           6.536298
        2.592000           60.58543           4.969803           64.80595           5.328980
        2.596000           60.16901           3.980783           64.33548           4.143259
        2.600000           59.69361           3.012335           63.79353           2.984205
        2.604000           59.16000           2.068720           63.18174           1.857105
        2.608000           58.56920           1.154115           62.50127           0.766968
        2.612000           57.92233           0.273040           61.75458          -0.280846
        2.616000           57.22142          -0.569999           60.94487          -1.281031
        2.620000           56.46848          -1.370520           60.07432          -2.228389
        2.624000           55.66644          -2.124030           59.14706          -3.117879
        2.628000           54.81865          -2.826235           58.16801          -3.944646
        2.632000           53.92868          -3.473254           57.14154          -4.704486
        2.636000           53.00130          -4.061360           56.07384          -5.393474
        2.640000           52.04105          -4.587335           54.97046          -6.008385
        2.644000           51.05338          -5.048563           53.83839          -6.546644
        2.648000           50.04368          -5.443000           52.68407          -7.006558
        2.652000           49.01783          -5.769342           51.51407          -7.387193
        2.656000           47.98161          -6.026846           50.33599          -7.688502
        2.660000           46.94052          -6.215609           49.15559          -7.911128
        2.664000           45.90071          -6.336209           47.98015          -8.056477
        2.668000           44.86715          -6.389976           46.81498          -8.126795
        2.672000           43.84528          -6.378661           45.66618          -8.124664
        2.676000           42.83962          -6.304690           44.53892          -8.053317
        2.680000           41.85449          -6.170671           43.43724          -7.916368
        2.684000           40.89369          -5.979629           42.36502          -7.717652
        2.688000           39.96094          -5.734843           41.32598          -7.461193
        2.692000           39.05858          -5.439703           40.32261          -7.151186
        2.696000           38.18947          -5.097733           39.35750          -6.791659
        2.700000           37.35538          -4.712323           38.43149          -6.386790
        2.704000           36.55788          -4.287028           37.54664          -5.940500
        2.708000           35.79817          -3.825241           36.70354          -5.456567
        2.712000           35.07721          -3.330252           35.90273          -4.938696
        2.716000           34.39557          -2.805202           35.14424          -4.390211
        2.720000           33.75344          -2.252922           34.42810          -3.814301
        2.724000           33.15101          -1.676343           33.75414          -3.213923
        2.728000           32.58815          -1.077976           33.12186          -2.591800
        2.732000           32.06471          -0.460297           32.53091          -1.950288
        2.736000           31.58028           0.174452           31.98012          -1.291759
        2.740000           31.13450           0.824175           31.46921          -0.618303
        2.744000           30.72690           1.487207           30.99725           0.068399
        2.748000           30.35693           2.161612           30.56359           0.766644
        2.752000           30.02404           2.845877           30.16736           1.474931
        2.756000           29.72770           3.538539           29.80767           2.191943
        2.760000           29.46753           4.238181           29.48403           2.916397
        2.764000           29.24281           4.943756           29.19564           3.647409
        2.768000           29.05323           5.654035           28.94179           4.383967
        2.772000           28.89831           6.367969           28.72209           5.125197
        2.776000           28.77767           7.084537           28.53573           5.870349
        2.780000           28.69098           7.802837           28.38239           6.618747
        2.784000           28.63790           8.521872           28.26179           7.369675
        2.788000           28.61819           9.240850           28.17343           8.122703
        2.792000           28.63163           9.958930           28.11717           8.877239
        2.796000           28.67814           10.67518           28.09270           9.632681
        2.800000           28.75748           11.38875           28.09996           10.38866
        2.804000           28.86961           12.09869           28.13906           11.14458
        2.808000           29.01429           12.80410           28.20966           11.89994
        2.812000           29.19161           13.50413           28.31233           12.65433
        2.816000           29.40141           14.19773           28.44679           13.40720
        2.820000           29.64372           14.88387           28.61368           14.15791
        2.824000           29.91832           15.56153           28.81306           14.90596
        2.828000           30.22505           16.22951           29.04512           15.65044
        2.832000           30.56388           16.88683           29.31068           16.39103
        2.836000           30.93460           17.53225           29.60975           17.12665
        2.840000           31.33677           18.16459           29.94312           17.85654
        2.844000           31.77032           18.78266           30.31117           18.57973
        2.848000           32.23457           19.38537           30.71446           19.29521
        2.852000           32.72920           19.97137           31.15350           20.00169
        2.856000           33.25370           20.53977           31.62881           20.69812
        2.860000           33.80745           21.08938           32.14090           21.38307
        2.864000           34.38989           21.61916           32.69031           22.05508
        2.868000           35.00041           22.12827           33.27760           22.71250
        2.872000           35.63841           22.61576           33.90286           23.35365
        2.876000           36.30322           23.08076           34.56675           23.97684
        2.880000           36.99443           23.52275           35.26953           24.58002
        2.884000           37.71151           23.94080           36.01127           25.16124
        2.888000           38.45432           24.33431           36.79226           25.71843
        2.892000           39.22240           24.70246           37.61201           26.24929
        2.896000           40.01567           25.04457           38.47093           26.75163
        2.900000           40.83421           25.35969           39.36887           27.22297
        2.904000           41.67834           25.64680           40.30502           27.66086
        2.908000           42.54804           25.90463           41.27957           28.06277
        2.912000           43.44357           26.13168           42.29162           28.42619
        2.916000           44.36527           26.32628           43.34089           28.74787
        2.920000           45.31315           26.48635           44.42639           29.02512
        2.924000           46.28751           26.60953           45.54713           29.25469
        2.928000           47.28828           26.69317           46.70237           29.43332
        2.932000           48.31504           26.73414           47.89013           29.55730
        2.936000           49.36701           26.72925           49.10923           29.62296
        2.940000           50.44309           26.67478           50.35696           29.62614
        2.944000           51.54193           26.56694           51.63113           29.56294
        2.948000           52.66107           26.40171           52.92831           29.42889
        2.952000           53.79786           26.17497           54.24426           29.22008
        2.956000           54.94862           25.88278           55.57459           28.93200
        2.960000           56.10902           25.52118           56.91376           28.56102
        2.964000           57.27383           25.08672           58.25546           28.10368
        2.968000           58.43755           24.57619           59.59284           27.55700
        2.972000           59.59370           23.98715           60.91768           26.91886
        2.976000           60.73479           23.31792           62.22216           26.18822
        2.980000           61.85354           22.56770           63.49697           25.36484
        2.984000           62.94184           21.73670           64.73351           24.44974
        2.988000           63.99139           20.82636           65.92241           23.44529
        2.992000           64.99438           19.83882           67.05486           22.35501
        2.996000           65.94298           18.77780           68.12242           21.18363
        3.000000           66.82989           17.64785           69.11711           19.93719
        3.004000           67.64803           16.45461           70.03206           18.62249
        3.008000           68.39149           15.20460           70.86082           17.24765
        3.012000           69.05523           13.90472           71.59861           15.82069
        3.016000           69.63483           12.56279           72.24136           14.35066
        3.020000           70.12737           11.18685           72.78661           12.84668
        3.024000           70.53047           9.785199           73.23270           11.31799
        3.028000           70.84281           8.366255           73.57932           9.773713
        3.032000           71.06425           6.938451           73.82644           8.222919
        3.036000           71.19572           5.509703           73.97582           6.673888
        3.040000           71.23833           4.088135           74.02935           5.135013
        3.044000           71.19481           2.681329           73.99004           3.614137
        3.048000           71.06811           1.296503           73.86187           2.118552
        3.052000           70.86205          -0.059699           73.64847           0.655140
        3.056000           70.58142          -1.380973           73.35527          -0.769704
        3.060000           70.23103          -2.662142           72.98750          -2.150630
        3.064000           69.81666          -3.898346           72.55070          -3.482508
        3.068000           69.34408          -5.085620           72.05124          -4.761039
        3.072000           68.81969          -6.220759           71.49626          -5.982849
        3.076000           68.24992          -7.301482           70.89228          -7.145168
        3.080000           67.64102          -8.326396           70.24660          -8.246467
        3.084000           66.99931          -9.294821           69.56516          -9.285907
        3.088000           66.33090          -10.20685           68.85639          -10.26331
        3.092000           65.64166          -11.06334           68.12514          -11.17977
        3.096000           64.93694          -11.86573           67.37864          -12.03677
        3.100000           64.22174          -12.61600           66.62270          -12.83662
        3.104000           63.50011          -13.31671           65.86176          -13.58251
        3.108000           62.77639          -13.97073           65.10021          -14.27776
        3.112000           62.05344          -14.58109           64.34254          -14.92625
        3.116000           61.33419          -15.15113           63.59073          -15.53207
        3.120000           60.62054          -15.68425           62.84775          -16.09934
        3.124000           59.91414          -16.18404           62.11452          -16.63252
        3.128000           59.21576          -16.65372           61.39180          -17.13557
        3.132000           58.52616          -17.09672           60.68003          -17.61241
        3.136000           57.84499          -17.51605           59.97812          -18.06674
        3.140000           57.17172          -17.91460           59.28560          -18.50157
        3.144000           56.50576          -18.29488           58.60090          -18.91975
        3.148000           55.84526          -18.65908           57.92180          -19.32370
        3.152000           55.18913          -19.00897           57.24637          -19.71517
        3.156000           54.53505          -19.34591           56.57241          -20.09537
        3.160000           53.88134          -19.67058           55.89742          -20.46508
        3.164000           53.22589          -19.98326           55.21909          -20.82437
        3.168000           52.56662          -20.28376           54.53460          -21.17286
        3.172000           51.90171          -20.57127           53.84249          -21.50959
        3.176000           51.22935          -20.84452           53.14006          -21.83314
        3.180000           50.54834          -21.10173           52.42582          -22.14152
        3.184000           49.85774          -21.34089           51.69898          -22.43236
        3.188000           49.15725          -21.55954           50.95852          -22.70293
        3.192000           48.44704          -21.75522           50.20435          -22.95038
        3.196000           47.72771          -21.92521           49.43697          -23.17167
        3.200000           47.00071          -22.06703           48.65733          -23.36367
        3.204000           46.26785          -22.17828           47.86750          -23.52356
        3.208000           45.53164          -22.25693           47.06957          -23.64868
        3.212000           44.79509          -22.30134           46.26665          -23.73680
        3.216000           44.06120          -22.31043           45.46181          -23.78596
        3.220000           43.33357          -22.28354           44.65870          -23.79502
        3.224000           42.61580          -22.22060           43.86152          -23.76323
        3.228000           41.91132          -22.12224           43.07398          -23.69053
        3.232000           41.22401          -21.98957           42.30040          -23.57744
        3.236000           40.55705          -21.82424           41.54441          -23.42505
        3.240000           39.91344          -21.62841           40.80999          -23.23503
        3.244000           39.29602          -21.40458           40.10054          -23.00954
        3.248000           38.70703          -21.15571           39.41906          -22.75116
        3.252000           38.14837          -20.88493           38.76844          -22.46279
        3.256000           37.62167          -20.59568           38.15116          -22.14769
        3.260000           37.12774          -20.29126           37.56900          -21.80926
        3.264000           36.66699          -19.97534           37.02349          -21.45113
        3.268000           36.23972          -19.65147           36.51564          -21.07706
        3.272000           35.84528          -19.32292           36.04610          -20.69076
        3.276000           35.48297          -18.99307           35.61540          -20.29608
        3.280000           35.15155          -18.66505           35.22285          -19.89672
        3.284000           34.84945          -18.34161           34.86816          -19.49638
        3.288000           34.57474          -18.02531           34.55018          -19.09860
        3.292000           34.32534          -17.71838           34.26774          -18.70684
        3.296000           34.09881          -17.42282           34.01873          -18.32432
        3.300000           33.89261          -17.14000           33.80129          -17.95404
        3.304000           33.70425          -16.87111           33.61297          -17.59888
        3.308000           33.53083          -16.61687           33.45084          -17.26111
        3.312000           33.36979          -16.37757           33.31168          -16.94284
        3.316000           33.21850          -16.15322           33.19265          -16.64568
        3.320000           33.07447          -15.94329           33.08973          -16.37079
        3.324000           32.93525          -15.74708           32.99938          -16.11881
        3.328000           32.79890          -15.56357           32.91793          -15.88974
        3.332000           32.66341          -15.39129           32.84152          -15.68312
        3.336000           32.52730          -15.22858           32.76706          -15.49781
        3.340000           32.38937          -15.07376           32.69100          -15.33214
        3.344000           32.24870          -14.92488           32.61023          -15.18392
        3.348000           32.10489          -14.77996           32.52299          -15.05055
        3.352000           31.95777          -14.63693           32.42691          -14.92901
        3.356000           31.80769          -14.49393           32.32079          -14.81616
        3.360000           31.65536          -14.34926           32.20444          -14.70864
        3.364000           31.50178          -14.20116           32.07778          -14.60323
        3.368000           31.34826          -14.04843           31.94136          -14.49679
        3.372000           31.19634          -13.89016           31.79669          -14.38656
        3.376000           31.04770          -13.72564           31.64581          -14.27019
        3.380000           30.90424          -13.55466           31.49061          -14.14580
        3.384000           30.76766          -13.37744           31.33379          -14.01212
        3.388000           30.63973          -13.19450           31.17777          -13.86828
        3.392000           30.52207          -13.00683           31.02554          -13.71425
        3.396000           30.41591          -12.81556           30.87938          -13.55032
        3.400000           30.32248          -12.62229           30.74176          -13.37743
        3.404000           30.24243          -12.42855           30.61471          -13.19684
        3.408000           30.17619          -12.23625           30.50013          -13.01031
        3.412000           30.12389          -12.04723           30.39911          -12.81985
        3.416000           30.08522          -11.86323           30.31274          -12.62753
        3.420000           30.05958          -11.68603           30.24131          -12.43562
        3.424000           30.04611          -11.51715           30.18496          -12.24630
        3.428000           30.04366          -11.35800           30.14325          -12.06182
        3.432000           30.05087          -11.20961           30.11528          -11.88409
        3.436000           30.06620          -11.07287           30.09994          -11.71496
        3.440000           30.08826          -10.94817           30.09561          -11.55569
        3.444000           30.11542          -10.83586           30.10091          -11.40754
        3.448000           30.14634          -10.73579           30.11385          -11.27107
        3.452000           30.17956          -10.64772           30.13290          -11.14663
        3.456000           30.21410          -10.57112           30.15630          -11.03413
        3.460000           30.24906          -10.50543           30.18231          -10.93322
        3.464000           30.28363          -10.44982           30.20999          -10.84316
        3.468000           30.31754          -10.40375           30.23816          -10.76299
        3.472000           30.35042          -10.36646           30.26641          -10.69182
        3.476000           30.38245          -10.33747           30.29411          -10.62857
        3.480000           30.41372          -10.31648           30.32173          -10.57224
        3.484000           30.44443          -10.30332           30.34956          -10.52214
        3.488000           30.47493          -10.29817           30.37831          -10.47783
        3.492000           30.50548          -10.30137           30.40891          -10.43912
        3.496000           30.53614          -10.31352           30.44230          -10.40642
        3.500000           30.56679          -10.33542           30.47951          -10.38029
        3.504000           30.59737          -10.36803           30.52088          -10.36191
        3.508000           30.62710          -10.41237           30.56726          -10.35288
        3.512000           30.65516          -10.46961           30.61862          -10.35486
        3.516000           30.68047          -10.54071           30.67465          -10.36995
        3.520000           30.70128          -10.62664           30.73482          -10.40039
        3.524000           30.71590          -10.72822           30.79742          -10.44832
        3.528000           30.72217          -10.84583           30.86051          -10.51579
        3.532000           30.71769          -10.97978           30.92172          -10.60476
        3.536000           30.69994          -11.12977           30.97772          -10.71662
        3.540000           30.66621          -11.29528           31.02513          -10.85231
        3.544000           30.61380          -11.47513           31.05986          -11.01210
        3.548000           30.53995          -11.66783           31.07772          -11.19566
        3.552000           30.44213          -11.87123           31.07459          -11.40164
        3.556000           30.31799          -12.08284           31.04612          -11.62819
        3.560000           30.16556          -12.29961           30.98831          -11.87225
        3.564000           29.98314          -12.51805           30.89788          -12.13026
        3.568000           29.76979          -12.73443           30.77182          -12.39789
        3.572000           29.52505          -12.94472           30.60764          -12.67018
        3.576000           29.24895          -13.14489           30.40440          -12.94192
        3.580000           28.94241          -13.33078           30.16194          -13.20751
        3.584000           28.60680          -13.49844           29.88027          -13.46159
        3.588000           28.24422          -13.64414           29.56091          -13.69874
        3.592000           27.85728          -13.76457           29.20660          -13.91392
        3.596000           27.44911          -13.85686           28.82021          -14.10276
        3.600000           27.02300          -13.91863           28.40515          -14.26147
        3.604000           26.58264          -13.94814           27.96597          -14.38683
        3.608000           26.13178          -13.94425           27.50667          -14.47663
        3.612000           25.67414          -13.90631           27.03228          -14.52911
        3.616000           25.21342          -13.83417           26.54667          -14.54346
        3.620000           24.75315          -13.72828           26.05505          -14.51949
        3.624000           24.29662          -13.58942           25.56093          -14.45748
        3.628000           23.84667          -13.41872           25.06836          -14.35840
        3.632000           23.40623          -13.21765           24.58125          -14.22353
        3.636000           22.97741          -12.98780           24.10239          -14.05445
        3.640000           22.56242          -12.73100           23.63437          -13.85308
        3.644000           22.16284          -12.44900           23.17981          -13.62138
        3.648000           21.78012          -12.14382           22.74050          -13.36148
        3.652000           21.41546          -11.81724           22.31829          -13.07552
        3.656000           21.06975          -11.47119           21.91436          -12.76569
        3.660000           20.74366          -11.10749           21.52963          -12.43402
        3.664000           20.43768          -10.72776           21.16504          -12.08253
        3.668000           20.15222          -10.33374           20.82103          -11.71310
        3.672000           19.88741          -9.926765           20.49788          -11.32758
        3.676000           19.64339          -9.508389           20.19583          -10.92760
        3.680000           19.42018          -9.079895           19.91506          -10.51469
        3.684000           19.21777          -8.642533           19.65559          -10.09040
        3.688000           19.03604          -8.197344           19.41723          -9.655856
        3.692000           18.87488          -7.745335           19.19987          -9.212401
        3.696000           18.73415          -7.287512           19.00336          -8.761019
        3.700000           18.61368          -6.824759           18.82749          -8.302797
        3.704000           18.51338          -6.357817           18.67201          -7.838533
        3.708000           18.43306          -5.887501           18.53686          -7.369202
        3.712000           18.37266          -5.414456           18.42177          -6.895342
        3.716000           18.33201          -4.939359           18.32640          -6.417771
        3.720000           18.31103          -4.462852           18.25069          -5.937027
        3.724000           18.30975          -3.985543           18.19469          -5.453781
        3.728000           18.32805          -3.508063           18.15802          -4.968548
        3.732000           18.36593          -3.030899           18.14085          -4.481790
        3.736000           18.42343          -2.554774           18.14305          -3.994017
        3.740000           18.50060          -2.080186           18.16457          -3.505747
        3.744000           18.59748          -1.607852           18.20567          -3.017433
        3.748000           18.71417          -1.138349           18.26623          -2.529564
        3.752000           18.85071          -0.672428           18.34649          -2.042718
        3.756000           19.00727          -0.210750           18.44667          -1.557224
        3.760000           19.18385           0.245930           18.56675          -1.073793
        3.764000           19.38063           0.696814           18.70728          -0.592935
        3.768000           19.59764           1.141008           18.86832          -0.115337
        3.772000           19.83496           1.577617           19.05018           0.358305
        3.776000           20.09258           2.005661           19.25319           0.827203
        3.780000           20.37052           2.424155           19.47788           1.290641
        3.784000           20.66875           2.832062           19.72438           1.747609
        3.788000           20.98712           3.228167           19.99309           2.197031
        3.792000           21.32539           3.611331           20.28425           2.637857
        3.796000           21.68341           3.980310           20.59827           3.068822
        3.800000           22.06085           4.333829           20.93530           3.488546
        3.804000           22.45730           4.670582           21.29567           3.895607
        3.808000           22.87214           4.989098           21.67926           4.288234
        3.812000           23.30482           5.288083           22.08628           4.664829
        3.816000           23.75456           5.565965           22.51632           5.023289
        3.820000           24.22043           5.821316           22.96901           5.361566
        3.824000           24.70142           6.052624           23.44414           5.677716
        3.828000           25.19631           6.258381           23.94065           5.969318
        3.832000           25.70365           6.437036           24.45759           6.233978
        3.836000           26.22178           6.587140           24.99345           6.469355
        3.840000           26.74885           6.707222           25.54672           6.672834
        3.844000           27.28257           6.795957           26.11468           6.842119
        3.848000           27.82072           6.852185           26.69556           6.974912
        3.852000           28.36064           6.874838           27.28571           7.069068
        3.856000           28.89924           6.863212           27.88206           7.122727
        3.860000           29.43344           6.816838           28.48064           7.134239
        3.864000           29.95965           6.735693           29.07691           7.102507
        3.868000           30.47449           6.620117           29.66666           7.027144
        3.872000           30.97425           6.470972           30.24464           6.907922
        3.876000           31.45515           6.289703           30.80598           6.745799
        3.880000           31.91359           6.078256           31.34531           6.542290
        3.884000           32.34608           5.839260           31.85728           6.299867
        3.888000           32.74930           5.575900           32.33733           6.021720
        3.892000           33.12063           5.291831           32.78053           5.712095
        3.896000           33.45775           4.991370           33.18361           5.375733
        3.900000           33.75901           4.679122           33.54269           5.018417
        3.904000           34.02342           4.360092           33.85584           4.646371
        3.908000           34.25089           4.039498           34.12107           4.266293
        3.912000           34.44213           3.722468           34.33888           3.884888
        3.916000           34.59864           3.414110           34.50978           3.509113
        3.920000           34.72278           3.119306           34.63605           3.145730
        3.924000           34.81766           2.842409           34.72072           2.800971
        3.928000           34.88709           2.587308           34.76750           2.480567
        3.932000           34.93538           2.357128           34.78116           2.189415
        3.936000           34.96741           2.154335           34.76806           1.931569
        3.940000           34.98820           1.980523           34.73346           1.710078
        3.944000           35.00297           1.836413           34.68410           1.527111
        3.948000           35.01685           1.722035           34.62622           1.383700
        3.952000           35.03492           1.636528           34.56633           1.279968
        3.956000           35.06199           1.578311           34.51051           1.215128
        3.960000           35.10239           1.545210           34.46484           1.187512
        3.964000           35.16010           1.534449           34.43473           1.194775
        3.968000           35.23861           1.542760           34.42547           1.233880
        3.972000           35.34075           1.566592           34.44117           1.301249
        3.976000           35.46896           1.601988           34.48616           1.392839
        3.980000           35.62504           1.644914           34.56351           1.504285
        3.984000           35.81006           1.691113           34.67609           1.630862
        3.988000           36.02497           1.736369           34.82627           1.767636
        3.992000           36.26973           1.776360           35.01539           1.909515
        3.996000           36.54410           1.807012           35.24483           2.051238
        4.000000           36.84713           1.824132           35.51434           2.187494
# 
# 01/07/2025 at 16:03 yambo @ unimi-XPS-8930 [start]
# 01/07/2025 at 16:04                        [end]
#  
# Timing   [Min/Max/Average]: 08s/08s/08s
#
# .-Input file  yambo.in
# | optics                           # [R] Linear Response optical properties
# | bss                              # [R] BSE solver
# | bse                              # [R][BSE] Bethe Salpeter Equation.
# | tddft                            # [R][K] Use TDDFT kernel
# | ElecTemp= 0.025861         eV    # Electronic Temperature
# | BoseTemp= 0.025861         eV    # Bosonic Temperature
# | #DegFix                        # Force the code to impose the energy levels to respect their degeneracy
# | FFTGvecs=  603             RL    # [FFT] Plane-waves
# | BS_nCPU_LinAlg_INV= 1            # [PARALLEL] CPUs for Linear Algebra (if -1 it is automatically set)
# | BS_nCPU_LinAlg_DIAGO= 1          # [PARALLEL] CPUs for Linear Algebra (if -1 it is automatically set)
# | X_Threads= 1                     # [OPENMP/X] Number of threads for response functions
# | DIP_Threads= 1                   # [OPENMP/X] Number of threads for dipoles
# | K_Threads= 1                     # [OPENMP/BSK] Number of threads for response functions
# | BSKmod= "ALDA"                   # [BSE] IP/Hartree/HF/ALDA/SEX/BSfxc
# | BSEmod= "resonant"               # [BSE] resonant/retarded/coupling
# | BSSmod= "d"                      # [BSS] (h)aydock/(d)iagonalization/(s)lepc/(i)nversion/(t)ddft`
# | DipComputed= "R V P [G-space]  M_spin" # [DIP] [default R P V; extra P2 Spin Orb]
# | BSENGexx= 1                RL    # [BSK] Exchange components
# | BSENGfxc= 1157             RL    # [BSK] Fxc components
# | % BSEQptR
# |  1 | 2 |                             # [BSK] Transferred momenta range
# | %
# | % BSEBands
# |   2 |  6 |                           # [BSK] Bands range
# | %
# | % BEnRange
# | -2.000000 | 4.000000 |         eV    # [BSS] Energy range
# | %
# | % BDmRange
# |  0.100000 | 0.100000 |         eV    # [BSS] Damping range
# | %
# | BEnSteps= 1501                   # [BSS] Energy steps
# | % BLongDir
# |  0.000000 | 1.000000 | 0.000000 |        # [BSS] [cc] Electric Field versor
# | %
# | BSEprop= " jdos magn"            # [BSS] Can be any among abs/jdos/kerr/asymm/anHAll/magn/dich/photolum/esrt
# | BSEdips= "none"                  # [BSS] Can be "trace/none" or "xy/xz/yz" to define off-diagonal rotation plane
# | #WRbsWF                        # [BSS] Write to disk excitonic the WFs
