#                                                                     
# :   :::   :::     ::::    ::::  :::::::::   ::::::::                
# :+:   :+: :+: :+:   +:+:+: :+:+:+ :+:    :+: :+:    :+              
#  +:+ +:+ +:+   +:+  +:+ +:+:+ +:+ +:+    +:+ +:+    +:+             
#   +#++: +#++:++#++: +#+  +:+  +#+ +#++:++#+  +#+    +:+             
#    +#+  +#+     +#+ +#+       +#+ +#+    +#+ +#+    +#+             
#    #+#  #+#     #+# #+#       #+# #+#    #+# #+#    #+#             
#    ###  ###     ### ###       ### #########   ########              
#                                                                     
#                                                                     
# Version 5.2.0 Revision 22885 Hash (prev commit) 41fc9d87d4          
#                Branch is phys-dichroism                             
#         MPI+OpenMP+SLK+SLEPC+HDF5_MPI_IO Build                      
#                http://www.yambo-code.org                            
#
# Joint Density of states @ Q(2):   0.00000000      0.00000000    -0.500000000    [iku]
#
# [GEN] GF Energies                               : Perdew, Burke & Ernzerhof(X)+Perdew, Burke & Ernzerhof(C)
# [GEN] Green`s Function                          : Resonant
#
# DIP band range                                  :   2   6
# DIP band range limits                           :   6   2
# DIP e/h energy range                            :  -1.00000000     -1.00000000    [eV]
# RL vectors in the sum                           :   603
# [r,Vnl] included                                : yes
# Bands ordered                                   : yes
# Direct v evaluation                             : no
# Approach used                                   : G-space v
# Dipoles computed                                : R V P
# Wavefunctions                                   : Perdew, Burke & Ernzerhof(X)+Perdew, Burke & Ernzerhof(C)
#
#
# [K] Identifier                                  :   4841
# [K] Q-point                                     :   0.00000000      0.00000000    -0.500000000   
# [K] Dimension                                   :   748
# [K] Bands                                       :   2   6
# [K] Exchange res                                : yes
# [K] Correlation res                             : no
# [K] Kernel`s coupling                           : no
# [K] Exchange cpl                                : no
# [K] Correlation cpl                             : no
# [K] W interaction is bare                       : no
# [K] ALDA kernel in R-space                      : yes
# [K] RL vectors exchange                         :  1157
# [K] E/h energy range                            :  -1.00000000     -1.00000000    [eV]
# [K] Coupling range                              :   100.000000      100.000000    [o/o]
# [X] Response Kind                               : BAR
#
#
#    E[1] [eV]          Im(jdos)           Re(jdos)           Im(jdos_o)         Re(jdos_o)
#
       -2.000000           0.267528           10.84454           0.266692           10.82956
       -1.996000           0.268121           10.85524           0.267281           10.84023
       -1.992000           0.268715           10.86596           0.267873           10.85091
       -1.988000           0.269311           10.87671           0.268466           10.86161
       -1.984000           0.269910           10.88747           0.269062           10.87234
       -1.980000           0.270511           10.89826           0.269660           10.88309
       -1.976000           0.271115           10.90908           0.270261           10.89388
       -1.972000           0.271720           10.91992           0.270864           10.90468
       -1.968000           0.272327           10.93077           0.271468           10.91551
       -1.964000           0.272937           10.94166           0.272075           10.92635
       -1.960000           0.273550           10.95256           0.272684           10.93726
       -1.956000           0.274164           10.96351           0.273296           10.94814
       -1.952000           0.274781           10.97446           0.273910           10.95906
       -1.948000           0.275400           10.98545           0.274525           10.97000
       -1.944000           0.276021           10.99646           0.275144           10.98099
       -1.940000           0.276645           11.00749           0.275765           10.99201
       -1.936000           0.277271           11.01855           0.276387           11.00302
       -1.932000           0.277900           11.02964           0.277013           11.01407
       -1.928000           0.278530           11.04075           0.277640           11.02512
       -1.924000           0.279163           11.05188           0.278271           11.03623
       -1.920000           0.279799           11.06304           0.278903           11.04737
       -1.916000           0.280437           11.07422           0.279538           11.05851
       -1.912000           0.281077           11.08543           0.280174           11.06965
       -1.908000           0.281720           11.09667           0.280814           11.08086
       -1.904000           0.282365           11.10793           0.281456           11.09210
       -1.900000           0.283012           11.11922           0.282101           11.10337
       -1.896000           0.283663           11.13053           0.282747           11.11465
       -1.892000           0.284315           11.14186           0.283398           11.12593
       -1.888000           0.284971           11.15323           0.284049           11.13726
       -1.884000           0.285628           11.16462           0.284703           11.14862
       -1.880000           0.286288           11.17605           0.285360           11.16000
       -1.876000           0.286951           11.18748           0.286019           11.17141
       -1.872000           0.287616           11.19895           0.286681           11.18281
       -1.868000           0.288284           11.21045           0.287345           11.19427
       -1.864000           0.288954           11.22197           0.288013           11.20577
       -1.860000           0.289627           11.23351           0.288683           11.21731
       -1.856000           0.290302           11.24510           0.289354           11.22884
       -1.852000           0.290980           11.25671           0.290029           11.24043
       -1.848000           0.291661           11.26833           0.290707           11.25198
       -1.844000           0.292345           11.28000           0.291387           11.26361
       -1.840000           0.293031           11.29167           0.292069           11.27526
       -1.836000           0.293720           11.30338           0.292754           11.28693
       -1.832000           0.294411           11.31514           0.293443           11.29865
       -1.828000           0.295105           11.32689           0.294133           11.31036
       -1.824000           0.295802           11.33870           0.294827           11.32212
       -1.820000           0.296502           11.35051           0.295523           11.33389
       -1.816000           0.297204           11.36238           0.296222           11.34569
       -1.812000           0.297909           11.37424           0.296924           11.35754
       -1.808000           0.298618           11.38617           0.297628           11.36942
       -1.804000           0.299328           11.39808           0.298336           11.38132
       -1.800000           0.300042           11.41005           0.299045           11.39323
       -1.796000           0.300758           11.42205           0.299759           11.40519
       -1.792000           0.301478           11.43407           0.300474           11.41717
       -1.788000           0.302200           11.44611           0.301192           11.42918
       -1.784000           0.302925           11.45819           0.301914           11.44122
       -1.780000           0.303653           11.47030           0.302638           11.45329
       -1.776000           0.304384           11.48243           0.303365           11.46538
       -1.772000           0.305118           11.49460           0.304095           11.47750
       -1.768000           0.305854           11.50680           0.304828           11.48966
       -1.764000           0.306594           11.51901           0.305564           11.50186
       -1.760000           0.307337           11.53127           0.306304           11.51405
       -1.756000           0.308083           11.54355           0.307045           11.52630
       -1.752000           0.308832           11.55587           0.307790           11.53857
       -1.748000           0.309583           11.56821           0.308539           11.55086
       -1.744000           0.310338           11.58058           0.309289           11.56322
       -1.740000           0.311096           11.59298           0.310044           11.57555
       -1.736000           0.311857           11.60542           0.310801           11.58795
       -1.732000           0.312622           11.61789           0.311561           11.60037
       -1.728000           0.313389           11.63037           0.312324           11.61282
       -1.724000           0.314159           11.64290           0.313091           11.62530
       -1.720000           0.314933           11.65546           0.313860           11.63781
       -1.716000           0.315710           11.66805           0.314634           11.65035
       -1.712000           0.316490           11.68066           0.315409           11.66293
       -1.708000           0.317274           11.69330           0.316189           11.67550
       -1.704000           0.318060           11.70600           0.316971           11.68816
       -1.700000           0.318850           11.71870           0.317756           11.70083
       -1.696000           0.319643           11.73144           0.318546           11.71354
       -1.692000           0.320439           11.74422           0.319339           11.72628
       -1.688000           0.321239           11.75702           0.320134           11.73902
       -1.684000           0.322043           11.76987           0.320934           11.75182
       -1.680000           0.322849           11.78272           0.321736           11.76465
       -1.676000           0.323659           11.79563           0.322541           11.77754
       -1.672000           0.324472           11.80856           0.323350           11.79041
       -1.668000           0.325289           11.82153           0.324163           11.80332
       -1.664000           0.326109           11.83453           0.324978           11.81629
       -1.660000           0.326933           11.84756           0.325798           11.82929
       -1.656000           0.327760           11.86063           0.326620           11.84227
       -1.652000           0.328591           11.87372           0.327448           11.85534
       -1.648000           0.329425           11.88686           0.328277           11.86842
       -1.644000           0.330263           11.90002           0.329110           11.88152
       -1.640000           0.331104           11.91321           0.329947           11.89469
       -1.636000           0.331949           11.92644           0.330787           11.90786
       -1.632000           0.332798           11.93971           0.331632           11.92110
       -1.628000           0.333650           11.95301           0.332479           11.93436
       -1.624000           0.334506           11.96634           0.333331           11.94764
       -1.620000           0.335366           11.97970           0.334187           11.96097
       -1.616000           0.336229           11.99312           0.335046           11.97431
       -1.612000           0.337097           12.00655           0.335908           11.98768
       -1.608000           0.337967           12.02000           0.336774           12.00113
       -1.604000           0.338842           12.03352           0.337644           12.01458
       -1.600000           0.339721           12.04707           0.338518           12.02806
       -1.596000           0.340603           12.06062           0.339396           12.04160
       -1.592000           0.341489           12.07424           0.340277           12.05515
       -1.588000           0.342379           12.08788           0.341163           12.06873
       -1.584000           0.343274           12.10158           0.342052           12.08239
       -1.580000           0.344172           12.11527           0.342945           12.09603
       -1.576000           0.345074           12.12903           0.343842           12.10976
       -1.572000           0.345979           12.14284           0.344743           12.12350
       -1.568000           0.346890           12.15665           0.345648           12.13726
       -1.564000           0.347804           12.17051           0.346557           12.15108
       -1.560000           0.348722           12.18441           0.347471           12.16492
       -1.556000           0.349645           12.19833           0.348388           12.17880
       -1.552000           0.350571           12.21230           0.349309           12.19272
       -1.548000           0.351501           12.22631           0.350235           12.20666
       -1.544000           0.352436           12.24036           0.351164           12.22068
       -1.540000           0.353375           12.25443           0.352099           12.23470
       -1.536000           0.354318           12.26855           0.353036           12.24878
       -1.532000           0.355265           12.28271           0.353979           12.26287
       -1.528000           0.356217           12.29689           0.354926           12.27703
       -1.524000           0.357173           12.31113           0.355877           12.29121
       -1.520000           0.358134           12.32540           0.356831           12.30542
       -1.516000           0.359099           12.33970           0.357792           12.31968
       -1.512000           0.360068           12.35406           0.358756           12.33397
       -1.508000           0.361042           12.36845           0.359723           12.34829
       -1.504000           0.362020           12.38287           0.360696           12.36264
       -1.500000           0.363002           12.39734           0.361674           12.37710
       -1.496000           0.363989           12.41183           0.362655           12.39152
       -1.492000           0.364981           12.42637           0.363642           12.40599
       -1.488000           0.365978           12.44095           0.364633           12.42056
       -1.484000           0.366979           12.45556           0.365628           12.43510
       -1.480000           0.367985           12.47022           0.366629           12.44973
       -1.476000           0.368995           12.48493           0.367633           12.46437
       -1.472000           0.370010           12.49967           0.368642           12.47904
       -1.468000           0.371030           12.51445           0.369656           12.49375
       -1.464000           0.372054           12.52927           0.370675           12.50856
       -1.460000           0.373084           12.54413           0.371699           12.52333
       -1.456000           0.374118           12.55904           0.372727           12.53819
       -1.452000           0.375157           12.57399           0.373760           12.55310
       -1.448000           0.376201           12.58898           0.374799           12.56803
       -1.444000           0.377250           12.60400           0.375842           12.58297
       -1.440000           0.378304           12.61906           0.376891           12.59802
       -1.436000           0.379363           12.63417           0.377943           12.61305
       -1.432000           0.380427           12.64933           0.379002           12.62815
       -1.428000           0.381496           12.66453           0.380065           12.64329
       -1.424000           0.382572           12.67977           0.381133           12.65848
       -1.420000           0.383651           12.69505           0.382207           12.67366
       -1.416000           0.384736           12.71037           0.383285           12.68896
       -1.412000           0.385825           12.72574           0.384370           12.70426
       -1.408000           0.386920           12.74114           0.385458           12.71962
       -1.404000           0.388021           12.75661           0.386554           12.73503
       -1.400000           0.389127           12.77210           0.387653           12.75046
       -1.396000           0.390238           12.78764           0.388757           12.76594
       -1.392000           0.391356           12.80324           0.389868           12.78148
       -1.388000           0.392478           12.81886           0.390983           12.79703
       -1.384000           0.393606           12.83454           0.392105           12.81267
       -1.380000           0.394739           12.85026           0.393233           12.82830
       -1.376000           0.395878           12.86602           0.394365           12.84403
       -1.372000           0.397023           12.88182           0.395504           12.85975
       -1.368000           0.398173           12.89770           0.396647           12.87557
       -1.364000           0.399329           12.91360           0.397796           12.89142
       -1.360000           0.400491           12.92954           0.398951           12.90728
       -1.356000           0.401658           12.94553           0.400113           12.92323
       -1.352000           0.402832           12.96157           0.401278           12.93921
       -1.348000           0.404011           12.97768           0.402451           12.95524
       -1.344000           0.405196           12.99380           0.403629           12.97129
       -1.340000           0.406387           13.00998           0.404814           12.98743
       -1.336000           0.407584           13.02621           0.406004           13.00359
       -1.332000           0.408789           13.04248           0.407201           13.01979
       -1.328000           0.409998           13.05881           0.408404           13.03605
       -1.324000           0.411214           13.07518           0.409613           13.05237
       -1.320000           0.412436           13.09159           0.410827           13.06872
       -1.316000           0.413664           13.10807           0.412049           13.08514
       -1.312000           0.414898           13.12460           0.413275           13.10160
       -1.308000           0.416139           13.14116           0.414509           13.11809
       -1.304000           0.417386           13.15777           0.415748           13.13465
       -1.300000           0.418640           13.17445           0.416995           13.15124
       -1.296000           0.419900           13.19116           0.418250           13.16789
       -1.292000           0.421167           13.20794           0.419508           13.18458
       -1.288000           0.422441           13.22473           0.420774           13.20135
       -1.284000           0.423721           13.24162           0.422045           13.21816
       -1.280000           0.425007           13.25851           0.423325           13.23500
       -1.276000           0.426300           13.27549           0.424611           13.25193
       -1.272000           0.427601           13.29252           0.425902           13.26883
       -1.268000           0.428908           13.30957           0.427203           13.28587
       -1.264000           0.430222           13.32672           0.428510           13.30292
       -1.260000           0.431543           13.34389           0.429823           13.32003
       -1.256000           0.432872           13.36112           0.431141           13.33721
       -1.252000           0.434207           13.37838           0.432471           13.35440
       -1.248000           0.435549           13.39573           0.433804           13.37167
       -1.244000           0.436898           13.41312           0.435145           13.38895
       -1.240000           0.438255           13.43056           0.436495           13.40639
       -1.236000           0.439620           13.44805           0.437851           13.42378
       -1.232000           0.440991           13.46562           0.439215           13.44126
       -1.228000           0.442370           13.48321           0.440586           13.45880
       -1.224000           0.443757           13.50088           0.441962           13.47638
       -1.220000           0.445150           13.51859           0.443349           13.49403
       -1.216000           0.446552           13.53636           0.444744           13.51174
       -1.212000           0.447961           13.55419           0.446144           13.52948
       -1.208000           0.449378           13.57207           0.447552           13.54730
       -1.204000           0.450804           13.59000           0.448968           13.56515
       -1.200000           0.452236           13.60801           0.450393           13.58307
       -1.196000           0.453677           13.62605           0.451825           13.60103
       -1.192000           0.455125           13.64415           0.453265           13.61907
       -1.188000           0.456583           13.66232           0.454713           13.63717
       -1.184000           0.458048           13.68054           0.456170           13.65532
       -1.180000           0.459521           13.69883           0.457633           13.67351
       -1.176000           0.461002           13.71717           0.459106           13.69179
       -1.172000           0.462492           13.73556           0.460586           13.71014
       -1.168000           0.463990           13.75403           0.462077           13.72852
       -1.164000           0.465498           13.77253           0.463574           13.74697
       -1.160000           0.467014           13.79112           0.465080           13.76542
       -1.156000           0.468537           13.80975           0.466594           13.78403
       -1.152000           0.470070           13.82845           0.468117           13.80266
       -1.148000           0.471611           13.84722           0.469652           13.82131
       -1.144000           0.473162           13.86604           0.471191           13.84006
       -1.140000           0.474721           13.88493           0.472741           13.85884
       -1.136000           0.476289           13.90387           0.474301           13.87771
       -1.132000           0.477867           13.92289           0.475867           13.89665
       -1.128000           0.479453           13.94193           0.477444           13.91564
       -1.124000           0.481049           13.96107           0.479031           13.93470
       -1.120000           0.482655           13.98027           0.480625           13.95382
       -1.116000           0.484269           13.99954           0.482230           13.97300
       -1.112000           0.485894           14.01887           0.483844           13.99224
       -1.108000           0.487528           14.03824           0.485468           14.01154
       -1.104000           0.489171           14.05769           0.487102           14.03093
       -1.100000           0.490824           14.07721           0.488745           14.05032
       -1.096000           0.492488           14.09680           0.490398           14.06985
       -1.092000           0.494161           14.11645           0.492060           14.08939
       -1.088000           0.495844           14.13614           0.493733           14.10905
       -1.084000           0.497538           14.15596           0.495418           14.12873
       -1.080000           0.499241           14.17578           0.497110           14.14849
       -1.076000           0.500955           14.19571           0.498813           14.16832
       -1.072000           0.502679           14.21570           0.500526           14.18825
       -1.068000           0.504414           14.23575           0.502250           14.20821
       -1.064000           0.506160           14.25588           0.503984           14.22825
       -1.060000           0.507915           14.27606           0.505731           14.24837
       -1.056000           0.509683           14.29632           0.507485           14.26850
       -1.052000           0.511460           14.31665           0.509251           14.28876
       -1.048000           0.513249           14.33704           0.511030           14.30909
       -1.044000           0.515049           14.35753           0.512819           14.32945
       -1.040000           0.516860           14.37807           0.514618           14.34994
       -1.036000           0.518684           14.39868           0.516429           14.37044
       -1.032000           0.520518           14.41938           0.518253           14.39102
       -1.028000           0.522363           14.44012           0.520087           14.41171
       -1.024000           0.524220           14.46097           0.521932           14.43246
       -1.020000           0.526090           14.48187           0.523789           14.45326
       -1.016000           0.527970           14.50285           0.525658           14.47417
       -1.012000           0.529864           14.52391           0.527539           14.49512
       -1.008000           0.531768           14.54504           0.529432           14.51618
       -1.004000           0.533686           14.56625           0.531337           14.53728
       -1.000000           0.535615           14.58752           0.533253           14.55846
       -0.996000           0.537558           14.60889           0.535184           14.57970
       -0.992000           0.539512           14.63033           0.537126           14.60108
       -0.988000           0.541480           14.65183           0.539081           14.62247
       -0.984000           0.543460           14.67342           0.541048           14.64394
       -0.980000           0.545454           14.69509           0.543029           14.66555
       -0.976000           0.547461           14.71684           0.545024           14.68721
       -0.972000           0.549480           14.73867           0.547030           14.70893
       -0.968000           0.551514           14.76057           0.549051           14.73074
       -0.964000           0.553560           14.78258           0.551084           14.75265
       -0.960000           0.555621           14.80462           0.553130           14.77459
       -0.956000           0.557695           14.82678           0.555191           14.79665
       -0.952000           0.559783           14.84901           0.557266           14.81878
       -0.948000           0.561885           14.87133           0.559354           14.84101
       -0.944000           0.564001           14.89371           0.561457           14.86330
       -0.940000           0.566133           14.91620           0.563574           14.88566
       -0.936000           0.568278           14.93876           0.565707           14.90813
       -0.932000           0.570439           14.96142           0.567852           14.93067
       -0.928000           0.572614           14.98415           0.570014           14.95333
       -0.924000           0.574804           15.00697           0.572189           14.97604
       -0.920000           0.577010           15.02989           0.574380           14.99886
       -0.916000           0.579230           15.05287           0.576586           15.02173
       -0.912000           0.581466           15.07596           0.578807           15.04473
       -0.908000           0.583718           15.09915           0.581045           15.06779
       -0.904000           0.585986           15.12241           0.583297           15.09093
       -0.900000           0.588269           15.14575           0.585565           15.11418
       -0.896000           0.590570           15.16919           0.587852           15.13754
       -0.892000           0.592886           15.19271           0.590151           15.16093
       -0.888000           0.595218           15.21634           0.592470           15.18444
       -0.884000           0.597568           15.24007           0.594804           15.20805
       -0.880000           0.599935           15.26386           0.597155           15.23177
       -0.876000           0.602319           15.28775           0.599522           15.25556
       -0.872000           0.604719           15.31175           0.601908           15.27944
       -0.868000           0.607138           15.33587           0.604310           15.30342
       -0.864000           0.609575           15.36003           0.606731           15.32747
       -0.860000           0.612029           15.38431           0.609167           15.35167
       -0.856000           0.614501           15.40867           0.611625           15.37589
       -0.852000           0.616992           15.43318           0.614099           15.40030
       -0.848000           0.619501           15.45773           0.616591           15.42472
       -0.844000           0.622029           15.48239           0.619102           15.44926
       -0.840000           0.624576           15.50717           0.621632           15.47390
       -0.836000           0.627142           15.53205           0.624182           15.49869
       -0.832000           0.629728           15.55702           0.626750           15.52351
       -0.828000           0.632334           15.58209           0.629336           15.54849
       -0.824000           0.634960           15.60727           0.631945           15.57355
       -0.820000           0.637604           15.63256           0.634572           15.59874
       -0.816000           0.640271           15.65793           0.637220           15.62397
       -0.812000           0.642957           15.68343           0.639888           15.64934
       -0.808000           0.645665           15.70902           0.642577           15.67484
       -0.804000           0.648393           15.73472           0.645289           15.70040
       -0.800000           0.651143           15.76053           0.648020           15.72609
       -0.796000           0.653915           15.78644           0.650773           15.75191
       -0.792000           0.656709           15.81247           0.653548           15.77780
       -0.788000           0.659524           15.83861           0.656346           15.80377
       -0.784000           0.662362           15.86486           0.659165           15.82991
       -0.780000           0.665224           15.89122           0.662006           15.85614
       -0.776000           0.668109           15.91769           0.664870           15.88247
       -0.772000           0.671015           15.94426           0.667759           15.90894
       -0.768000           0.673948           15.97099           0.670671           15.93549
       -0.764000           0.676904           15.99780           0.673606           15.96222
       -0.760000           0.679883           16.02472           0.676565           15.98903
       -0.756000           0.682888           16.05176           0.679550           16.01592
       -0.752000           0.685918           16.07891           0.682557           16.04294
       -0.748000           0.688972           16.10622           0.685592           16.07009
       -0.744000           0.692053           16.13362           0.688653           16.09738
       -0.740000           0.695159           16.16113           0.691736           16.12473
       -0.736000           0.698292           16.18877           0.694847           16.15225
       -0.732000           0.701451           16.21654           0.697986           16.17989
       -0.728000           0.704638           16.24444           0.701149           16.20764
       -0.724000           0.707852           16.27246           0.704342           16.23553
       -0.720000           0.711094           16.30061           0.707562           16.26352
       -0.716000           0.714364           16.32887           0.710810           16.29163
       -0.712000           0.717663           16.35726           0.714086           16.31992
       -0.708000           0.720991           16.38580           0.717390           16.34828
       -0.704000           0.724348           16.41445           0.720724           16.37680
       -0.700000           0.727735           16.44323           0.724088           16.40545
       -0.696000           0.731152           16.47216           0.727481           16.43424
       -0.692000           0.734600           16.50121           0.730906           16.46314
       -0.688000           0.738080           16.53039           0.734362           16.49220
       -0.684000           0.741592           16.55971           0.737848           16.52135
       -0.680000           0.745134           16.58916           0.741366           16.55066
       -0.676000           0.748710           16.61878           0.744916           16.58012
       -0.672000           0.752318           16.64851           0.748501           16.60969
       -0.668000           0.755961           16.67840           0.752118           16.63942
       -0.664000           0.759637           16.70841           0.755770           16.66933
       -0.660000           0.763348           16.73858           0.759455           16.69933
       -0.656000           0.767093           16.76889           0.763173           16.72952
       -0.652000           0.770875           16.79933           0.766930           16.75976
       -0.648000           0.774693           16.82995           0.770720           16.79018
       -0.644000           0.778548           16.86070           0.774546           16.82080
       -0.640000           0.782440           16.89161           0.778415           16.85156
       -0.636000           0.786371           16.92264           0.782318           16.88245
       -0.632000           0.790339           16.95387           0.786257           16.91346
       -0.628000           0.794348           16.98521           0.790239           16.94468
       -0.624000           0.798394           17.01672           0.794259           16.97602
       -0.620000           0.802483           17.04840           0.798316           17.00752
       -0.616000           0.806613           17.08023           0.802419           17.03921
       -0.612000           0.810785           17.11222           0.806560           17.07105
       -0.608000           0.815000           17.14438           0.810746           17.10299
       -0.604000           0.819257           17.17669           0.814973           17.13518
       -0.600000           0.823558           17.20915           0.819245           17.16747
       -0.596000           0.827904           17.24180           0.823561           17.19995
       -0.592000           0.832297           17.27461           0.827922           17.23261
       -0.588000           0.836735           17.30761           0.832329           17.26538
       -0.584000           0.841220           17.34077           0.836783           17.29842
       -0.580000           0.845754           17.37409           0.841285           17.33152
       -0.576000           0.850337           17.40759           0.845835           17.36485
       -0.572000           0.854968           17.44126           0.850436           17.39836
       -0.568000           0.859651           17.47512           0.855083           17.43202
       -0.564000           0.864387           17.50915           0.859789           17.46590
       -0.560000           0.869174           17.54338           0.864542           17.49993
       -0.556000           0.874015           17.57778           0.869346           17.53412
       -0.552000           0.878909           17.61236           0.874210           17.56858
       -0.548000           0.883861           17.64715           0.879124           17.60315
       -0.544000           0.888869           17.68211           0.884098           17.63791
       -0.540000           0.893934           17.71726           0.889127           17.67290
       -0.536000           0.899059           17.75262           0.894217           17.70806
       -0.532000           0.904243           17.78816           0.899365           17.74341
       -0.528000           0.909489           17.82392           0.904577           17.77896
       -0.524000           0.914798           17.85986           0.909846           17.81470
       -0.520000           0.920169           17.89600           0.915182           17.85064
       -0.516000           0.925606           17.93236           0.920582           17.88682
       -0.512000           0.931111           17.96892           0.926045           17.92316
       -0.508000           0.936683           18.00568           0.931578           17.95975
       -0.504000           0.942321           18.04266           0.937181           17.99655
       -0.500000           0.948033           18.07984           0.942852           18.03352
       -0.496000           0.953817           18.11725           0.948594           18.07071
       -0.492000           0.959674           18.15489           0.954412           18.10814
       -0.488000           0.965606           18.19273           0.960302           18.14577
       -0.484000           0.971616           18.23081           0.966272           18.18365
       -0.480000           0.977705           18.26910           0.972317           18.22173
       -0.476000           0.983874           18.30764           0.978444           18.26006
       -0.472000           0.990124           18.34640           0.984651           18.29861
       -0.468000           0.996460           18.38540           0.990945           18.33737
       -0.464000           1.002881           18.42461           0.997324           18.37638
       -0.460000           1.009391           18.46409           1.003787           18.41567
       -0.456000           1.015992           18.50381           1.010344           18.45516
       -0.452000           1.022684           18.54378           1.016987           18.49490
       -0.448000           1.029471           18.58398           1.023730           18.53489
       -0.444000           1.036355           18.62446           1.030569           18.57511
       -0.440000           1.043339           18.66516           1.037505           18.61557
       -0.436000           1.050426           18.70614           1.044542           18.65633
       -0.432000           1.057613           18.74738           1.051681           18.69737
       -0.428000           1.064910           18.78889           1.058928           18.73867
       -0.424000           1.072318           18.83068           1.066287           18.78014
       -0.420000           1.079837           18.87270           1.073757           18.82200
       -0.416000           1.087472           18.91503           1.081340           18.86405
       -0.412000           1.095225           18.95763           1.089039           18.90643
       -0.408000           1.103101           19.00049           1.096865           18.94905
       -0.404000           1.111102           19.04365           1.104813           18.99200
       -0.400000           1.119232           19.08715           1.112888           19.03516
       -0.396000           1.127494           19.13091           1.121095           19.07870
       -0.392000           1.135892           19.17494           1.129436           19.12248
       -0.388000           1.144428           19.21930           1.137920           19.16657
       -0.384000           1.153110           19.26393           1.146544           19.21099
       -0.380000           1.161940           19.30891           1.155317           19.25568
       -0.376000           1.170922           19.35420           1.164242           19.30075
       -0.372000           1.180062           19.39980           1.173322           19.34605
       -0.368000           1.189362           19.44574           1.182565           19.39174
       -0.364000           1.198830           19.49198           1.191970           19.43770
       -0.360000           1.208470           19.53855           1.201550           19.48404
       -0.356000           1.218288           19.58548           1.211303           19.53066
       -0.352000           1.228287           19.63276           1.221239           19.57767
       -0.348000           1.238475           19.68036           1.231363           19.62500
       -0.344000           1.248859           19.72832           1.241683           19.67270
       -0.340000           1.259444           19.77664           1.252202           19.72069
       -0.336000           1.270236           19.82531           1.262926           19.76912
       -0.332000           1.281244           19.87434           1.273866           19.81787
       -0.328000           1.292474           19.92376           1.285028           19.86702
       -0.324000           1.303933           19.97356           1.296420           19.91648
       -0.320000           1.315631           20.02373           1.308046           19.96635
       -0.316000           1.327576           20.07429           1.319921           20.01662
       -0.312000           1.339776           20.12523           1.332045           20.06725
       -0.308000           1.352240           20.17658           1.344436           20.11830
       -0.304000           1.364978           20.22833           1.357101           20.16978
       -0.300000           1.378001           20.28052           1.370049           20.22165
       -0.296000           1.391321           20.33309           1.383289           20.27387
       -0.292000           1.404947           20.38608           1.396837           20.32659
       -0.288000           1.418886           20.43950           1.410695           20.37967
       -0.284000           1.433162           20.49338           1.424896           20.43327
       -0.280000           1.447780           20.54765           1.439428           20.48721
       -0.276000           1.462753           20.60241           1.454317           20.54166
       -0.272000           1.478098           20.65757           1.469581           20.59644
       -0.268000           1.493835           20.71321           1.485229           20.65179
       -0.264000           1.509968           20.76929           1.501277           20.70756
       -0.260000           1.526527           20.82587           1.517746           20.76378
       -0.256000           1.543523           20.88292           1.534650           20.82046
       -0.252000           1.560974           20.94040           1.552010           20.87759
       -0.248000           1.578901           20.99839           1.569849           20.93528
       -0.244000           1.597329           21.05686           1.588178           20.99339
       -0.240000           1.616275           21.11581           1.607028           21.05197
       -0.236000           1.635762           21.17527           1.626420           21.11111
       -0.232000           1.655817           21.23522           1.646377           21.17067
       -0.228000           1.676466           21.29565           1.666927           21.23075
       -0.224000           1.697736           21.35659           1.688096           21.29131
       -0.220000           1.719656           21.41803           1.709914           21.35237
       -0.216000           1.742256           21.47997           1.732406           21.41397
       -0.212000           1.765571           21.54242           1.755611           21.47602
       -0.208000           1.789632           21.60535           1.779568           21.53856
       -0.204000           1.814476           21.66874           1.804296           21.60158
       -0.200000           1.840139           21.73268           1.829845           21.66512
       -0.196000           1.866664           21.79710           1.856257           21.72909
       -0.192000           1.894091           21.86197           1.883573           21.79358
       -0.188000           1.922470           21.92732           1.911831           21.85854
       -0.184000           1.951841           21.99312           1.941082           21.92391
       -0.180000           1.982258           22.05935           1.971377           21.98975
       -0.176000           2.013771           22.12601           2.002760           22.05602
       -0.172000           2.046434           22.19308           2.035297           22.12264
       -0.168000           2.080306           22.26048           2.069039           22.18958
       -0.164000           2.115447           22.32825           2.104049           22.25695
       -0.160000           2.151917           22.39630           2.140383           22.32457
       -0.156000           2.189785           22.46464           2.178111           22.39249
       -0.152000           2.229113           22.53321           2.217308           22.46051
       -0.148000           2.269974           22.60192           2.258029           22.52884
       -0.144000           2.312443           22.67071           2.300346           22.59715
       -0.140000           2.356586           22.73953           2.344344           22.66550
       -0.136000           2.402482           22.80834           2.390085           22.73382
       -0.132000           2.450205           22.87699           2.437661           22.80203
       -0.128000           2.499830           22.94540           2.487129           22.86998
       -0.124000           2.551430           23.01344           2.538570           22.93749
       -0.120000           2.605081           23.08099           2.592057           23.00460
       -0.116000           2.660848           23.14790           2.647658           23.07095
       -0.112000           2.718790           23.21401           2.705436           23.13663
       -0.108000           2.778972           23.27916           2.765440           23.20126
       -0.104000           2.841430           23.34310           2.827726           23.26469
       -0.100000           2.906201           23.40569           2.892326           23.32671
       -0.096000           2.973295           23.46663           2.959235           23.38715
       -0.092000           3.042716           23.52571           3.028474           23.44566
       -0.088000           3.114447           23.58257           3.100001           23.50203
       -0.084000           3.188413           23.63700           3.173775           23.55598
       -0.080000           3.264524           23.68866           3.249692           23.60699
       -0.076000           3.342659           23.73722           3.327628           23.65504
       -0.072000           3.422648           23.78231           3.407416           23.69951
       -0.068000           3.504256           23.82361           3.488796           23.74025
       -0.064000           3.587197           23.86078           3.571531           23.77686
       -0.060000           3.671134           23.89349           3.655248           23.80899
       -0.056000           3.755646           23.92132           3.739543           23.83623
       -0.052000           3.840264           23.94411           3.823925           23.85841
       -0.048000           3.924442           23.96157           3.907877           23.87526
       -0.044000           4.007549           23.97346           3.990737           23.88653
       -0.040000           4.088923           23.97972           4.071867           23.89219
       -0.036000           4.167834           23.98033           4.150537           23.89212
       -0.032000           4.243507           23.97534           4.225945           23.88649
       -0.028000           4.315161           23.96498           4.297344           23.87550
       -0.024000           4.381996           23.94957           4.363923           23.85945
       -0.020000           4.443257           23.92955           4.424901           23.83873
       -0.016000           4.498222           23.90552           4.479585           23.81401
       -0.012000           4.546244           23.87822           4.527329           23.78601
       -0.008000           4.586791           23.84842           4.567590           23.75556
       -0.004000           4.619467           23.81712           4.599942           23.72354
        0.000000           4.643982           23.78526           4.624169           23.69094
        0.004000           4.660268           23.75387           4.640133           23.65885
        0.008000           4.668345           23.72403           4.647893           23.62830
        0.012000           4.668459           23.69672           4.647672           23.60013
        0.016000           4.660977           23.67289           4.639851           23.57559
        0.020000           4.646405           23.65336           4.624939           23.55531
        0.024000           4.625358           23.63900           4.603529           23.54015
        0.028000           4.598545           23.63039           4.576357           23.53072
        0.032000           4.566743           23.62804           4.544168           23.52759
        0.036000           4.530740           23.63235           4.507781           23.53104
        0.040000           4.491351           23.64355           4.468000           23.54145
        0.044000           4.449373           23.66180           4.425615           23.55879
        0.048000           4.405571           23.68705           4.381394           23.58325
        0.052000           4.360652           23.71933           4.336037           23.61463
        0.056000           4.315288           23.75841           4.290236           23.65282
        0.060000           4.270050           23.80408           4.244541           23.69759
        0.064000           4.225471           23.85611           4.199493           23.74871
        0.068000           4.182026           23.91415           4.155555           23.80578
        0.072000           4.140074           23.97785           4.113109           23.86864
        0.076000           4.099951           24.04698           4.072474           23.93676
        0.080000           4.061935           24.12109           4.033942           24.00998
        0.084000           4.026233           24.19987           3.997691           24.08776
        0.088000           3.993003           24.28304           3.963908           24.16990
        0.092000           3.962391           24.37026           3.932719           24.25606
        0.096000           3.934468           24.46123           3.904208           24.34607
        0.100000           3.909308           24.55566           3.878422           24.43942
        0.104000           3.886936           24.65334           3.855432           24.53607
        0.108000           3.867382           24.75404           3.835218           24.63562
        0.112000           3.850630           24.85748           3.817801           24.73797
        0.116000           3.836669           24.96354           3.803143           24.84294
        0.120000           3.825471           25.07199           3.791234           24.95025
        0.124000           3.817011           25.18267           3.782027           25.05979
        0.128000           3.811246           25.29553           3.775503           25.17148
        0.132000           3.808133           25.41035           3.771596           25.28513
        0.136000           3.807622           25.52710           3.770278           25.40069
        0.140000           3.809691           25.64564           3.771494           25.51802
        0.144000           3.814277           25.76591           3.775204           25.63705
        0.148000           3.821347           25.88783           3.781376           25.75766
        0.152000           3.830865           26.01142           3.789956           25.87996
        0.156000           3.842788           26.13649           3.800914           26.00374
        0.160000           3.857094           26.26310           3.814199           26.12906
        0.164000           3.873737           26.39118           3.829810           26.25583
        0.168000           3.892714           26.52076           3.847701           26.38398
        0.172000           3.913987           26.65175           3.867838           26.51361
        0.176000           3.937545           26.78418           3.890230           26.64459
        0.180000           3.963370           26.91801           3.914847           26.77702
        0.184000           3.991467           27.05331           3.941692           26.91084
        0.188000           4.021830           27.18997           3.970741           27.04609
        0.192000           4.054463           27.32807           4.002016           27.18267
        0.196000           4.089360           27.46765           4.035503           27.32069
        0.200000           4.126542           27.60858           4.071215           27.46013
        0.204000           4.166037           27.75101           4.109166           27.60101
        0.208000           4.207847           27.89489           4.149397           27.74340
        0.212000           4.252011           28.04024           4.191895           27.88711
        0.216000           4.298562           28.18712           4.236723           28.03236
        0.220000           4.347534           28.33546           4.283891           28.17921
        0.224000           4.398962           28.48534           4.333438           28.32748
        0.228000           4.452909           28.63681           4.385430           28.47726
        0.232000           4.509412           28.78981           4.439901           28.62868
        0.236000           4.568542           28.94434           4.496900           28.78160
        0.240000           4.630363           29.10055           4.556504           28.93617
        0.244000           4.694935           29.25834           4.618756           29.09230
        0.248000           4.762333           29.41771           4.683732           29.25011
        0.252000           4.832644           29.57871           4.751525           29.40954
        0.256000           4.905958           29.74146           4.822214           29.57059
        0.260000           4.982348           29.90567           4.895871           29.73336
        0.264000           5.061925           30.07165           4.972584           29.89780
        0.268000           5.144786           30.23922           5.052460           30.06387
        0.272000           5.231050           30.40847           5.135613           30.23161
        0.276000           5.320803           30.57929           5.222149           30.40110
        0.280000           5.414198           30.75171           5.312178           30.57220
        0.284000           5.511331           30.92571           5.405814           30.74499
        0.288000           5.612328           31.10122           5.503198           30.91924
        0.292000           5.717324           31.27821           5.604438           31.09533
        0.296000           5.826440           31.45670           5.709689           31.27278
        0.300000           5.939829           31.63653           5.819066           31.45183
        0.304000           6.057592           31.81762           5.932713           31.63232
        0.308000           6.179893           31.99996           6.050784           31.81414
        0.312000           6.306838           32.18347           6.173388           31.99743
        0.316000           6.438566           32.36795           6.300714           32.18185
        0.320000           6.575178           32.55331           6.432847           32.36731
        0.324000           6.716785           32.73949           6.569926           32.55387
        0.328000           6.863506           32.92627           6.712104           32.74135
        0.332000           7.015406           33.11362           6.859485           32.92947
        0.336000           7.172529           33.30128           7.012155           33.11837
        0.340000           7.334973           33.48913           7.170202           33.30767
        0.344000           7.502752           33.67712           7.333739           33.49731
        0.348000           7.675838           33.86491           7.502760           33.68703
        0.352000           7.854268           34.05252           7.677341           33.87692
        0.356000           8.038001           34.23982           7.857509           34.06651
        0.360000           8.226975           34.42669           8.043242           34.25596
        0.364000           8.421144           34.61310           8.234501           34.44498
        0.368000           8.620412           34.79900           8.431295           34.63357
        0.372000           8.824729           34.98452           8.633526           34.82159
        0.376000           9.034030           35.16961           8.841170           35.00916
        0.380000           9.248283           35.35443           9.054155           35.19623
        0.384000           9.467492           35.53922           9.272488           35.38294
        0.388000           9.691692           35.72416           9.496093           35.56931
        0.392000           9.921007           35.90950           9.725083           35.75552
        0.396000           10.15565           36.09557           9.959525           35.94194
        0.400000           10.39588           36.28267           10.19956           36.12877
        0.404000           10.64209           36.47108           10.44547           36.31622
        0.408000           10.89477           36.66114           10.69760           36.50447
        0.412000           11.15450           36.85309           10.95632           36.69402
        0.416000           11.42200           37.04711           11.22221           36.88504
        0.420000           11.69807           37.24335           11.49603           37.07763
        0.424000           11.98355           37.44174           11.77841           37.27207
        0.428000           12.27945           37.64226           12.07023           37.46823
        0.432000           12.58675           37.84469           12.37246           37.66607
        0.436000           12.90650           38.04861           12.68603           37.86544
        0.440000           13.23978           38.25348           13.01199           38.06592
        0.444000           13.58770           38.45881           13.35148           38.26713
        0.448000           13.95131           38.66358           13.70560           38.46833
        0.452000           14.33172           38.86687           14.07539           38.66874
        0.456000           14.72989           39.06764           14.46198           38.86729
        0.460000           15.14676           39.26454           14.86627           39.06297
        0.464000           15.58327           39.45609           15.28935           39.25432
        0.468000           16.04017           39.64059           15.73204           39.43998
        0.472000           16.51812           39.81644           16.19524           39.61821
        0.476000           17.01775           39.98164           16.67956           39.78726
        0.480000           17.53936           40.13393           17.18555           39.94500
        0.484000           18.08313           40.27112           17.71350           40.08930
        0.488000           18.64918           40.39088           18.26372           40.21789
        0.492000           19.23711           40.49055           18.83608           40.32819
        0.496000           19.84643           40.56748           19.43021           40.41757
        0.500000           20.47631           40.61890           20.04557           40.48322
        0.504000           21.12548           40.64193           20.68112           40.52237
        0.508000           21.79237           40.63371           21.33563           40.53210
        0.512000           22.47489           40.59150           22.00730           40.50950
        0.516000           23.17046           40.51246           22.69378           40.45174
        0.520000           23.87629           40.39404           23.39252           40.35589
        0.524000           24.58877           40.23407           24.10033           40.21966
        0.528000           25.30392           40.03057           24.81346           40.04067
        0.532000           26.01756           39.78204           25.52769           39.81704
        0.536000           26.72477           39.48775           26.23857           39.54765
        0.540000           27.42053           39.14743           26.94088           39.23172
        0.544000           28.09974           38.76165           27.62959           38.86933
        0.548000           28.75700           38.33182           28.29920           38.46124
        0.552000           29.38721           37.86031           28.94422           38.00942
        0.556000           29.98563           37.35006           29.55975           37.51638
        0.560000           30.54774           36.80527           30.14069           36.98586
        0.564000           31.06994           36.23067           30.68283           36.42207
        0.568000           31.54937           35.63150           31.18263           35.83031
        0.572000           31.98409           35.01367           31.63751           35.21632
        0.576000           32.37328           34.38322           32.04616           34.58631
        0.580000           32.71717           33.74625           32.40789           33.94651
        0.584000           33.01722           33.10870           32.72356           33.30330
        0.588000           33.27581           32.47602           32.99495           32.66243
        0.592000           33.49627           31.85295           33.22509           32.02941
        0.596000           33.68276           31.24353           33.41780           31.40899
        0.600000           33.83988           30.65072           33.57750           30.80481
        0.604000           33.97264           30.07647           33.70921           30.21937
        0.608000           34.08632           29.52178           33.81824           29.65453
        0.612000           34.18591           28.98639           33.90975           29.11076
        0.616000           34.27620           28.46909           33.98906           28.58737
        0.620000           34.36141           27.96777           34.06068           28.08278
        0.624000           34.44518           27.47963           34.12880           27.59468
        0.628000           34.53040           27.00106           34.19689           27.12009
        0.632000           34.61893           26.52815           34.26736           26.65504
        0.636000           34.71183           26.05661           34.34222           26.19567
        0.640000           34.80917           25.58222           34.42211           25.73758
        0.644000           34.91006           25.10065           34.50679           25.27666
        0.648000           35.01279           24.60794           34.59522           24.80872
        0.652000           35.11469           24.10070           34.68563           24.33005
        0.656000           35.21239           23.57582           34.77518           23.83728
        0.660000           35.30204           23.03121           34.86071           23.32775
        0.664000           35.37927           22.46542           34.93816           22.79957
        0.668000           35.43935           21.87790           35.00348           22.25146
        0.672000           35.47743           21.26903           35.05209           21.68317
        0.676000           35.48894           20.64020           35.07963           21.09523
        0.680000           35.46915           19.99352           35.08169           20.48885
        0.684000           35.41421           19.33210           35.05408           19.86646
        0.688000           35.32048           18.65958           34.99314           19.23083
        0.692000           35.18507           17.98034           34.89578           18.58544
        0.696000           35.00603           17.29914           34.75956           17.93447
        0.700000           34.78178           16.62103           34.58248           17.28222
        0.704000           34.51211           15.95120           34.36349           16.63328
        0.708000           34.19713           15.29485           34.10227           15.99247
        0.712000           33.83796           14.65693           33.79916           15.36428
        0.716000           33.43639           14.04219           33.45520           14.75332
        0.720000           32.99483           13.45503           33.07191           14.16376
        0.724000           32.51613           12.89929           32.65144           13.59944
        0.728000           32.00358           12.37843           32.19626           13.06390
        0.732000           31.46084           11.89533           31.70943           12.56018
        0.736000           30.89166           11.45231           31.19386           12.09083
        0.740000           30.30001           11.05124           30.65305           11.65805
        0.744000           29.68998           10.69346           30.09033           11.26363
        0.748000           29.06546           10.37978           29.50908           10.90889
        0.752000           28.43069           10.11062           28.91291           10.59477
        0.756000           27.78925           9.885916           28.30534           10.32188
        0.760000           27.14493           9.705227           27.68957           10.09044
        0.764000           26.50136           9.567810           27.06922           9.900396
        0.768000           25.86176           9.472519           26.44758           9.751315
        0.772000           25.22925           9.417994           25.82748           9.642530
        0.776000           24.60657           9.402614           25.21215           9.573053
        0.780000           23.99637           9.424579           24.60433           9.541620
        0.784000           23.40076           9.481891           24.00637           9.546870
        0.788000           22.82186           9.572482           23.42084           9.587128
        0.792000           22.26123           9.694224           22.84964           9.660600
        0.796000           21.72028           9.844932           22.29473           9.765395
        0.800000           21.20025           10.02239           21.75774           9.899580
        0.804000           20.70192           10.22447           21.23985           10.06106
        0.808000           20.22605           10.44907           20.74229           10.24784
        0.812000           19.77304           10.69419           20.26580           10.45793
        0.816000           19.34323           10.95789           19.81109           10.68931
        0.820000           18.93677           11.23832           19.37868           10.94012
        0.824000           18.55365           11.53382           18.96872           11.20853
        0.828000           18.19374           11.84275           18.58146           11.49283
        0.832000           17.85691           12.16367           18.21680           11.79136
        0.836000           17.54286           12.49521           17.87476           12.10266
        0.840000           17.25129           12.83612           17.55515           12.42531
        0.844000           16.98189           13.18527           17.25777           12.75801
        0.848000           16.73427           13.54163           16.98221           13.09960
        0.852000           16.50801           13.90425           16.72832           13.44896
        0.856000           16.30285           14.27225           16.49563           13.80514
        0.860000           16.11835           14.64491           16.28385           14.16726
        0.864000           15.95415           15.02149           16.09266           14.53443
        0.868000           15.80995           15.40138           15.92170           14.90600
        0.872000           15.68544           15.78397           15.77067           15.28124
        0.876000           15.58040           16.16869           15.63925           15.65949
        0.880000           15.49451           16.55511           15.52712           16.04029
        0.884000           15.42764           16.94271           15.43419           16.42303
        0.888000           15.37960           17.33106           15.36014           16.80726
        0.892000           15.35026           17.71973           15.30484           17.19252
        0.896000           15.33958           18.10831           15.26811           17.57839
        0.900000           15.34750           18.49634           15.24992           17.96434
        0.904000           15.37396           18.88343           15.25022           18.35005
        0.908000           15.41910           19.26916           15.26902           18.73508
        0.912000           15.48290           19.65301           15.30622           19.11892
        0.916000           15.56553           20.03455           15.36198           19.50119
        0.920000           15.66710           20.41323           15.43639           19.88136
        0.924000           15.78779           20.78845           15.52947           20.25892
        0.928000           15.92778           21.15965           15.64158           20.63336
        0.932000           16.08727           21.52612           15.77274           21.00402
        0.936000           16.26653           21.88713           15.92326           21.37028
        0.940000           16.46571           22.24187           16.09330           21.73142
        0.944000           16.68509           22.58941           16.28308           22.08664
        0.948000           16.92484           22.92879           16.49279           22.43506
        0.952000           17.18512           23.25894           16.72271           22.77559
        0.956000           17.46609           23.57865           16.97296           23.10740
        0.960000           17.76782           23.88661           17.24369           23.42916
        0.964000           18.09026           24.18148           17.53504           23.73965
        0.968000           18.43331           24.46169           17.84689           24.03747
        0.972000           18.79677           24.72569           18.17926           24.32115
        0.976000           19.18029           24.97181           18.53186           24.58907
        0.980000           19.58319           25.19809           18.90435           24.83949
        0.984000           20.00485           25.40284           19.29621           25.07076
        0.988000           20.44422           25.58401           19.70653           25.28078
        0.992000           20.90014           25.73976           20.13457           25.46786
        0.996000           21.37112           25.86804           20.57886           25.62987
        1.000000           21.85528           25.96700           21.03790           25.76502
        1.004000           22.35056           26.03490           21.50991           25.87131
        1.008000           22.85451           26.07001           21.99266           25.94710
        1.012000           23.36438           26.07094           22.48356           25.99082
        1.016000           23.87711           26.03649           22.97990           26.00103
        1.020000           24.38944           25.96593           23.47840           25.97704
        1.024000           24.89783           25.85881           23.97589           25.91796
        1.028000           25.39844           25.71527           24.46874           25.82379
        1.032000           25.88749           25.53585           24.95320           25.69498
        1.036000           26.36126           25.32181           25.42574           25.53238
        1.040000           26.81603           25.07477           25.88266           25.33746
        1.044000           27.24829           24.79727           26.32052           25.11242
        1.048000           27.65495           24.49197           26.73637           24.85985
        1.052000           28.03346           24.16233           27.12769           24.58278
        1.056000           28.38154           23.81213           27.49239           24.28479
        1.060000           28.69777           23.44525           27.82893           23.96954
        1.064000           28.98144           23.06593           28.13666           23.64081
        1.068000           29.23233           22.67824           28.41552           23.30250
        1.072000           29.45108           22.28620           28.66579           22.95815
        1.076000           29.63873           21.89351           28.88893           22.61122
        1.080000           29.79713           21.50348           29.08620           22.26455
        1.084000           29.92811           21.11899           29.25967           21.92060
        1.088000           30.03436           20.74233           29.41149           21.58145
        1.092000           30.11816           20.37536           29.54378           21.24838
        1.096000           30.18216           20.01932           29.65910           20.92228
        1.100000           30.22889           19.67498           29.75930           20.60382
        1.104000           30.26074           19.34274           29.84631           20.29283
        1.108000           30.27968           19.02259           29.92180           19.98929
        1.112000           30.28768           18.71435           29.98697           19.69272
        1.116000           30.28632           18.41754           30.04289           19.40269
        1.120000           30.27687           18.13178           30.09032           19.11878
        1.124000           30.26035           17.85657           30.12970           18.84060
        1.128000           30.23770           17.59148           30.16118           18.56792
        1.132000           30.20964           17.33621           30.18499           18.30077
        1.136000           30.17681           17.09051           30.20127           18.03924
        1.140000           30.13983           16.85432           30.21024           17.78375
        1.144000           30.09954           16.62760           30.21223           17.53486
        1.148000           30.05665           16.41039           30.20765           17.29317
        1.152000           30.01210           16.20267           30.19747           17.05938
        1.156000           29.96705           16.00443           30.18226           16.83416
        1.160000           29.92262           15.81553           30.16381           16.61814
        1.164000           29.88019           15.63557           30.14337           16.41160
        1.168000           29.84113           15.46402           30.12270           16.21475
        1.172000           29.80688           15.29999           30.10359           16.02720
        1.176000           29.77874           15.14240           30.08805           15.84838
        1.180000           29.75793           14.98979           30.07797           15.67720
        1.184000           29.74557           14.84044           30.07512           15.51219
        1.188000           29.74253           14.69240           30.08107           15.35155
        1.192000           29.74911           14.54349           30.09698           15.19293
        1.196000           29.76557           14.39136           30.12380           15.03376
        1.200000           29.79155           14.23358           30.16193           14.87133
        1.204000           29.82640           14.06774           30.21113           14.70256
        1.208000           29.86893           13.89145           30.27084           14.52460
        1.212000           29.91746           13.70250           30.33953           14.33448
        1.216000           29.97012           13.49889           30.41554           14.12944
        1.220000           30.02442           13.27894           30.49656           13.90699
        1.224000           30.07762           13.04138           30.57962           13.66521
        1.228000           30.12687           12.78532           30.66139           13.40240
        1.232000           30.16895           12.51041           30.73847           13.11756
        1.236000           30.20069           12.21680           30.80699           12.81038
        1.240000           30.21878           11.90511           30.86293           12.48107
        1.244000           30.22015           11.57663           30.90265           12.13059
        1.248000           30.20174           11.23303           30.92241           11.76055
        1.252000           30.16107           10.87652           30.91877           11.37309
        1.256000           30.09562           10.50967           30.88862           10.97104
        1.260000           30.00361           10.13546           30.82969           10.55758
        1.264000           29.88356           9.757036           30.73973           10.13629
        1.268000           29.73456           9.377809           30.61745           9.710962
        1.272000           29.55613           9.001264           30.46211           9.285594
        1.276000           29.34839           8.630800           30.27346           8.864088
        1.280000           29.11184           8.269840           30.05183           8.450346
        1.284000           28.84754           7.921623           29.79820           8.048141
        1.288000           28.55690           7.589157           29.51392           7.660911
        1.292000           28.24166           7.275228           29.20078           7.291881
        1.296000           27.90391           6.982273           28.86080           6.943897
        1.300000           27.54595           6.712481           28.49644           6.619523
        1.304000           27.17029           6.467667           28.11045           6.320983
        1.308000           26.77964           6.249249           27.70528           6.050067
        1.312000           26.37671           6.058417           27.28388           5.808281
        1.316000           25.96438           5.895922           26.84951           5.596797
        1.320000           25.54542           5.762187           26.40496           5.416366
        1.324000           25.12269           5.657315           25.95337           5.267477
        1.328000           24.69890           5.581122           25.49773           5.150257
        1.332000           24.27667           5.533098           25.04101           5.064481
        1.336000           23.85847           5.512450           24.58627           5.009624
        1.340000           23.44677           5.518186           24.13620           4.984863
        1.344000           23.04363           5.549022           23.69335           4.989055
        1.348000           22.65109           5.603563           23.26034           5.020806
        1.352000           22.27077           5.680227           22.83923           5.078510
        1.356000           21.90434           5.777295           22.43205           5.160324
        1.360000           21.55311           5.892907           22.04063           5.264244
        1.364000           21.21800           6.025223           21.66635           5.388165
        1.368000           20.90008           6.172296           21.31032           5.529860
        1.372000           20.59986           6.332115           20.97359           5.687040
        1.376000           20.31784           6.502716           20.65660           5.857430
        1.380000           20.05424           6.682167           20.35974           6.038726
        1.384000           19.80906           6.868459           20.08319           6.228673
        1.388000           19.58210           7.059715           19.82672           6.425104
        1.392000           19.37298           7.254116           19.58990           6.625911
        1.396000           19.18113           7.449894           19.37213           6.829098
        1.400000           19.00576           7.645434           19.17260           7.032842
        1.404000           18.84595           7.839208           18.99030           7.235462
        1.408000           18.70058           8.029837           18.82402           7.435426
        1.412000           18.56845           8.216129           18.67246           7.631443
        1.416000           18.44815           8.397134           18.53414           7.822433
        1.420000           18.33824           8.572022           18.40753           8.007519
        1.424000           18.23727           8.740237           18.29117           8.186066
        1.428000           18.14363           8.901450           18.18340           8.357669
        1.432000           18.05580           9.055552           18.08264           8.522202
        1.436000           17.97238           9.202652           17.98742           8.679674
        1.440000           17.89187           9.343124           17.89624           8.830432
        1.444000           17.81305           9.477491           17.80791           8.974880
        1.448000           17.73475           9.606439           17.72119           9.113686
        1.452000           17.65598           9.730822           17.63508           9.247588
        1.456000           17.57596           9.851582           17.54868           9.377448
        1.460000           17.49405           9.969797           17.46141           9.504207
        1.464000           17.40983           10.08651           17.37275           9.628826
        1.468000           17.32306           10.20286           17.28232           9.752304
        1.472000           17.23369           10.31993           17.19001           9.875649
        1.476000           17.14179           10.43876           17.09570           9.999879
        1.480000           17.04768           10.56038           16.99958           10.12590
        1.484000           16.95177           10.68577           16.90186           10.25469
        1.488000           16.85461           10.81581           16.80292           10.38708
        1.492000           16.75695           10.95122           16.70331           10.52388
        1.496000           16.65948           11.09268           16.60364           10.66583
        1.500000           16.56324           11.24070           16.50466           10.81356
        1.504000           16.46915           11.39571           16.40721           10.96757
        1.508000           16.37827           11.55790           16.31230           11.12826
        1.512000           16.29169           11.72736           16.22082           11.29589
        1.516000           16.21060           11.90400           16.13396           11.47053
        1.520000           16.13604           12.08753           16.05273           11.65206
        1.524000           16.06913           12.27752           15.97827           11.84028
        1.528000           16.01090           12.47336           15.91172           12.03476
        1.532000           15.96231           12.67431           15.85409           12.23492
        1.536000           15.92425           12.87946           15.80630           12.43993
        1.540000           15.89746           13.08776           15.76931           12.64898
        1.544000           15.88257           13.29803           15.74382           12.86094
        1.548000           15.88007           13.50901           15.73049           13.07464
        1.552000           15.89025           13.71938           15.72979           13.28889
        1.556000           15.91335           13.92769           15.74211           13.50226
        1.560000           15.94924           14.13249           15.76758           13.71329
        1.564000           15.99769           14.33225           15.80617           13.92050
        1.568000           16.05838           14.52547           15.85771           14.12234
        1.572000           16.13061           14.71064           15.92177           14.31730
        1.576000           16.21353           14.88637           15.99775           14.50377
        1.580000           16.30617           15.05121           16.08484           14.68034
        1.584000           16.40719           15.20393           16.18194           14.84543
        1.588000           16.51514           15.34334           16.28780           14.99774
        1.592000           16.62835           15.46851           16.40088           15.13605
        1.596000           16.74501           15.57868           16.51950           15.25922
        1.600000           16.86307           15.67330           16.64177           15.36647
        1.604000           16.98046           15.75214           16.76549           15.45713
        1.608000           17.09495           15.81521           16.88851           15.53080
        1.612000           17.20431           15.86292           17.00837           15.58761
        1.616000           17.30637           15.89596           17.12268           15.62772
        1.620000           17.39895           15.91538           17.22909           15.65192
        1.624000           17.48003           15.92253           17.32519           15.66131
        1.628000           17.54787           15.91909           17.40873           15.65731
        1.632000           17.60084           15.90702           17.47767           15.64176
        1.636000           17.63765           15.88853           17.53032           15.61681
        1.640000           17.65735           15.86592           17.56521           15.58485
        1.644000           17.65941           15.84173           17.58129           15.54850
        1.648000           17.64348           15.81852           17.57791           15.51055
        1.652000           17.60978           15.79888           17.55494           15.47389
        1.656000           17.55879           15.78528           17.51251           15.44137
        1.660000           17.49133           15.78018           17.45126           15.41567
        1.664000           17.40860           15.78576           17.37229           15.39950
        1.668000           17.31204           15.80407           17.27695           15.39524
        1.672000           17.20333           15.83690           17.16701           15.40493
        1.676000           17.08440           15.88571           17.04431           15.43049
        1.680000           16.95722           15.95175           16.91113           15.47326
        1.684000           16.82391           16.03591           16.76953           15.53460
        1.688000           16.68660           16.13880           16.62190           15.61513
        1.692000           16.54746           16.26074           16.47059           15.71542
        1.696000           16.40855           16.40179           16.31774           15.83565
        1.700000           16.27187           16.56175           16.16563           15.97563
        1.704000           16.13929           16.74024           16.01628           16.13504
        1.708000           16.01259           16.93666           15.87146           16.31340
        1.712000           15.89335           17.15030           15.73301           16.50983
        1.716000           15.78300           17.38034           15.60240           16.72365
        1.720000           15.68288           17.62580           15.48105           16.95383
        1.724000           15.59406           17.88571           15.37018           17.19934
        1.728000           15.51760           18.15903           15.27086           17.45908
        1.732000           15.45434           18.44477           15.18393           17.73211
        1.736000           15.40502           18.74187           15.11020           18.01727
        1.740000           15.37030           19.04928           15.05033           18.31353
        1.744000           15.35073           19.36600           15.00484           18.61986
        1.748000           15.34680           19.69100           14.97423           18.93527
        1.752000           15.35892           20.02341           14.95889           19.25875
        1.756000           15.38748           20.36222           14.95918           19.58949
        1.760000           15.43276           20.70655           14.97543           19.92648
        1.764000           15.49508           21.05547           15.00780           20.26883
        1.768000           15.57475           21.40818           15.05660           20.61578
        1.772000           15.67194           21.76371           15.12206           20.96651
        1.776000           15.78696           22.12127           15.20428           21.32017
        1.780000           15.91997           22.47997           15.30353           21.67597
        1.784000           16.07124           22.83892           15.42004           22.03316
        1.788000           16.24092           23.19724           15.55391           22.39083
        1.792000           16.42923           23.55398           15.70534           22.74834
        1.796000           16.63630           23.90815           15.87449           23.10460
        1.800000           16.86231           24.25882           16.06144           23.45895
        1.804000           17.10733           24.60496           16.26647           23.81033
        1.808000           17.37144           24.94538           16.48941           24.15792
        1.812000           17.65465           25.27901           16.73066           24.50069
        1.816000           17.95689           25.60464           16.98999           24.83746
        1.820000           18.27801           25.92107           17.26737           25.16740
        1.824000           18.61787           26.22697           17.56275           25.48920
        1.828000           18.97606           26.52105           17.87594           25.80173
        1.832000           19.35217           26.80197           18.20660           26.10383
        1.836000           19.74566           27.06839           18.55428           26.39418
        1.840000           20.15573           27.31889           18.91854           26.67167
        1.844000           20.58163           27.55220           19.29872           26.93500
        1.848000           21.02234           27.76703           19.69392           27.18299
        1.852000           21.47671           27.96214           20.10334           27.41456
        1.856000           21.94342           28.13640           20.52579           27.62859
        1.860000           22.42100           28.28876           20.96007           27.82419
        1.864000           22.90792           28.41841           21.40488           28.00050
        1.868000           23.40249           28.52471           21.85883           28.15689
        1.872000           23.90300           28.60704           22.32047           28.29288
        1.876000           24.40766           28.66515           22.78823           28.40812
        1.880000           24.91464           28.69891           23.26064           28.50278
        1.884000           25.42205           28.70851           23.73629           28.57676
        1.888000           25.92834           28.69426           24.21401           28.63033
        1.892000           26.43191           28.65670           24.69228           28.66398
        1.896000           26.93122           28.59653           25.17035           28.67842
        1.900000           27.42512           28.51460           25.64731           28.67405
        1.904000           27.91248           28.41183           26.12248           28.65163
        1.908000           28.39250           28.28911           26.59552           28.61163
        1.912000           28.86457           28.14735           27.06611           28.55456
        1.916000           29.32826           27.98731           27.53418           28.48075
        1.920000           29.78325           27.80968           27.99960           28.39027
        1.924000           30.22938           27.61491           28.46252           28.28308
        1.928000           30.66640           27.40334           28.92271           28.15896
        1.932000           31.09424           27.17489           29.37996           28.01721
        1.936000           31.51252           26.92959           29.83422           27.85732
        1.940000           31.92077           26.66695           30.28461           27.67829
        1.944000           32.31823           26.38667           30.73042           27.47926
        1.948000           32.70391           26.08832           31.17035           27.25947
        1.952000           33.07647           25.77147           31.60309           27.01791
        1.956000           33.43439           25.43584           32.02688           26.75393
        1.960000           33.77569           25.08130           32.43957           26.46692
        1.964000           34.09821           24.70815           32.83879           26.15677
        1.968000           34.39972           24.31697           33.22224           25.82359
        1.972000           34.67773           23.90888           33.58714           25.46794
        1.976000           34.92976           23.48532           33.93075           25.09068
        1.980000           35.15356           23.04823           34.25055           24.69318
        1.984000           35.34699           22.60010           34.54392           24.27726
        1.988000           35.50827           22.14375           34.80842           23.84509
        1.992000           35.63594           21.68244           35.04201           23.39930
        1.996000           35.72896           21.21962           35.24288           22.94291
        2.000000           35.78700           20.75898           35.40955           22.47894
        2.004000           35.80997           20.30429           35.54106           22.01087
        2.008000           35.79862           19.85931           35.63684           21.54233
        2.012000           35.75398           19.42774           35.69680           21.07690
        2.016000           35.67773           19.01303           35.72120           20.61822
        2.020000           35.57186           18.61849           35.71083           20.16994
        2.024000           35.43878           18.24692           35.66692           19.73540
        2.028000           35.28125           17.90096           35.59093           19.31794
        2.032000           35.10233           17.58280           35.48487           18.92070
        2.036000           34.90523           17.29425           35.35096           18.54649
        2.040000           34.69321           17.03674           35.19169           18.19787
        2.044000           34.46970           16.81116           35.00983           17.87716
        2.048000           34.23822           16.61824           34.80833           17.58626
        2.052000           34.00216           16.45811           34.59031           17.32699
        2.056000           33.76493           16.33071           34.35903           17.10061
        2.060000           33.52991           16.23556           34.11789           16.90823
        2.064000           33.30029           16.17182           33.87032           16.75057
        2.068000           33.07908           16.13843           33.61985           16.62795
        2.072000           32.86925           16.13398           33.37009           16.54051
        2.076000           32.67346           16.15683           33.12445           16.48794
        2.080000           32.49432           16.20509           32.88670           16.46957
        2.084000           32.33416           16.27666           32.66041           16.48442
        2.088000           32.19498           16.36927           32.44875           16.53112
        2.092000           32.07861           16.48045           32.25520           16.60797
        2.096000           31.98657           16.60762           32.08281           16.71292
        2.100000           31.92030           16.74810           31.93460           16.84359
        2.104000           31.88076           16.89913           31.81312           16.99722
        2.108000           31.86877           17.05777           31.72088           17.17090
        2.112000           31.88479           17.22123           31.65985           17.36145
        2.116000           31.92916           17.38650           31.63202           17.56540
        2.120000           32.00187           17.55073           31.63870           17.77908
        2.124000           32.10258           17.71093           31.68098           17.99876
        2.128000           32.23083           17.86430           31.75956           18.22053
        2.132000           32.38586           18.00787           31.87470           18.44032
        2.136000           32.56663           18.13892           32.02657           18.65408
        2.140000           32.77185           18.25469           32.21441           18.85773
        2.144000           32.99990           18.35258           32.43734           19.04713
        2.148000           33.24896           18.43003           32.69413           19.21823
        2.152000           33.51687           18.48476           32.98254           19.36702
        2.156000           33.80132           18.51455           33.30058           19.48966
        2.160000           34.09962           18.51749           33.64537           19.58261
        2.164000           34.40889           18.49185           34.01359           19.64244
        2.168000           34.72605           18.43630           34.40153           19.66618
        2.172000           35.04774           18.34978           34.80503           19.65126
        2.176000           35.37051           18.23166           35.21953           19.59557
        2.180000           35.69081           18.08164           35.64043           19.49757
        2.184000           36.00509           17.89992           36.06244           19.35637
        2.188000           36.30972           17.68709           36.48042           19.17172
        2.192000           36.60122           17.44420           36.88929           18.94411
        2.196000           36.87614           17.17273           37.28374           18.67472
        2.200000           37.13144           16.87453           37.65880           18.36536
        2.204000           37.36417           16.55185           38.00999           18.01852
        2.208000           37.57164           16.20719           38.33315           17.63731
        2.212000           37.75171           15.84343           38.62437           17.22529
        2.216000           37.90234           15.46365           38.88040           16.78641
        2.220000           38.02208           15.07107           39.09899           16.32500
        2.224000           38.10973           14.66901           39.27775           15.84553
        2.228000           38.16469           14.26092           39.41571           15.35257
        2.232000           38.18660           13.85027           39.51183           14.85078
        2.236000           38.17537           13.44046           39.56579           14.34469
        2.240000           38.13161           13.03487           39.57829           13.83874
        2.244000           38.05610           12.63674           39.54977           13.33731
        2.248000           37.94989           12.24915           39.48162           12.84429
        2.252000           37.81452           11.87505           39.37528           12.36360
        2.256000           37.65175           11.51716           39.23313           11.89878
        2.260000           37.46367           11.17797           39.05722           11.45300
        2.264000           37.25251           10.85965           38.85016           11.02918
        2.268000           37.02089           10.56417           38.61517           10.62992
        2.272000           36.77140           10.29300           38.35499           10.25724
        2.276000           36.50692           10.04742           38.07317           9.912881
        2.280000           36.23051           9.828215           37.77291           9.598130
        2.284000           35.94504           9.635836           37.45802           9.313786
        2.288000           35.65359           9.470310           37.13175           9.060207
        2.292000           35.35888           9.331182           36.79737           8.837212
        2.296000           35.06388           9.217671           36.45841           8.644253
        2.300000           34.77093           9.128633           36.11780           8.480286
        2.304000           34.48233           9.062558           35.77825           8.343936
        2.308000           34.19997           9.017642           35.44227           8.233479
        2.312000           33.92536           8.991954           35.11154           8.146930
        2.316000           33.65950           8.983352           34.78781           8.082088
        2.320000           33.40302           8.989743           34.47196           8.036793
        2.324000           33.15614           9.009007           34.16473           8.008832
        2.328000           32.91864           9.039274           33.86613           7.996150
        2.332000           32.68995           9.078835           33.57586           7.996861
        2.336000           32.46918           9.126277           33.29341           8.009419
        2.340000           32.25518           9.180634           33.01775           8.032591
        2.344000           32.04674           9.241241           32.74804           8.065582
        2.348000           31.84260           9.307916           32.48308           8.107965
        2.352000           31.64163           9.380877           32.22181           8.159797
        2.356000           31.44281           9.460659           31.96349           8.221395
        2.360000           31.24534           9.548141           31.70728           8.293527
        2.364000           31.04886           9.644483           31.45301           8.377085
        2.368000           30.85330           9.750848           31.20061           8.473211
        2.372000           30.65904           9.868551           30.95047           8.583014
        2.376000           30.46665           9.998823           30.70334           8.707598
        2.380000           30.27739           10.14269           30.46056           8.847935
        2.384000           30.09247           10.30105           30.22315           9.004760
        2.388000           29.91357           10.47440           29.99304           9.178539
        2.392000           29.74236           10.66295           29.77195           9.369387
        2.396000           29.58068           10.86659           29.56170           9.577097
        2.400000           29.43035           11.08479           29.36431           9.801026
        2.404000           29.29302           11.31678           29.18154           10.04033
        2.408000           29.17028           11.56143           29.01501           10.29375
        2.412000           29.06343           11.81737           28.86617           10.55976
        2.416000           28.97354           12.08305           28.73624           10.83662
        2.420000           28.90138           12.35671           28.62606           11.12249
        2.424000           28.84754           12.63664           28.53646           11.41533
        2.428000           28.81220           12.92107           28.46738           11.71309
        2.432000           28.79535           13.20828           28.41908           12.01378
        2.436000           28.79656           13.49657           28.39120           12.31538
        2.440000           28.81550           13.78448           28.38313           12.61606
        2.444000           28.85135           14.07070           28.39408           12.91419
        2.448000           28.90328           14.35403           28.42300           13.20815
        2.452000           28.97042           14.63369           28.46863           13.49690
        2.456000           29.05183           14.90882           28.52975           13.77933
        2.460000           29.14660           15.17898           28.60523           14.05473
        2.464000           29.25391           15.44388           28.69345           14.32272
        2.468000           29.37297           15.70324           28.79346           14.58294
        2.472000           29.50324           15.95703           28.90412           14.83545
        2.476000           29.64416           16.20516           29.02451           15.08034
        2.480000           29.79550           16.44763           29.15385           15.31784
        2.484000           29.95694           16.68432           29.29174           15.54815
        2.488000           30.12858           16.91508           29.43778           15.77149
        2.492000           30.31028           17.13953           29.59178           15.98793
        2.496000           30.50210           17.35731           29.75393           16.19743
        2.500000           30.70399           17.56773           29.92402           16.39979
        2.504000           30.91588           17.77004           30.10232           16.59445
        2.508000           31.13747           17.96329           30.28869           16.78077
        2.512000           31.36838           18.14642           30.48285           16.95787
        2.516000           31.60786           18.31837           30.68463           17.12466
        2.520000           31.85509           18.47801           30.89310           17.28013
        2.524000           32.10875           18.62431           31.10756           17.42294
        2.528000           32.36738           18.75630           31.32641           17.55202
        2.532000           32.62919           18.87329           31.54808           17.66640
        2.536000           32.89209           18.97478           31.77023           17.76526
        2.540000           33.15400           19.06074           31.99093           17.84823
        2.544000           33.41255           19.13138           32.20745           17.91533
        2.548000           33.66533           19.18738           32.41700           17.96700
        2.552000           33.91003           19.22987           32.61681           18.00421
        2.556000           34.14444           19.26047           32.80415           18.02852
        2.560000           34.36665           19.28117           32.97657           18.04214
        2.564000           34.57487           19.29440           33.13158           18.04760
        2.568000           34.76785           19.30292           33.26757           18.04806
        2.572000           34.94491           19.30971           33.38326           18.04710
        2.576000           35.10571           19.31796           33.47781           18.04851
        2.580000           35.25047           19.33093           33.55121           18.05620
        2.584000           35.38007           19.35184           33.60432           18.07428
        2.588000           35.49589           19.38374           33.63821           18.10658
        2.592000           35.59985           19.42946           33.65520           18.15689
        2.596000           35.69434           19.49146           33.65741           18.22845
        2.600000           35.78207           19.57172           33.64838           18.32422
        2.604000           35.86601           19.67186           33.63147           18.44646
        2.608000           35.94946           19.79288           33.61047           18.59710
        2.612000           36.03567           19.93534           33.58948           18.77718
        2.616000           36.12794           20.09919           33.57257           18.98735
        2.620000           36.22939           20.28394           33.56386           19.22747
        2.624000           36.34301           20.48872           33.56727           19.49714
        2.628000           36.47153           20.71216           33.58669           19.79504
        2.632000           36.61741           20.95270           33.62547           20.11976
        2.636000           36.78282           21.20851           33.68702           20.46934
        2.640000           36.96948           21.47758           33.77416           20.84154
        2.644000           37.17894           21.75776           33.88933           21.23381
        2.648000           37.41230           22.04683           34.03489           21.64350
        2.652000           37.67056           22.34279           34.21270           22.06767
        2.656000           37.95424           22.64341           34.42404           22.50341
        2.660000           38.26382           22.94666           34.67013           22.94769
        2.664000           38.59955           23.25051           34.95160           23.39745
        2.668000           38.96151           23.55313           35.26917           23.84980
        2.672000           39.34965           23.85270           35.62269           24.30153
        2.676000           39.76391           24.14751           36.01226           24.75010
        2.680000           40.20408           24.43590           36.43745           25.19259
        2.684000           40.66987           24.71637           36.89732           25.62642
        2.688000           41.16103           24.98734           37.39148           26.04928
        2.692000           41.67719           25.24734           37.91849           26.45879
        2.696000           42.21779           25.49490           38.47727           26.85298
        2.700000           42.78266           25.72864           39.06685           27.23011
        2.704000           43.37112           25.94716           39.68559           27.58851
        2.708000           43.98269           26.14909           40.33233           27.92678
        2.712000           44.61674           26.33301           41.00570           28.24369
        2.716000           45.27242           26.49757           41.70433           28.53821
        2.720000           45.94923           26.64156           42.42715           28.80935
        2.724000           46.64619           26.76367           43.17307           29.05628
        2.728000           47.36250           26.86265           43.94077           29.27814
        2.732000           48.09722           26.93737           44.72961           29.47410
        2.736000           48.84935           26.98664           45.53864           29.64343
        2.740000           49.61765           27.00940           46.36665           29.78509
        2.744000           50.40137           27.00454           47.21307           29.89845
        2.748000           51.19911           26.97116           48.07671           29.98241
        2.752000           52.00991           26.90819           48.95673           30.03613
        2.756000           52.83247           26.81475           49.85202           30.05868
        2.760000           53.66552           26.68993           50.76134           30.04909
        2.764000           54.50784           26.53285           51.68359           30.00663
        2.768000           55.35801           26.34268           52.61755           29.93047
        2.772000           56.21475           26.11862           53.56208           29.81996
        2.776000           57.07644           25.85980           54.51584           29.67428
        2.780000           57.94169           25.56550           55.47741           29.49296
        2.784000           58.80863           25.23499           56.44567           29.27541
        2.788000           59.67590           24.86752           57.41988           29.02094
        2.792000           60.54144           24.46244           58.39836           28.72890
        2.796000           61.40319           24.01927           59.38026           28.39854
        2.800000           62.25928           23.53750           60.36425           28.02897
        2.804000           63.10728           23.01683           61.34905           27.61940
        2.808000           63.94490           22.45722           62.33323           27.16868
        2.812000           64.76979           21.85867           63.31537           26.67569
        2.816000           65.57940           21.22144           64.29330           26.13915
        2.820000           66.37134           20.54612           65.26512           25.55811
        2.824000           67.14307           19.83347           66.22824           24.93126
        2.828000           67.89198           19.08462           67.17988           24.25784
        2.832000           68.61593           18.30065           68.11704           23.53678
        2.836000           69.31264           17.48318           69.03609           22.76776
        2.840000           69.97998           16.63384           69.93355           21.95080
        2.844000           70.61599           15.75455           70.80534           21.08609
        2.848000           71.21902           14.84733           71.64729           20.17462
        2.852000           71.78739           13.91451           72.45560           19.21801
        2.856000           72.32001           12.95814           73.22617           18.21804
        2.860000           72.81572           11.98072           73.95496           17.17751
        2.864000           73.27365           10.98467           74.63861           16.09969
        2.868000           73.69329           9.972490           75.27431           14.98827
        2.872000           74.07445           8.946564           75.85923           13.84749
        2.876000           74.41683           7.909387           76.39168           12.68187
        2.880000           74.72082           6.863011           76.87036           11.49584
        2.884000           74.98686           5.809659           77.29516           10.29414
        2.888000           75.21545           4.751237           77.66569           9.081291
        2.892000           75.40738           3.689489           77.98317           7.861556
        2.896000           75.56348           2.625943           78.24873           6.638973
        2.900000           75.68449           1.561624           78.46429           5.416725
        2.904000           75.77136           0.497642           78.63203           4.197872
        2.908000           75.82468          -0.565187           78.75392           2.984800
        2.912000           75.84484          -1.626241           78.83266           1.779360
        2.916000           75.83241          -2.684973           78.87024           0.582905
        2.920000           75.78754          -3.740708           78.86886          -0.603559
        2.924000           75.71020          -4.793233           78.83041          -1.779761
        2.928000           75.60011          -5.841791           78.75654          -2.945359
        2.932000           75.45692          -6.885599           78.64841          -4.100359
        2.936000           75.28027          -7.923710           78.50703          -5.244811
        2.940000           75.06963          -8.954979           78.33290          -6.378760
        2.944000           74.82463          -9.978205           78.12646          -7.502448
        2.948000           74.54465          -10.99172           77.88712          -8.615715
        2.952000           74.22944          -11.99376           77.61518          -9.718224
        2.956000           73.87883          -12.98238           77.30984          -10.80949
        2.960000           73.49284          -13.95544           76.97043          -11.88867
        2.964000           73.07182          -14.91058           76.59654          -12.95457
        2.968000           72.61616          -15.84576           76.18742          -14.00587
        2.972000           72.12654          -16.75848           75.74268          -15.04088
        2.976000           71.60401          -17.64636           75.26170          -16.05737
        2.980000           71.04985          -18.50711           74.74456          -17.05313
        2.984000           70.46556          -19.33844           74.19137          -18.02560
        2.988000           69.85290          -20.13796           73.60247          -18.97196
        2.992000           69.21363          -20.90385           72.97882          -19.88956
        2.996000           68.55016          -21.63393           72.32142          -20.77544
        3.000000           67.86486          -22.32637           71.63216          -21.62664
        3.004000           67.16042          -22.97947           70.91281          -22.44035
        3.008000           66.43983          -23.59165           70.16579          -23.21385
        3.012000           65.70613          -24.16173           69.39443          -23.94446
        3.016000           64.96274          -24.68873           68.60128          -24.63013
        3.020000           64.21326          -25.17184           67.79019          -25.26880
        3.024000           63.46149          -25.61087           66.96524          -25.85879
        3.028000           62.71129          -26.00592           66.13050          -26.39892
        3.032000           61.96682          -26.35754           65.29073          -26.88855
        3.036000           61.23181          -26.66688           64.45001          -27.32765
        3.040000           60.51039          -26.93563           63.61362          -27.71655
        3.044000           59.80615          -27.16585           62.78567          -28.05637
        3.048000           59.12259          -27.36033           61.97092          -28.34883
        3.052000           58.46285          -27.52205           61.17395          -28.59624
        3.056000           57.82961          -27.65467           60.39840          -28.80128
        3.060000           57.22493          -27.76191           59.64799          -28.96734
        3.064000           56.65051          -27.84793           58.92566          -29.09793
        3.068000           56.10738          -27.91680           58.23429          -29.19728
        3.072000           55.59611          -27.97286           57.57584          -29.26934
        3.076000           55.11663          -28.02020           56.95188          -29.31875
        3.080000           54.66845          -28.06299           56.36343          -29.34967
        3.084000           54.25047          -28.10516           55.81092          -29.36661
        3.088000           53.86142          -28.15030           55.29456          -29.37409
        3.092000           53.49947          -28.20203           54.81382          -29.37630
        3.096000           53.16245          -28.26355           54.36809          -29.37761
        3.100000           52.84798          -28.33772           53.95613          -29.38221
        3.104000           52.55318          -28.42738           53.57628          -29.39405
        3.108000           52.27517          -28.53483           53.22634          -29.41708
        3.112000           52.01052          -28.66206           52.90385          -29.45514
        3.116000           51.75576          -28.81086           52.60577          -29.51172
        3.120000           51.50701          -28.98239           52.32879          -29.58984
        3.124000           51.26029          -29.17755           52.06898          -29.69264
        3.128000           51.01139          -29.39674           51.82180          -29.82239
        3.132000           50.75603          -29.63950           51.58244          -29.98084
        3.136000           50.48984          -29.90516           51.34578          -30.16928
        3.140000           50.20853          -30.19215           51.10632          -30.38815
        3.144000           49.90822          -30.49839           50.85851          -30.63691
        3.148000           49.58482          -30.82112           50.59665          -30.91449
        3.152000           49.23506          -31.15702           50.31522          -31.21861
        3.156000           48.85591          -31.50224           50.00932          -31.54617
        3.160000           48.44516          -31.85238           49.67410          -31.89330
        3.164000           48.00097          -32.20279           49.30552          -32.25526
        3.168000           47.52243          -32.54861           48.90065          -32.62687
        3.172000           47.00933          -32.88470           48.45685          -33.00226
        3.176000           46.46204          -33.20621           47.97277          -33.37539
        3.180000           45.88196          -33.50816           47.44811          -33.74009
        3.184000           45.27093          -33.78592           46.88353          -34.09010
        3.188000           44.63169          -34.03518           46.28047          -34.41944
        3.192000           43.96713          -34.25216           45.64128          -34.72269
        3.196000           43.28102          -34.43345           44.96938          -34.99475
        3.200000           42.57726          -34.57627           44.26834          -35.23119
        3.204000           41.86018          -34.67847           43.54265          -35.42825
        3.208000           41.13420          -34.73846           42.79705          -35.58263
        3.212000           40.40401          -34.75528           42.03683          -35.69250
        3.216000           39.67392          -34.72860           41.26676          -35.75603
        3.220000           38.94853          -34.65859           40.49223          -35.77256
        3.224000           38.23211          -34.54607           39.71819          -35.74197
        3.228000           37.52868          -34.39223           38.94952          -35.66479
        3.232000           36.84202          -34.19886           38.19085          -35.54230
        3.236000           36.17574          -33.96786           37.44653          -35.37585
        3.240000           35.53275          -33.70160           36.72033          -35.16750
        3.244000           34.91585          -33.40267           36.01578          -34.91982
        3.248000           34.32746          -33.07385           35.33607          -34.63530
        3.252000           33.76957          -32.71801           34.68390          -34.31697
        3.256000           33.24385          -32.33825           34.06153          -33.96737
        3.260000           32.75153          -31.93736           33.47071          -33.58996
        3.264000           32.29361          -31.51851           32.91317          -33.18760
        3.268000           31.87083          -31.08460           32.38992          -32.76344
        3.272000           31.48358          -30.63855           31.90201          -32.32053
        3.276000           31.13201          -30.18323           31.44977          -31.86180
        3.280000           30.81608          -29.72145           31.03366          -31.39030
        3.284000           30.53542          -29.25573           30.65373          -30.90847
        3.288000           30.28962          -28.78869           30.30984          -30.41916
        3.292000           30.07805          -28.32269           30.00160          -29.92504
        3.296000           29.89982          -27.86008           29.72865          -29.42845
        3.300000           29.75406          -27.40294           29.49034          -28.93169
        3.304000           29.63970          -26.95340           29.28581          -28.43687
        3.308000           29.55552          -26.51316           29.11412          -27.94611
        3.312000           29.50023          -26.08406           28.97438          -27.46115
        3.316000           29.47251          -25.66764           28.86543          -26.98391
        3.320000           29.47093          -25.26534           28.78605          -26.51606
        3.324000           29.49402          -24.87848           28.73514          -26.05881
        3.328000           29.54027          -24.50812           28.71124          -25.61348
        3.332000           29.60816          -24.15516           28.71323          -25.18129
        3.336000           29.69622          -23.82053           28.73972          -24.76315
        3.340000           29.80297          -23.50492           28.78946          -24.35994
        3.344000           29.92699          -23.20881           28.86135          -23.97229
        3.348000           30.06684          -22.93276           28.95411          -23.60092
        3.352000           30.22135          -22.67719           29.06706          -23.24628
        3.356000           30.38920          -22.44230           29.19898          -22.90879
        3.360000           30.56926          -22.22857           29.34919          -22.58913
        3.364000           30.76044          -22.03631           29.51702          -22.28759
        3.368000           30.96163          -21.86588           29.70192          -22.00496
        3.372000           31.17180          -21.71763           29.90319          -21.74175
        3.376000           31.38991          -21.59199           30.12041          -21.49890
        3.380000           31.61481          -21.48955           30.35284          -21.27742
        3.384000           31.84525          -21.41071           30.60004          -21.07825
        3.388000           32.07997          -21.35609           30.86128          -20.90281
        3.392000           32.31748          -21.32618           31.13539          -20.75250
        3.396000           32.55620          -21.32149           31.42139          -20.62875
        3.400000           32.79438          -21.34230           31.71777          -20.53312
        3.404000           33.03010          -21.38883           32.02256          -20.46720
        3.408000           33.26137          -21.46130           32.33404          -20.43239
        3.412000           33.48603          -21.55942           32.64935          -20.43003
        3.416000           33.70194          -21.68287           32.96605          -20.46119
        3.420000           33.90689          -21.83104           33.28092          -20.52662
        3.424000           34.09862          -22.00304           33.59064          -20.62677
        3.428000           34.27499          -22.19776           33.89191          -20.76152
        3.432000           34.43397          -22.41380           34.18092          -20.93036
        3.436000           34.57357          -22.64957           34.45422          -21.13236
        3.440000           34.69199          -22.90315           34.70835          -21.36597
        3.444000           34.78765          -23.17254           34.93997          -21.62918
        3.448000           34.85914          -23.45546           35.14592          -21.91956
        3.452000           34.90527          -23.74951           35.32338          -22.23418
        3.456000           34.92508          -24.05221           35.47005          -22.56988
        3.460000           34.91795          -24.36076           35.58398          -22.92322
        3.464000           34.88347          -24.67257           35.66367          -23.29033
        3.468000           34.82151          -24.98487           35.70788          -23.66753
        3.472000           34.73228          -25.29474           35.71634          -24.05085
        3.476000           34.61628          -25.59942           35.68882          -24.43631
        3.480000           34.47433          -25.89616           35.62570          -24.82011
        3.484000           34.30754          -26.18223           35.52770          -25.19836
        3.488000           34.11725          -26.45531           35.39613          -25.56766
        3.492000           33.90522          -26.71279           35.23257          -25.92433
        3.496000           33.67338          -26.95247           35.03884          -26.26538
        3.500000           33.42385          -27.17248           34.81728          -26.58774
        3.504000           33.15918          -27.37100           34.57036          -26.88880
        3.508000           32.88182          -27.54663           34.30098          -27.16630
        3.512000           32.59457          -27.69811           34.01193          -27.41800
        3.516000           32.30039          -27.82460           33.70655          -27.64231
        3.520000           32.00219          -27.92555           33.38800          -27.83791
        3.524000           31.70311          -28.00071           33.05980          -28.00359
        3.528000           31.40624          -28.05027           32.72538          -28.13888
        3.532000           31.11464          -28.07471           32.38851          -28.24362
        3.536000           30.83133          -28.07492           32.05260          -28.31759
        3.540000           30.55924          -28.05215           31.72129          -28.36164
        3.544000           30.30120          -28.00784           31.39815          -28.37650
        3.548000           30.05979          -27.94403           31.08649          -28.36354
        3.552000           29.83744          -27.86290           30.78962          -28.32445
        3.556000           29.63619          -27.76691           30.51066          -28.26126
        3.560000           29.45794          -27.65882           30.25236          -28.17625
        3.564000           29.30420          -27.54166           30.01734          -28.07235
        3.568000           29.17611          -27.41855           29.80777          -27.95243
        3.572000           29.07448          -27.29283           29.62569          -27.81991
        3.576000           28.99974          -27.16785           29.47267          -27.67810
        3.580000           28.95188          -27.04717           29.34976          -27.53082
        3.584000           28.93051          -26.93421           29.25778          -27.38188
        3.588000           28.93486          -26.83251           29.19715          -27.23529
        3.592000           28.96369          -26.74555           29.16759          -27.09499
        3.596000           29.01537          -26.67661           29.16870          -26.96511
        3.600000           29.08779          -26.62891           29.19928          -26.84976
        3.604000           29.17850          -26.60541           29.25790          -26.75292
        3.608000           29.28456          -26.60889           29.34249          -26.67847
        3.612000           29.40269          -26.64170           29.45045          -26.63028
        3.616000           29.52919          -26.70588           29.57857          -26.61184
        3.620000           29.66005          -26.80304           29.72340          -26.62635
        3.624000           29.79104          -26.93420           29.88063          -26.67651
        3.628000           29.91761          -27.09983           30.04570          -26.76465
        3.632000           30.03516          -27.29978           30.21357          -26.89258
        3.636000           30.13898          -27.53329           30.37880          -27.06131
        3.640000           30.22453          -27.79879           30.53581          -27.27096
        3.644000           30.28744          -28.09418           30.67868          -27.52103
        3.648000           30.32358          -28.41661           30.80175          -27.81003
        3.652000           30.32940          -28.76264           30.89931          -28.13554
        3.656000           30.30178          -29.12829           30.96608          -28.49415
        3.660000           30.23820          -29.50926           30.99748          -28.88183
        3.664000           30.13694          -29.90074           30.98933          -29.29353
        3.668000           29.99693          -30.29797           30.93832          -29.72399
        3.672000           29.81783          -30.69605           30.84236          -30.16692
        3.676000           29.60013          -31.09007           30.70003          -30.61631
        3.680000           29.34494          -31.47550           30.51116          -31.06567
        3.684000           29.05402          -31.84795           30.27649          -31.50893
        3.688000           28.72963          -32.20369           29.99785          -31.94019
        3.692000           28.37453          -32.53926           29.67759          -32.35416
        3.696000           27.99170          -32.85188           29.31948          -32.74625
        3.700000           27.58449          -33.13918           28.92692          -33.11230
        3.704000           27.15625          -33.39944           28.50457          -33.44930
        3.708000           26.71048          -33.63145           28.05655          -33.75489
        3.712000           26.25037          -33.83449           27.58772          -34.02746
        3.716000           25.77926          -34.00833           27.10210          -34.26630
        3.720000           25.30015          -34.15293           26.60416          -34.47118
        3.724000           24.81581          -34.26871           26.09772          -34.64262
        3.728000           24.32891          -34.35638           25.58635          -34.78123
        3.732000           23.84164          -34.41673           25.07309          -34.88834
        3.736000           23.35614          -34.45074           24.56070          -34.96524
        3.740000           22.87429          -34.45954           24.05137          -35.01355
        3.744000           22.39774          -34.44411           23.54731          -35.03493
        3.748000           21.92797          -34.40572           23.04987          -35.03083
        3.752000           21.46636          -34.34550           22.56072          -35.00299
        3.756000           21.01401          -34.26461           22.08079          -34.95287
        3.760000           20.57205          -34.16428           21.61115          -34.88198
        3.764000           20.14148          -34.04565           21.15273          -34.79153
        3.768000           19.72321          -33.91001           20.70616          -34.68292
        3.772000           19.31804          -33.75853           20.27231          -34.55757
        3.776000           18.92676          -33.59253           19.85174          -34.41658
        3.780000           18.54991          -33.41321           19.44489          -34.26115
        3.784000           18.18812          -33.22199           19.05246          -34.09273
        3.788000           17.84181          -33.02016           18.67480          -33.91218
        3.792000           17.51136          -32.80909           18.31235          -33.72118
        3.796000           17.19702          -32.59021           17.96545          -33.52103
        3.800000           16.89884          -32.36490           17.63428          -33.31295
        3.804000           16.61686          -32.13452           17.31886          -33.09822
        3.808000           16.35095          -31.90052           17.01923          -32.87851
        3.812000           16.10085          -31.66424           16.73526          -32.65491
        3.816000           15.86617          -31.42696           16.46663          -32.42892
        3.820000           15.64641          -31.19007           16.21301          -32.20182
        3.824000           15.44090          -30.95463           15.97368          -31.97482
        3.828000           15.24887          -30.72188           15.74803          -31.74927
        3.832000           15.06945          -30.49283           15.53520          -31.52616
        3.836000           14.90161          -30.26838           15.33424          -31.30645
        3.840000           14.74428          -30.04930           15.14411          -31.09115
        3.844000           14.59624          -29.83626           14.96358          -30.88089
        3.848000           14.45625          -29.62968           14.79143          -30.67613
        3.852000           14.32299          -29.42987           14.62633          -30.47727
        3.856000           14.19514          -29.23696           14.46694          -30.28449
        3.860000           14.07141          -29.05080           14.31193          -30.09764
        3.864000           13.95054          -28.87102           14.16000          -29.91662
        3.868000           13.83134          -28.69721           14.00999          -29.74081
        3.872000           13.71275          -28.52858           13.86076          -29.56957
        3.876000           13.59389          -28.36438           13.71138          -29.40200
        3.880000           13.47403          -28.20357           13.56111          -29.23728
        3.884000           13.35267          -28.04511           13.40941          -29.07424
        3.888000           13.22950          -27.88791           13.25589          -28.91179
        3.892000           13.10442          -27.73079           13.10043          -28.74884
        3.896000           12.97757          -27.57271           12.94313          -28.58408
        3.900000           12.84928          -27.41266           12.78429          -28.41668
        3.904000           12.72001          -27.24977           12.62436          -28.24555
        3.908000           12.59042          -27.08328           12.46402          -28.06998
        3.912000           12.46119          -26.91249           12.30389          -27.88916
        3.916000           12.33316          -26.73704           12.14480          -27.70265
        3.920000           12.20715          -26.55665           11.98768          -27.51009
        3.924000           12.08398          -26.37117           11.83326          -27.31128
        3.928000           11.96445          -26.18059           11.68249          -27.10612
        3.932000           11.84936          -25.98509           11.53618          -26.89459
        3.936000           11.73934          -25.78487           11.39508          -26.67696
        3.940000           11.63504          -25.58027           11.25991          -26.45337
        3.944000           11.53698          -25.37169           11.13131          -26.22435
        3.948000           11.44561          -25.15958           11.00985          -25.99006
        3.952000           11.36127          -24.94437           10.89608          -25.75099
        3.956000           11.28427          -24.72653           10.79038          -25.50770
        3.960000           11.21478          -24.50648           10.69315          -25.26043
        3.964000           11.15298          -24.28468           10.60474          -25.00986
        3.968000           11.09898          -24.06150           10.52538          -24.75624
        3.972000           11.05283          -23.83731           10.45534          -24.50026
        3.976000           11.01461          -23.61245           10.39481          -24.24222
        3.980000           10.98436          -23.38723           10.34400          -23.98262
        3.984000           10.96215          -23.16182           10.30295          -23.72187
        3.988000           10.94803          -22.93659           10.27190          -23.46037
        3.992000           10.94210          -22.71167           10.25095          -23.19859
        3.996000           10.94448          -22.48730           10.24021          -22.93699
        4.000000           10.95533          -22.26374           10.23978          -22.67575
# 
# 10/28/2023 at 15:30 yambo @ unimi-XPS-8930 [start]
# 10/28/2023 at 15:30                        [end]
#  
# Timing   [Min/Max/Average]: 11s/11s/11s
#
# .-Input file  yambo.in
# | optics                           # [R] Linear Response optical properties
# | bss                              # [R] BSE solver
# | bse                              # [R][BSE] Bethe Salpeter Equation.
# | tddft                            # [R][K] Use TDDFT kernel
# | ElecTemp= 0.025861         eV    # Electronic Temperature
# | BoseTemp= 0.025861         eV    # Bosonic Temperature
# | FFTGvecs=  603             RL    # [FFT] Plane-waves
# | BS_nCPU_LinAlg_INV= 1            # [PARALLEL] CPUs for Linear Algebra (if -1 it is automatically set)
# | BS_nCPU_LinAlg_DIAGO= 1          # [PARALLEL] CPUs for Linear Algebra (if -1 it is automatically set)
# | X_Threads= 1                     # [OPENMP/X] Number of threads for response functions
# | DIP_Threads= 1                   # [OPENMP/X] Number of threads for dipoles
# | K_Threads= 1                     # [OPENMP/BSK] Number of threads for response functions
# | BSKmod= "ALDA"                   # [BSE] IP/Hartree/HF/ALDA/SEX/BSfxc
# | BSEmod= "resonant"               # [BSE] resonant/retarded/coupling
# | BSSmod= "d"                      # [BSS] (h)aydock/(d)iagonalization/(s)lepc/(i)nversion/(t)ddft`
# | DipComputed= "R V P"             # [DIP] [default R P V; extra P2 Spin Orb]
# | BSENGexx= 1157             RL    # [BSK] Exchange components
# | BSENGfxc= 1157             RL    # [BSK] Fxc components
# | % BSEQptR
# |  1 | 2 |                             # [BSK] Transferred momenta range
# | %
# | % BSEBands
# |   2 |  6 |                           # [BSK] Bands range
# | %
# | % BEnRange
# | -2.000000 | 4.000000 |         eV    # [BSS] Energy range
# | %
# | % BDmRange
# |  0.100000 | 0.100000 |         eV    # [BSS] Damping range
# | %
# | BEnSteps= 1501                   # [BSS] Energy steps
# | % BLongDir
# |  0.000000 | 1.000000 | 0.000000 |        # [BSS] [cc] Electric Field versor
# | %
# | BSEprop= " abs jdos"             # [BSS] Can be any among abs/jdos/kerr/asymm/anHAll/magn/dich/photolum/esrt
# | BSEdips= "none"                  # [BSS] Can be "trace/none" or "xy/xz/yz" to define off-diagonal rotation plane
# | #WRbsWF                        # [BSS] Write to disk excitonic the WFs
