#                                                                     
#                                                                     
# Y88b    /   e           e    e      888~~\    ,88~-_                
#  Y88b  /   d8b         d8b  d8b     888   |  d888   \               
#   Y88b/   /Y88b       d888bdY88b    888 _/  88888    |              
#    Y8Y   /  Y88b     / Y88Y Y888b   888  \  88888    |              
#     Y   /____Y88b   /   YY   Y888b  888   |  Y888   /               
#    /   /      Y88b /          Y888b 888__/    `88_-~                
#                                                                     
#                                                                     
# Version 5.2.0 Revision 22885 Hash (prev commit) 41fc9d87d4          
#                Branch is phys-dichroism                             
#         MPI+OpenMP+SLK+SLEPC+HDF5_MPI_IO Build                      
#               http://www.yambo-code.org                             
#
# Joint Density of states @ Q(2):   0.00000000      0.00000000    -0.500000000    [iku]
#
# [GEN] GF Energies                               : Perdew, Burke & Ernzerhof(X)+Perdew, Burke & Ernzerhof(C)
# [GEN] Green`s Function                          : Resonant
#
# DIP band range                                  :   2   6
# DIP band range limits                           :   6   2
# DIP e/h energy range                            :  -1.00000000     -1.00000000    [eV]
# RL vectors in the sum                           :   603
# [r,Vnl] included                                : yes
# Bands ordered                                   : no
# Direct v evaluation                             : no
# Approach used                                   : G-space v
# Dipoles computed                                : R V P Spin
# Wavefunctions                                   : Perdew, Burke & Ernzerhof(X)+Perdew, Burke & Ernzerhof(C)
#
#
# [K] Identifier                                  :  2212
# [K] Q-point                                     :   0.00000000      0.00000000    -0.500000000   
# [K] Dimension                                   :   885
# [K] Bands                                       :   2   6
# [K] Exchange res                                : yes
# [K] Correlation res                             : no
# [K] Kernel`s coupling                           : no
# [K] Exchange cpl                                : no
# [K] Correlation cpl                             : no
# [K] W interaction is bare                       : no
# [K] ALDA kernel in R-space                      : yes
# [K] RL vectors exchange                         :  1157
# [K] E/h energy range                            :  -1.00000000     -1.00000000    [eV]
# [K] Coupling range                              :   100.000000      100.000000    [o/o]
# [X] Response Kind                               : BAR
#
#
#    E[1] [eV]          Im(jdos)           Re(jdos)           Im(jdos_o)         Re(jdos_o)
#
       -2.000000           0.218383           10.76052           0.213232           10.68382
       -1.996000           0.218790           10.76924           0.213614           10.69234
       -1.992000           0.219198           10.77800           0.213996           10.70088
       -1.988000           0.219608           10.78676           0.214380           10.70943
       -1.984000           0.220019           10.79553           0.214765           10.71800
       -1.980000           0.220431           10.80433           0.215151           10.72663
       -1.976000           0.220844           10.81314           0.215538           10.73521
       -1.972000           0.221259           10.82198           0.215927           10.74381
       -1.968000           0.221676           10.83082           0.216316           10.75245
       -1.964000           0.222093           10.83969           0.216707           10.76109
       -1.960000           0.222513           10.84857           0.217099           10.76976
       -1.956000           0.222933           10.85746           0.217493           10.77847
       -1.952000           0.223355           10.86638           0.217887           10.78716
       -1.948000           0.223779           10.87531           0.218282           10.79587
       -1.944000           0.224203           10.88426           0.218679           10.80459
       -1.940000           0.224630           10.89322           0.219077           10.81333
       -1.936000           0.225058           10.90220           0.219477           10.82210
       -1.932000           0.225487           10.91119           0.219877           10.83088
       -1.928000           0.225918           10.92021           0.220279           10.83967
       -1.924000           0.226350           10.92925           0.220683           10.84847
       -1.920000           0.226784           10.93830           0.221087           10.85731
       -1.916000           0.227220           10.94736           0.221493           10.86614
       -1.912000           0.227656           10.95644           0.221900           10.87500
       -1.908000           0.228094           10.96556           0.222308           10.88388
       -1.904000           0.228534           10.97467           0.222717           10.89275
       -1.900000           0.228976           10.98381           0.223129           10.90167
       -1.896000           0.229419           10.99297           0.223540           10.91058
       -1.892000           0.229863           11.00214           0.223954           10.91952
       -1.888000           0.230309           11.01132           0.224369           10.92846
       -1.884000           0.230757           11.02053           0.224785           10.93745
       -1.880000           0.231207           11.02976           0.225201           10.94643
       -1.876000           0.231657           11.03901           0.225621           10.95547
       -1.872000           0.232110           11.04828           0.226041           10.96449
       -1.868000           0.232564           11.05755           0.226462           10.97352
       -1.864000           0.233020           11.06684           0.226884           10.98256
       -1.860000           0.233477           11.07617           0.227309           10.99161
       -1.856000           0.233936           11.08550           0.227735           11.00075
       -1.852000           0.234397           11.09484           0.228161           11.00985
       -1.848000           0.234859           11.10422           0.228589           11.01897
       -1.844000           0.235323           11.11360           0.229019           11.02810
       -1.840000           0.235789           11.12302           0.229450           11.03726
       -1.836000           0.236256           11.13243           0.229882           11.04642
       -1.832000           0.236725           11.14189           0.230316           11.05563
       -1.828000           0.237197           11.15135           0.230751           11.06485
       -1.824000           0.237669           11.16084           0.231188           11.07408
       -1.820000           0.238143           11.17034           0.231626           11.08329
       -1.816000           0.238619           11.17985           0.232065           11.09258
       -1.812000           0.239097           11.18940           0.232506           11.10186
       -1.808000           0.239577           11.19896           0.232948           11.11114
       -1.804000           0.240059           11.20853           0.233392           11.12047
       -1.800000           0.240542           11.21813           0.233838           11.12978
       -1.796000           0.241027           11.22775           0.234284           11.13913
       -1.792000           0.241514           11.23739           0.234732           11.14850
       -1.788000           0.242003           11.24704           0.235181           11.15789
       -1.784000           0.242493           11.25670           0.235633           11.16731
       -1.780000           0.242985           11.26640           0.236087           11.17672
       -1.776000           0.243480           11.27611           0.236540           11.18618
       -1.772000           0.243976           11.28585           0.236996           11.19562
       -1.768000           0.244474           11.29561           0.237453           11.20508
       -1.764000           0.244974           11.30537           0.237912           11.21460
       -1.760000           0.245476           11.31517           0.238372           11.22408
       -1.756000           0.245980           11.32499           0.238835           11.23365
       -1.752000           0.246486           11.33480           0.239298           11.24317
       -1.748000           0.246994           11.34467           0.239763           11.25276
       -1.744000           0.247504           11.35454           0.240230           11.26234
       -1.740000           0.248015           11.36443           0.240698           11.27195
       -1.736000           0.248529           11.37436           0.241167           11.28158
       -1.732000           0.249045           11.38429           0.241638           11.29121
       -1.728000           0.249563           11.39424           0.242111           11.30085
       -1.724000           0.250082           11.40422           0.242586           11.31053
       -1.720000           0.250604           11.41420           0.243062           11.32024
       -1.716000           0.251128           11.42423           0.243539           11.32998
       -1.712000           0.251655           11.43428           0.244019           11.33971
       -1.708000           0.252183           11.44433           0.244500           11.34948
       -1.704000           0.252713           11.45439           0.244983           11.35924
       -1.700000           0.253246           11.46451           0.245467           11.36906
       -1.696000           0.253780           11.47464           0.245953           11.37888
       -1.692000           0.254317           11.48478           0.246441           11.38867
       -1.688000           0.254856           11.49495           0.246931           11.39857
       -1.684000           0.255397           11.50513           0.247422           11.40843
       -1.680000           0.255941           11.51534           0.247915           11.41833
       -1.676000           0.256486           11.52556           0.248409           11.42823
       -1.672000           0.257034           11.53582           0.248905           11.43813
       -1.668000           0.257585           11.54609           0.249403           11.44808
       -1.664000           0.258137           11.55639           0.249904           11.45806
       -1.660000           0.258691           11.56671           0.250405           11.46807
       -1.656000           0.259249           11.57704           0.250908           11.47807
       -1.652000           0.259808           11.58740           0.251413           11.48808
       -1.648000           0.260370           11.59779           0.251920           11.49815
       -1.644000           0.260934           11.60819           0.252428           11.50825
       -1.640000           0.261501           11.61862           0.252939           11.51831
       -1.636000           0.262070           11.62908           0.253452           11.52843
       -1.632000           0.262640           11.63955           0.253965           11.53854
       -1.628000           0.263214           11.65003           0.254482           11.54871
       -1.624000           0.263791           11.66058           0.255000           11.55889
       -1.620000           0.264370           11.67111           0.255519           11.56908
       -1.616000           0.264951           11.68167           0.256041           11.57929
       -1.612000           0.265535           11.69225           0.256564           11.58956
       -1.608000           0.266121           11.70287           0.257090           11.59981
       -1.604000           0.266710           11.71351           0.257617           11.61007
       -1.600000           0.267302           11.72415           0.258146           11.62038
       -1.596000           0.267895           11.73486           0.258677           11.63070
       -1.592000           0.268492           11.74556           0.259210           11.64104
       -1.588000           0.269091           11.75627           0.259745           11.65142
       -1.584000           0.269694           11.76703           0.260281           11.66181
       -1.580000           0.270298           11.77781           0.260820           11.67217
       -1.576000           0.270906           11.78861           0.261361           11.68264
       -1.572000           0.271516           11.79945           0.261904           11.69307
       -1.568000           0.272129           11.81028           0.262448           11.70354
       -1.564000           0.272745           11.82116           0.262996           11.71403
       -1.560000           0.273364           11.83207           0.263545           11.72458
       -1.556000           0.273985           11.84299           0.264095           11.73508
       -1.552000           0.274609           11.85391           0.264649           11.74566
       -1.548000           0.275236           11.86492           0.265204           11.75623
       -1.544000           0.275866           11.87591           0.265761           11.76680
       -1.540000           0.276500           11.88690           0.266320           11.77746
       -1.536000           0.277136           11.89797           0.266881           11.78807
       -1.532000           0.277775           11.90905           0.267444           11.79876
       -1.528000           0.278417           11.92015           0.268011           11.80943
       -1.524000           0.279062           11.93126           0.268577           11.82016
       -1.520000           0.279710           11.94241           0.269147           11.83093
       -1.516000           0.280362           11.95358           0.269720           11.84165
       -1.512000           0.281016           11.96479           0.270293           11.85246
       -1.508000           0.281673           11.97603           0.270870           11.86325
       -1.504000           0.282334           11.98728           0.271449           11.87407
       -1.500000           0.282998           11.99853           0.272029           11.88492
       -1.496000           0.283665           12.00986           0.272613           11.89579
       -1.492000           0.284336           12.02119           0.273198           11.90670
       -1.488000           0.285010           12.03254           0.273785           11.91761
       -1.484000           0.285687           12.04394           0.274375           11.92857
       -1.480000           0.286368           12.05534           0.274967           11.93955
       -1.476000           0.287052           12.06679           0.275561           11.95052
       -1.472000           0.287739           12.07827           0.276158           11.96151
       -1.468000           0.288430           12.08975           0.276757           11.97256
       -1.464000           0.289125           12.10125           0.277358           11.98362
       -1.460000           0.289823           12.11281           0.277962           11.99472
       -1.456000           0.290524           12.12439           0.278568           12.00586
       -1.452000           0.291229           12.13600           0.279176           12.01697
       -1.448000           0.291939           12.14762           0.279787           12.02815
       -1.444000           0.292651           12.15930           0.280400           12.03930
       -1.440000           0.293368           12.17100           0.281016           12.05054
       -1.436000           0.294088           12.18270           0.281633           12.06175
       -1.432000           0.294812           12.19444           0.282255           12.07299
       -1.428000           0.295539           12.20622           0.282877           12.08428
       -1.424000           0.296271           12.21802           0.283503           12.09558
       -1.420000           0.297007           12.22985           0.284131           12.10694
       -1.416000           0.297747           12.24171           0.284762           12.11827
       -1.412000           0.298490           12.25361           0.285395           12.12967
       -1.408000           0.299238           12.26551           0.286030           12.14110
       -1.404000           0.299990           12.27747           0.286668           12.15251
       -1.400000           0.300746           12.28945           0.287310           12.16397
       -1.396000           0.301506           12.30147           0.287953           12.17542
       -1.392000           0.302271           12.31350           0.288599           12.18694
       -1.388000           0.303039           12.32557           0.289248           12.19849
       -1.384000           0.303813           12.33767           0.289899           12.21006
       -1.380000           0.304591           12.34980           0.290553           12.22165
       -1.376000           0.305373           12.36196           0.291210           12.23328
       -1.372000           0.306159           12.37416           0.291869           12.24489
       -1.368000           0.306951           12.38637           0.292532           12.25657
       -1.364000           0.307747           12.39863           0.293197           12.26824
       -1.360000           0.308547           12.41091           0.293864           12.27995
       -1.356000           0.309353           12.42324           0.294535           12.29171
       -1.352000           0.310163           12.43557           0.295208           12.30348
       -1.348000           0.310978           12.44795           0.295884           12.31525
       -1.344000           0.311798           12.46039           0.296563           12.32711
       -1.340000           0.312622           12.47282           0.297244           12.33896
       -1.336000           0.313453           12.48531           0.297930           12.35084
       -1.332000           0.314288           12.49781           0.298617           12.36273
       -1.328000           0.315128           12.51037           0.299308           12.37465
       -1.324000           0.315974           12.52293           0.300001           12.38666
       -1.320000           0.316824           12.53554           0.300698           12.39863
       -1.316000           0.317681           12.54818           0.301397           12.41065
       -1.312000           0.318542           12.56089           0.302100           12.42268
       -1.308000           0.319410           12.57359           0.302805           12.43475
       -1.304000           0.320282           12.58632           0.303513           12.44685
       -1.300000           0.321161           12.59910           0.304225           12.45899
       -1.296000           0.322045           12.61192           0.304941           12.47117
       -1.292000           0.322935           12.62478           0.305658           12.48334
       -1.288000           0.323832           12.63766           0.306379           12.49554
       -1.284000           0.324734           12.65058           0.307102           12.50777
       -1.280000           0.325642           12.66355           0.307830           12.52005
       -1.276000           0.326557           12.67653           0.308561           12.53236
       -1.272000           0.327477           12.68956           0.309294           12.54469
       -1.268000           0.328404           12.70261           0.310031           12.55706
       -1.264000           0.329338           12.71571           0.310772           12.56943
       -1.260000           0.330278           12.72885           0.311515           12.58184
       -1.256000           0.331225           12.74202           0.312262           12.59430
       -1.252000           0.332179           12.75524           0.313013           12.60679
       -1.248000           0.333139           12.76849           0.313766           12.61931
       -1.244000           0.334107           12.78178           0.314522           12.63184
       -1.240000           0.335082           12.79508           0.315284           12.64438
       -1.236000           0.336064           12.80846           0.316047           12.65697
       -1.232000           0.337053           12.82185           0.316814           12.66962
       -1.228000           0.338049           12.83529           0.317585           12.68230
       -1.224000           0.339054           12.84876           0.318359           12.69499
       -1.220000           0.340065           12.86228           0.319136           12.70768
       -1.216000           0.341085           12.87586           0.319919           12.72046
       -1.212000           0.342113           12.88943           0.320703           12.73322
       -1.208000           0.343149           12.90308           0.321492           12.74602
       -1.204000           0.344193           12.91673           0.322284           12.75887
       -1.200000           0.345246           12.93047           0.323080           12.77179
       -1.196000           0.346306           12.94423           0.323880           12.78465
       -1.192000           0.347376           12.95801           0.324683           12.79761
       -1.188000           0.348455           12.97188           0.325491           12.81057
       -1.184000           0.349543           12.98574           0.326302           12.82358
       -1.180000           0.350639           12.99966           0.327116           12.83662
       -1.176000           0.351745           13.01364           0.327935           12.84969
       -1.172000           0.352861           13.02765           0.328759           12.86282
       -1.168000           0.353986           13.04170           0.329585           12.87593
       -1.164000           0.355122           13.05579           0.330415           12.88909
       -1.160000           0.356267           13.06994           0.331249           12.90230
       -1.156000           0.357423           13.08412           0.332089           12.91552
       -1.152000           0.358589           13.09833           0.332931           12.92879
       -1.148000           0.359765           13.11263           0.333776           12.94209
       -1.144000           0.360954           13.12696           0.334627           12.95545
       -1.140000           0.362152           13.14131           0.335483           12.96883
       -1.136000           0.363363           13.15571           0.336342           12.98216
       -1.132000           0.364584           13.17018           0.337205           12.99566
       -1.128000           0.365818           13.18468           0.338073           13.00910
       -1.124000           0.367064           13.19924           0.338944           13.02260
       -1.120000           0.368322           13.21384           0.339820           13.03616
       -1.116000           0.369593           13.22847           0.340701           13.04974
       -1.112000           0.370877           13.24317           0.341586           13.06334
       -1.108000           0.372174           13.25791           0.342476           13.07698
       -1.104000           0.373484           13.27272           0.343369           13.09064
       -1.100000           0.374809           13.28755           0.344268           13.10438
       -1.096000           0.376147           13.30246           0.345170           13.11811
       -1.092000           0.377499           13.31740           0.346076           13.13190
       -1.088000           0.378868           13.33241           0.346989           13.14571
       -1.084000           0.380251           13.34745           0.347906           13.15957
       -1.080000           0.381649           13.36255           0.348828           13.17345
       -1.076000           0.383064           13.37770           0.349754           13.18741
       -1.072000           0.384494           13.39291           0.350684           13.20138
       -1.068000           0.385941           13.40817           0.351620           13.21537
       -1.064000           0.387406           13.42348           0.352560           13.22940
       -1.060000           0.388888           13.43887           0.353506           13.24351
       -1.056000           0.390389           13.45428           0.354457           13.25761
       -1.052000           0.391907           13.46976           0.355412           13.27177
       -1.048000           0.393444           13.48530           0.356372           13.28599
       -1.044000           0.395002           13.50090           0.357337           13.30016
       -1.040000           0.396579           13.51655           0.358308           13.31447
       -1.036000           0.398177           13.53226           0.359283           13.32879
       -1.032000           0.399796           13.54804           0.360264           13.34313
       -1.028000           0.401438           13.56387           0.361250           13.35751
       -1.024000           0.403100           13.57976           0.362242           13.37195
       -1.020000           0.404786           13.59571           0.363240           13.38639
       -1.016000           0.406496           13.61172           0.364242           13.40089
       -1.012000           0.408231           13.62779           0.365249           13.41547
       -1.008000           0.409990           13.64392           0.366263           13.43005
       -1.004000           0.411776           13.66012           0.367281           13.44465
       -1.000000           0.413588           13.67642           0.368305           13.45932
       -0.996000           0.415428           13.69272           0.369336           13.47401
       -0.992000           0.417296           13.70912           0.370372           13.48877
       -0.988000           0.419193           13.72558           0.371413           13.50353
       -0.984000           0.421121           13.74213           0.372461           13.51837
       -0.980000           0.423079           13.75873           0.373514           13.53324
       -0.976000           0.425070           13.77539           0.374573           13.54817
       -0.972000           0.427095           13.79212           0.375637           13.56315
       -0.968000           0.429154           13.80892           0.376709           13.57812
       -0.964000           0.431248           13.82581           0.377786           13.59313
       -0.960000           0.433379           13.84276           0.378870           13.60823
       -0.956000           0.435549           13.85978           0.379959           13.62337
       -0.952000           0.437757           13.87689           0.381055           13.63854
       -0.948000           0.440008           13.89407           0.382158           13.65376
       -0.944000           0.442299           13.91132           0.383265           13.66901
       -0.940000           0.444636           13.92865           0.384381           13.68426
       -0.936000           0.447017           13.94606           0.385504           13.69964
       -0.932000           0.449446           13.96354           0.386631           13.71500
       -0.928000           0.451924           13.98109           0.387766           13.73046
       -0.924000           0.454453           13.99873           0.388908           13.74590
       -0.920000           0.457034           14.01647           0.390056           13.76146
       -0.916000           0.459671           14.03428           0.391212           13.77704
       -0.912000           0.462365           14.05217           0.392374           13.79266
       -0.908000           0.465118           14.07013           0.393543           13.80829
       -0.904000           0.467934           14.08821           0.394720           13.82399
       -0.900000           0.470814           14.10635           0.395903           13.83976
       -0.896000           0.473760           14.12458           0.397094           13.85556
       -0.892000           0.476777           14.14292           0.398293           13.87141
       -0.888000           0.479865           14.16133           0.399497           13.88732
       -0.884000           0.483032           14.17983           0.400710           13.90324
       -0.880000           0.486277           14.19845           0.401930           13.91922
       -0.876000           0.489605           14.21714           0.403158           13.93530
       -0.872000           0.493020           14.23591           0.404394           13.95134
       -0.868000           0.496525           14.25479           0.405638           13.96746
       -0.864000           0.500124           14.27378           0.406888           13.98367
       -0.860000           0.503822           14.29284           0.408148           13.99990
       -0.856000           0.507624           14.31199           0.409416           14.01616
       -0.852000           0.511534           14.33126           0.410691           14.03250
       -0.848000           0.515558           14.35064           0.411974           14.04892
       -0.844000           0.519701           14.37007           0.413266           14.06529
       -0.840000           0.523967           14.38964           0.414566           14.08183
       -0.836000           0.528365           14.40929           0.415875           14.09835
       -0.832000           0.532899           14.42906           0.417193           14.11496
       -0.828000           0.537578           14.44891           0.418519           14.13161
       -0.824000           0.542408           14.46886           0.419854           14.14826
       -0.820000           0.547396           14.48889           0.421199           14.16505
       -0.816000           0.552551           14.50906           0.422551           14.18183
       -0.812000           0.557880           14.52930           0.423911           14.19871
       -0.808000           0.563393           14.54963           0.425283           14.21558
       -0.804000           0.569101           14.57005           0.426663           14.23256
       -0.800000           0.575012           14.59057           0.428052           14.24954
       -0.796000           0.581137           14.61115           0.429452           14.26663
       -0.792000           0.587486           14.63185           0.430861           14.28376
       -0.788000           0.594074           14.65261           0.432278           14.30093
       -0.784000           0.600909           14.67345           0.433709           14.31816
       -0.780000           0.608006           14.69431           0.435145           14.33550
       -0.776000           0.615381           14.71528           0.436594           14.35284
       -0.772000           0.623044           14.73630           0.438052           14.37023
       -0.768000           0.631013           14.75735           0.439521           14.38768
       -0.764000           0.639303           14.77846           0.441001           14.40523
       -0.760000           0.647928           14.79955           0.442490           14.42279
       -0.756000           0.656907           14.82065           0.443992           14.44048
       -0.752000           0.666255           14.84177           0.445502           14.45813
       -0.748000           0.675993           14.86285           0.447024           14.47589
       -0.744000           0.686137           14.88387           0.448559           14.49369
       -0.740000           0.696705           14.90484           0.450104           14.51159
       -0.736000           0.707714           14.92571           0.451661           14.52947
       -0.732000           0.719185           14.94645           0.453227           14.54753
       -0.728000           0.731134           14.96703           0.454808           14.56555
       -0.724000           0.743576           14.98741           0.456399           14.58369
       -0.720000           0.756529           15.00757           0.458002           14.60189
       -0.716000           0.770006           15.02746           0.459617           14.62016
       -0.712000           0.784021           15.04703           0.461244           14.63845
       -0.708000           0.798576           15.06621           0.462884           14.65683
       -0.704000           0.813683           15.08497           0.464538           14.67528
       -0.700000           0.829339           15.10319           0.466204           14.69382
       -0.696000           0.845536           15.12088           0.467881           14.71234
       -0.692000           0.862268           15.13791           0.469574           14.73100
       -0.688000           0.879508           15.15421           0.471279           14.74970
       -0.684000           0.897233           15.16972           0.472998           14.76845
       -0.680000           0.915396           15.18434           0.474729           14.78728
       -0.676000           0.933949           15.19797           0.476475           14.80623
       -0.672000           0.952824           15.21055           0.478235           14.82521
       -0.668000           0.971938           15.22196           0.480010           14.84424
       -0.664000           0.991194           15.23215           0.481798           14.86331
       -0.660000           1.010477           15.24101           0.483600           14.88252
       -0.656000           1.029653           15.24847           0.485420           14.90178
       -0.652000           1.048576           15.25453           0.487254           14.92111
       -0.648000           1.067079           15.25913           0.489103           14.94051
       -0.644000           1.084983           15.26219           0.490966           14.95996
       -0.640000           1.102096           15.26382           0.492846           14.97950
       -0.636000           1.118228           15.26398           0.494744           14.99910
       -0.632000           1.133171           15.26278           0.496654           15.01882
       -0.628000           1.146731           15.26031           0.498583           15.03859
       -0.624000           1.158729           15.25668           0.500528           15.05845
       -0.620000           1.168984           15.25212           0.502491           15.07836
       -0.616000           1.177359           15.24677           0.504469           15.09836
       -0.612000           1.183740           15.24087           0.506466           15.11836
       -0.608000           1.188040           15.23466           0.508480           15.13856
       -0.604000           1.190222           15.22841           0.510513           15.15877
       -0.600000           1.190286           15.22235           0.512564           15.17909
       -0.596000           1.188266           15.21673           0.514632           15.19944
       -0.592000           1.184245           15.21181           0.516720           15.21991
       -0.588000           1.178331           15.20782           0.518827           15.24044
       -0.584000           1.170674           15.20493           0.520952           15.26112
       -0.580000           1.161441           15.20334           0.523100           15.28185
       -0.576000           1.150813           15.20318           0.525265           15.30264
       -0.572000           1.138991           15.20454           0.527453           15.32346
       -0.568000           1.126171           15.20752           0.529657           15.34445
       -0.564000           1.112552           15.21214           0.531888           15.36549
       -0.560000           1.098330           15.21836           0.534138           15.38666
       -0.556000           1.083678           15.22628           0.536407           15.40789
       -0.552000           1.068770           15.23579           0.538700           15.42921
       -0.548000           1.053752           15.24683           0.541016           15.45065
       -0.544000           1.038762           15.25936           0.543352           15.47206
       -0.540000           1.023914           15.27330           0.545715           15.49365
       -0.536000           1.009310           15.28858           0.548100           15.51536
       -0.532000           0.995033           15.30508           0.550509           15.53715
       -0.528000           0.981149           15.32274           0.552940           15.55898
       -0.524000           0.967716           15.34146           0.555399           15.58093
       -0.520000           0.954772           15.36117           0.557882           15.60296
       -0.516000           0.942354           15.38176           0.560391           15.62515
       -0.512000           0.930478           15.40318           0.562926           15.64737
       -0.508000           0.919159           15.42535           0.565488           15.66969
       -0.504000           0.908406           15.44820           0.568078           15.69215
       -0.500000           0.898219           15.47163           0.570693           15.71470
       -0.496000           0.888590           15.49564           0.573337           15.73731
       -0.492000           0.879517           15.52015           0.576009           15.76005
       -0.488000           0.870986           15.54509           0.578710           15.78294
       -0.484000           0.862986           15.57045           0.581441           15.80587
       -0.480000           0.855501           15.59616           0.584204           15.82892
       -0.476000           0.848516           15.62226           0.586994           15.85209
       -0.472000           0.842014           15.64861           0.589817           15.87534
       -0.468000           0.835977           15.67525           0.592672           15.89873
       -0.464000           0.830389           15.70212           0.595560           15.92222
       -0.460000           0.825232           15.72922           0.598480           15.94580
       -0.456000           0.820488           15.75654           0.601434           15.96951
       -0.452000           0.816141           15.78406           0.604423           15.99335
       -0.448000           0.812176           15.81173           0.607446           16.01728
       -0.444000           0.808575           15.83957           0.610505           16.04134
       -0.440000           0.805323           15.86755           0.613599           16.06552
       -0.436000           0.802406           15.89568           0.616732           16.08983
       -0.432000           0.799811           15.92392           0.619904           16.11418
       -0.428000           0.797522           15.95231           0.623111           16.13874
       -0.424000           0.795528           15.98081           0.626360           16.16339
       -0.420000           0.793818           16.00945           0.629650           16.18816
       -0.416000           0.792379           16.03816           0.632979           16.21301
       -0.412000           0.791201           16.06698           0.636351           16.23805
       -0.408000           0.790273           16.09592           0.639765           16.26323
       -0.404000           0.789586           16.12496           0.643223           16.28847
       -0.400000           0.789132           16.15410           0.646725           16.31387
       -0.396000           0.788903           16.18333           0.650276           16.33942
       -0.392000           0.788888           16.21267           0.653868           16.36515
       -0.388000           0.789085           16.24211           0.657512           16.39095
       -0.384000           0.789481           16.27165           0.661202           16.41693
       -0.380000           0.790075           16.30129           0.664943           16.44301
       -0.376000           0.790857           16.33102           0.668734           16.46925
       -0.372000           0.791825           16.36087           0.672578           16.49561
       -0.368000           0.792971           16.39084           0.676474           16.52207
       -0.364000           0.794293           16.42089           0.680427           16.54878
       -0.360000           0.795785           16.45106           0.684431           16.57565
       -0.356000           0.797442           16.48132           0.688494           16.60258
       -0.352000           0.799265           16.51173           0.692616           16.62968
       -0.348000           0.801246           16.54224           0.696796           16.65693
       -0.344000           0.803384           16.57286           0.701037           16.68435
       -0.340000           0.805676           16.60361           0.705343           16.71194
       -0.336000           0.808118           16.63449           0.709709           16.73971
       -0.332000           0.810710           16.66547           0.714143           16.76762
       -0.328000           0.813451           16.69659           0.718643           16.79570
       -0.324000           0.816338           16.72784           0.723211           16.82389
       -0.320000           0.819369           16.75922           0.727851           16.85235
       -0.316000           0.822544           16.79076           0.732562           16.88091
       -0.312000           0.825863           16.82242           0.737346           16.90970
       -0.308000           0.829321           16.85423           0.742206           16.93859
       -0.304000           0.832923           16.88622           0.747144           16.96773
       -0.300000           0.836665           16.91834           0.752161           16.99699
       -0.296000           0.840548           16.95060           0.757262           17.02644
       -0.292000           0.844574           16.98303           0.762445           17.05610
       -0.288000           0.848741           17.01562           0.767717           17.08590
       -0.284000           0.853050           17.04837           0.773074           17.11600
       -0.280000           0.857502           17.08129           0.778521           17.14622
       -0.276000           0.862099           17.11441           0.784062           17.17669
       -0.272000           0.866839           17.14771           0.789701           17.20727
       -0.268000           0.871726           17.18114           0.795435           17.23807
       -0.264000           0.876764           17.21479           0.801270           17.26920
       -0.260000           0.881947           17.24864           0.807209           17.30040
       -0.256000           0.887284           17.28266           0.813258           17.33186
       -0.252000           0.892773           17.31689           0.819409           17.36353
       -0.248000           0.898417           17.35133           0.825680           17.39544
       -0.244000           0.904222           17.38596           0.832064           17.42756
       -0.240000           0.910185           17.42082           0.838571           17.45992
       -0.236000           0.916312           17.45586           0.845196           17.49243
       -0.232000           0.922607           17.49117           0.851949           17.52532
       -0.228000           0.929073           17.52666           0.858835           17.55836
       -0.224000           0.935709           17.56240           0.865858           17.59162
       -0.220000           0.942523           17.59837           0.873015           17.62519
       -0.216000           0.949521           17.63460           0.880308           17.65899
       -0.212000           0.956700           17.67104           0.887758           17.69302
       -0.208000           0.964072           17.70775           0.895355           17.72733
       -0.204000           0.971637           17.74470           0.903107           17.76193
       -0.200000           0.979402           17.78192           0.911022           17.79667
       -0.196000           0.987371           17.81938           0.919104           17.83181
       -0.192000           0.995549           17.85714           0.927357           17.86721
       -0.188000           1.003945           17.89518           0.935784           17.90284
       -0.184000           1.012559           17.93351           0.944401           17.93880
       -0.180000           1.021405           17.97208           0.953204           17.97505
       -0.176000           1.030485           18.01098           0.962202           18.01157
       -0.172000           1.039804           18.05018           0.971401           18.04837
       -0.168000           1.049376           18.08969           0.980814           18.08550
       -0.164000           1.059203           18.12947           0.990439           18.12296
       -0.160000           1.069295           18.16962           1.000284           18.16072
       -0.156000           1.079662           18.21007           1.010365           18.19887
       -0.152000           1.090312           18.25084           1.020687           18.23725
       -0.148000           1.101255           18.29196           1.031251           18.27600
       -0.144000           1.112502           18.33345           1.042079           18.31506
       -0.140000           1.124059           18.37528           1.053168           18.35456
       -0.136000           1.135940           18.41743           1.064534           18.39432
       -0.132000           1.148156           18.45996           1.076186           18.43450
       -0.128000           1.160723           18.50289           1.088135           18.47505
       -0.124000           1.173648           18.54618           1.100395           18.51591
       -0.120000           1.186950           18.58987           1.112972           18.55720
       -0.116000           1.200637           18.63394           1.125880           18.59891
       -0.112000           1.214728           18.67844           1.139136           18.64093
       -0.108000           1.229238           18.72331           1.152747           18.68345
       -0.104000           1.244185           18.76863           1.166733           18.72627
       -0.100000           1.259580           18.81437           1.181098           18.76959
       -0.096000           1.275450           18.86054           1.195880           18.81328
       -0.092000           1.291808           18.90715           1.211069           18.85744
       -0.088000           1.308676           18.95424           1.226698           18.90203
       -0.084000           1.326076           19.00177           1.242782           18.94708
       -0.080000           1.344029           19.04976           1.259340           18.99254
       -0.076000           1.362562           19.09822           1.276389           19.03850
       -0.072000           1.381695           19.14718           1.293952           19.08494
       -0.068000           1.401459           19.19662           1.312048           19.13186
       -0.064000           1.421875           19.24658           1.330710           19.17928
       -0.060000           1.442982           19.29702           1.349949           19.22714
       -0.056000           1.464801           19.34795           1.369805           19.27554
       -0.052000           1.487374           19.39946           1.390296           19.32448
       -0.048000           1.510727           19.45146           1.411448           19.37386
       -0.044000           1.534902           19.50401           1.433296           19.42389
       -0.040000           1.559937           19.55710           1.455870           19.47442
       -0.036000           1.585871           19.61074           1.479205           19.52547
       -0.032000           1.612747           19.66491           1.503345           19.57701
       -0.028000           1.640609           19.71963           1.528303           19.62922
       -0.024000           1.669505           19.77492           1.554141           19.68192
       -0.020000           1.699489           19.83076           1.580901           19.73521
       -0.016000           1.730617           19.88715           1.608617           19.78909
       -0.012000           1.762938           19.94409           1.637331           19.84355
       -0.008000           1.796515           20.00161           1.667105           19.89860
       -0.004000           1.831414           20.05968           1.698000           19.95427
        0.000000           1.867696           20.11828           1.730039           20.01049
        0.004000           1.905440           20.17741           1.763309           20.06728
        0.008000           1.944717           20.23705           1.797858           20.12469
        0.012000           1.985605           20.29720           1.833757           20.18262
        0.016000           2.028182           20.35786           1.871076           20.24121
        0.020000           2.072546           20.41895           1.909878           20.30032
        0.024000           2.118783           20.48048           1.950262           20.36001
        0.028000           2.166998           20.54241           1.992286           20.42028
        0.032000           2.217282           20.60472           2.036041           20.48099
        0.036000           2.269749           20.66730           2.081644           20.54230
        0.040000           2.324511           20.73020           2.129155           20.60406
        0.044000           2.381682           20.79327           2.178701           20.66626
        0.048000           2.441391           20.85645           2.230381           20.72896
        0.052000           2.503767           20.91972           2.284315           20.79199
        0.056000           2.568939           20.98295           2.340601           20.85536
        0.060000           2.637046           21.04598           2.399397           20.91903
        0.064000           2.708223           21.10875           2.460821           20.98281
        0.068000           2.782620           21.17111           2.525003           21.04678
        0.072000           2.860393           21.23289           2.592094           21.11077
        0.076000           2.941672           21.29398           2.662259           21.17472
        0.080000           3.026619           21.35404           2.735623           21.23857
        0.084000           3.115378           21.41304           2.812388           21.30203
        0.088000           3.208087           21.47056           2.892708           21.36508
        0.092000           3.304896           21.52647           2.976755           21.42753
        0.096000           3.405919           21.58037           3.064685           21.48912
        0.100000           3.511271           21.63194           3.156711           21.54973
        0.104000           3.621062           21.68092           3.253018           21.60908
        0.108000           3.735364           21.72678           3.353762           21.66687
        0.112000           3.854226           21.76919           3.459143           21.72274
        0.116000           3.977670           21.80763           3.569311           21.77655
        0.120000           4.105674           21.84167           3.684444           21.82768
        0.124000           4.238170           21.87067           3.804686           21.87590
        0.128000           4.375039           21.89421           3.930147           21.92068
        0.132000           4.516123           21.91166           4.060966           21.96146
        0.136000           4.661168           21.92238           4.197196           21.99772
        0.140000           4.809858           21.92585           4.338839           22.02883
        0.144000           4.961808           21.92143           4.485894           22.05414
        0.148000           5.116555           21.90849           4.638308           22.07292
        0.152000           5.273535           21.88654           4.795877           22.08441
        0.156000           5.432073           21.85498           4.958363           22.08790
        0.160000           5.591467           21.81324           5.125436           22.08236
        0.164000           5.750894           21.76104           5.296616           22.06704
        0.168000           5.909460           21.69785           5.471336           22.04099
        0.172000           6.066191           21.62347           5.648873           22.00348
        0.176000           6.220030           21.53769           5.828266           21.95346
        0.180000           6.369878           21.44040           6.008494           21.89016
        0.184000           6.514624           21.33162           6.188340           21.81292
        0.188000           6.653082           21.21151           6.366444           21.72114
        0.192000           6.784049           21.08045           6.541124           21.61417
        0.196000           6.906341           20.93873           6.710750           21.49196
        0.200000           7.018751           20.78702           6.873455           21.35427
        0.204000           7.120141           20.62593           7.027304           21.20149
        0.208000           7.209406           20.45647           7.170280           21.03406
        0.212000           7.285500           20.27963           7.300447           20.85277
        0.216000           7.347503           20.09657           7.415857           20.65896
        0.220000           7.394645           19.90866           7.514716           20.45386
        0.224000           7.426213           19.71737           7.595422           20.23948
        0.228000           7.441776           19.52422           7.656655           20.01785
        0.232000           7.441102           19.33087           7.697499           19.79130
        0.236000           7.424100           19.13909           7.717240           19.56227
        0.240000           7.390972           18.95048           7.715707           19.33328
        0.244000           7.342167           18.76677           7.693058           19.10697
        0.248000           7.278337           18.58958           7.649825           18.88577
        0.252000           7.200320           18.42034           7.587019           18.67205
        0.256000           7.109208           18.26046           7.505962           18.46790
        0.260000           7.006176           18.11107           7.408128           18.27527
        0.264000           6.892578           17.97311           7.295344           18.09558
        0.268000           6.769845           17.84740           7.169478           17.93010
        0.272000           6.639387           17.73441           7.032549           17.77968
        0.276000           6.502710           17.63455           6.886593           17.64496
        0.280000           6.361242           17.54790           6.733486           17.52613
        0.284000           6.216365           17.47445           6.575130           17.42314
        0.288000           6.069422           17.41397           6.413361           17.33589
        0.292000           5.921552           17.36616           6.249665           17.26377
        0.296000           5.773918           17.33046           6.085509           17.20634
        0.300000           5.627450           17.30641           5.922165           17.16277
        0.304000           5.483025           17.29335           5.760743           17.13238
        0.308000           5.341412           17.29063           5.602145           17.11415
        0.312000           5.203177           17.29754           5.447147           17.10734
        0.316000           5.068886           17.31338           5.296365           17.11104
        0.320000           4.938903           17.33744           5.150306           17.12432
        0.324000           4.813599           17.36904           5.009307           17.14642
        0.328000           4.693171           17.40751           4.873697           17.17642
        0.332000           4.577810           17.45224           4.743597           17.21368
        0.336000           4.467612           17.50261           4.619160           17.25736
        0.340000           4.362626           17.55803           4.500418           17.30693
        0.344000           4.262859           17.61804           4.387352           17.36163
        0.348000           4.168289           17.68208           4.279938           17.42094
        0.352000           4.078854           17.74980           4.178082           17.48440
        0.356000           3.994468           17.82075           4.081639           17.55152
        0.360000           3.915047           17.89451           3.990540           17.62184
        0.364000           3.840460           17.97082           3.904605           17.69501
        0.368000           3.770586           18.04936           3.823709           17.77068
        0.372000           3.705319           18.12986           3.747664           17.84853
        0.376000           3.644521           18.21204           3.676330           17.92836
        0.380000           3.588058           18.29575           3.609558           18.00980
        0.384000           3.535807           18.38074           3.547151           18.09271
        0.388000           3.487642           18.46689           3.489008           18.17697
        0.392000           3.443447           18.55402           3.434938           18.26224
        0.396000           3.403105           18.64195           3.384814           18.34849
        0.400000           3.366523           18.73062           3.338490           18.43561
        0.404000           3.333573           18.81986           3.295853           18.52342
        0.408000           3.304190           18.90964           3.256758           18.61182
        0.412000           3.278274           18.99984           3.221114           18.70083
        0.416000           3.255762           19.09034           3.188809           18.79019
        0.420000           3.236576           19.18114           3.159734           18.87991
        0.424000           3.220653           19.27210           3.133822           18.97008
        0.428000           3.207952           19.36322           3.110969           19.06039
        0.432000           3.198418           19.45441           3.091129           19.15104
        0.436000           3.192024           19.54560           3.074211           19.24180
        0.440000           3.188737           19.63671           3.060199           19.33269
        0.444000           3.188543           19.72777           3.048999           19.42380
        0.448000           3.191424           19.81859           3.040603           19.51494
        0.452000           3.197380           19.90921           3.034965           19.60612
        0.456000           3.206404           19.99953           3.032053           19.69737
        0.460000           3.218508           20.08947           3.031880           19.78859
        0.464000           3.233702           20.17896           3.034409           19.87985
        0.468000           3.252010           20.26788           3.039662           19.97097
        0.472000           3.273433           20.35616           3.047621           20.06209
        0.476000           3.298032           20.44369           3.058289           20.15305
        0.480000           3.325801           20.53040           3.071741           20.24382
        0.484000           3.356774           20.61604           3.087945           20.33446
        0.488000           3.390988           20.70059           3.106974           20.42482
        0.492000           3.428456           20.78382           3.128838           20.51485
        0.496000           3.469198           20.86556           3.153599           20.60464
        0.500000           3.513239           20.94563           3.181320           20.69386
        0.504000           3.560543           21.02381           3.212005           20.78262
        0.508000           3.611121           21.09988           3.245768           20.87075
        0.512000           3.664936           21.17357           3.282662           20.95819
        0.516000           3.721919           21.24461           3.322729           21.04482
        0.520000           3.782010           21.31275           3.366074           21.13049
        0.524000           3.845071           21.37769           3.412730           21.21503
        0.528000           3.910961           21.43907           3.462787           21.29828
        0.532000           3.979496           21.49662           3.516307           21.38006
        0.536000           4.050425           21.55000           3.573316           21.46020
        0.540000           4.123458           21.59891           3.633882           21.53836
        0.544000           4.198256           21.64304           3.698062           21.61443
        0.548000           4.274417           21.68209           3.765860           21.68803
        0.552000           4.351474           21.71579           3.837245           21.75880
        0.556000           4.428931           21.74401           3.912231           21.82659
        0.560000           4.506197           21.76654           3.990722           21.89086
        0.564000           4.582673           21.78333           4.072661           21.95130
        0.568000           4.657701           21.79437           4.157868           22.00755
        0.572000           4.730610           21.79976           4.246166           22.05905
        0.576000           4.800729           21.79972           4.337307           22.10560
        0.580000           4.867357           21.79449           4.430946           22.14653
        0.584000           4.929868           21.78455           4.526712           22.18151
        0.588000           4.987657           21.77037           4.624125           22.21012
        0.592000           5.040210           21.75260           4.722648           22.23199
        0.596000           5.087075           21.73192           4.821599           22.24678
        0.600000           5.127943           21.70909           4.920285           22.25427
        0.604000           5.162604           21.68496           5.017943           22.25422
        0.608000           5.190987           21.66038           5.113646           22.24648
        0.612000           5.213165           21.63622           5.206522           22.23124
        0.616000           5.229304           21.61328           5.295601           22.20850
        0.620000           5.239758           21.59240           5.379903           22.17874
        0.624000           5.244959           21.57423           5.458495           22.14239
        0.628000           5.245489           21.55949           5.530507           22.10011
        0.632000           5.241926           21.54863           5.595081           22.05275
        0.636000           5.235008           21.54216           5.651597           22.00128
        0.640000           5.225416           21.54028           5.699495           21.94667
        0.644000           5.213935           21.54317           5.738410           21.89020
        0.648000           5.201314           21.55094           5.768241           21.83300
        0.652000           5.188229           21.56348           5.788926           21.77648
        0.656000           5.175372           21.58066           5.800799           21.72172
        0.660000           5.163378           21.60218           5.804264           21.66997
        0.664000           5.152776           21.62778           5.799993           21.62229
        0.668000           5.144076           21.65697           5.788727           21.57957
        0.672000           5.137642           21.68945           5.771424           21.54257
        0.676000           5.133825           21.72464           5.749063           21.51202
        0.680000           5.132857           21.76209           5.722672           21.48823
        0.684000           5.134888           21.80128           5.693343           21.47146
        0.688000           5.140033           21.84172           5.662143           21.46192
        0.692000           5.148303           21.88299           5.630153           21.45933
        0.696000           5.159637           21.92456           5.598277           21.46368
        0.700000           5.173960           21.96609           5.567471           21.47458
        0.704000           5.191136           22.00714           5.538497           21.49148
        0.708000           5.210990           22.04736           5.512141           21.51399
        0.712000           5.233312           22.08639           5.488982           21.54146
        0.716000           5.257867           22.12406           5.469584           21.57313
        0.720000           5.284430           22.16003           5.454293           21.60839
        0.724000           5.312724           22.19416           5.443551           21.64650
        0.728000           5.342496           22.22623           5.437458           21.68670
        0.732000           5.373462           22.25611           5.436210           21.72824
        0.736000           5.405327           22.28364           5.439826           21.77043
        0.740000           5.437826           22.30876           5.448236           21.81235
        0.744000           5.470629           22.33136           5.461314           21.85350
        0.748000           5.503465           22.35145           5.478786           21.89293
        0.752000           5.535978           22.36897           5.500322           21.93015
        0.756000           5.567851           22.38394           5.525466           21.96445
        0.760000           5.598768           22.39643           5.553792           21.99532
        0.764000           5.628355           22.40654           5.584626           22.02220
        0.768000           5.656324           22.41443           5.617359           22.04468
        0.772000           5.682351           22.42035           5.651202           22.06248
        0.776000           5.706160           22.42443           5.685366           22.07537
        0.780000           5.727533           22.42709           5.719066           22.08319
        0.784000           5.746251           22.42858           5.751376           22.08603
        0.788000           5.762197           22.42932           5.781529           22.08415
        0.792000           5.775319           22.42964           5.808669           22.07781
        0.796000           5.785606           22.42998           5.832058           22.06742
        0.800000           5.793132           22.43061           5.850975           22.05359
        0.804000           5.798022           22.43196           5.864913           22.03717
        0.808000           5.800459           22.43432           5.873379           22.01883
        0.812000           5.800694           22.43789           5.876108           21.99949
        0.816000           5.798976           22.44288           5.872998           21.97998
        0.820000           5.795584           22.44943           5.864069           21.96124
        0.824000           5.790850           22.45760           5.849564           21.94417
        0.828000           5.785031           22.46738           5.829776           21.92950
        0.832000           5.778374           22.47868           5.805211           21.91799
        0.836000           5.771139           22.49138           5.776448           21.91007
        0.840000           5.763483           22.50533           5.744090           21.90639
        0.844000           5.755504           22.52032           5.708896           21.90721
        0.848000           5.747287           22.53611           5.671526           21.91260
        0.852000           5.738791           22.55247           5.632684           21.92263
        0.856000           5.729956           22.56920           5.593067           21.93735
        0.860000           5.720651           22.58609           5.553214           21.95641
        0.864000           5.710654           22.60298           5.513762           21.97965
        0.868000           5.699728           22.61980           5.475008           22.00664
        0.872000           5.687609           22.63643           5.437415           22.03695
        0.876000           5.673978           22.65299           5.401167           22.07028
        0.880000           5.658516           22.66951           5.366447           22.10594
        0.884000           5.640965           22.68612           5.333249           22.14371
        0.888000           5.621010           22.70313           5.301550           22.18307
        0.892000           5.598402           22.72075           5.271248           22.22355
        0.896000           5.572947           22.73943           5.242100           22.26494
        0.900000           5.544545           22.75945           5.213857           22.30695
        0.904000           5.513072           22.78140           5.186194           22.34933
        0.908000           5.478564           22.80561           5.158776           22.39208
        0.912000           5.441110           22.83264           5.131258           22.43511
        0.916000           5.400858           22.86283           5.103296           22.47848
        0.920000           5.358069           22.89670           5.074584           22.52241
        0.924000           5.313040           22.93462           5.044850           22.56706
        0.928000           5.266114           22.97690           5.013879           22.61271
        0.932000           5.217732           23.02386           4.981512           22.65977
        0.936000           5.168308           23.07564           4.947679           22.70850
        0.940000           5.118310           23.13250           4.912393           22.75935
        0.944000           5.068217           23.19440           4.875742           22.81260
        0.948000           5.018483           23.26143           4.837850           22.86865
        0.952000           4.969548           23.33348           4.798967           22.92780
        0.956000           4.921828           23.41058           4.759314           22.99042
        0.960000           4.875721           23.49241           4.719246           23.05645
        0.964000           4.831559           23.57892           4.679039           23.12629
        0.968000           4.789683           23.66986           4.639109           23.19998
        0.972000           4.750349           23.76504           4.599754           23.27747
        0.976000           4.713793           23.86421           4.561302           23.35897
        0.980000           4.680218           23.96705           4.524087           23.44417
        0.984000           4.649791           24.07340           4.488427           23.53314
        0.988000           4.622643           24.18300           4.454582           23.62578
        0.992000           4.598886           24.29564           4.422793           23.72181
        0.996000           4.578617           24.41107           4.393296           23.82124
        1.000000           4.561881           24.52910           4.366234           23.92371
        1.004000           4.548747           24.64948           4.341789           24.02921
        1.008000           4.539239           24.77208           4.320096           24.13741
        1.012000           4.533398           24.89672           4.301262           24.24819
        1.016000           4.531250           25.02320           4.285359           24.36150
        1.020000           4.532800           25.15140           4.272472           24.47700
        1.024000           4.538070           25.28117           4.262646           24.59459
        1.028000           4.547073           25.41241           4.255927           24.71422
        1.032000           4.559823           25.54497           4.252357           24.83550
        1.036000           4.576344           25.67880           4.251941           24.95859
        1.040000           4.596651           25.81365           4.254715           25.08323
        1.044000           4.620772           25.94957           4.260715           25.20938
        1.048000           4.648735           26.08645           4.269938           25.33682
        1.052000           4.680573           26.22406           4.282421           25.46552
        1.056000           4.716337           26.36241           4.298141           25.59541
        1.060000           4.756061           26.50140           4.317183           25.72648
        1.064000           4.799807           26.64086           4.339540           25.85860
        1.068000           4.847620           26.78075           4.365237           25.99157
        1.072000           4.899573           26.92088           4.394351           26.12553
        1.076000           4.955720           27.06122           4.426888           26.26020
        1.080000           5.016141           27.20160           4.462890           26.39572
        1.084000           5.080892           27.34188           4.502420           26.53187
        1.088000           5.150053           27.48189           4.545573           26.66864
        1.092000           5.223682           27.62145           4.592355           26.80602
        1.096000           5.301856           27.76044           4.642897           26.94365
        1.100000           5.384635           27.89859           4.697237           27.08175
        1.104000           5.472071           28.03572           4.755475           27.22019
        1.108000           5.564200           28.17164           4.817687           27.35872
        1.112000           5.661060           28.30603           4.883989           27.49724
        1.116000           5.762636           28.43878           4.954451           27.63572
        1.120000           5.868953           28.56945           5.029173           27.77392
        1.124000           5.979945           28.69784           5.108254           27.91175
        1.128000           6.095603           28.82368           5.191802           28.04903
        1.132000           6.215791           28.94668           5.279890           28.18551
        1.136000           6.340418           29.06646           5.372637           28.32108
        1.140000           6.469347           29.18283           5.470077           28.45536
        1.144000           6.602380           29.29554           5.572297           28.58822
        1.148000           6.739330           29.40426           5.679345           28.71945
        1.152000           6.879978           29.50880           5.791250           28.84857
        1.156000           7.024058           29.60895           5.908068           28.97540
        1.160000           7.171342           29.70457           6.029709           29.09963
        1.164000           7.321533           29.79544           6.156184           29.22085
        1.168000           7.474388           29.88149           6.287425           29.33884
        1.172000           7.629673           29.96269           6.423285           29.45333
        1.176000           7.787138           30.03895           6.563706           29.56362
        1.180000           7.946608           30.11017           6.708431           29.66962
        1.184000           8.107903           30.17632           6.857311           29.77116
        1.188000           8.270855           30.23741           7.010115           29.86755
        1.192000           8.435353           30.29330           7.166552           29.95877
        1.196000           8.601299           30.34387           7.326355           30.04445
        1.200000           8.768559           30.38901           7.489218           30.12445
        1.204000           8.937020           30.42842           7.654854           30.19837
        1.208000           9.106537           30.46194           7.822886           30.26617
        1.212000           9.276862           30.48921           7.993074           30.32751
        1.216000           9.447728           30.50994           8.165068           30.38244
        1.220000           9.618752           30.52372           8.338617           30.43067
        1.224000           9.789477           30.53022           8.513288           30.47184
        1.228000           9.959332           30.52920           8.688886           30.50601
        1.232000           10.12761           30.52027           8.865010           30.53279
        1.236000           10.29352           30.50326           9.041276           30.55197
        1.240000           10.45619           30.47822           9.217238           30.56320
        1.244000           10.61466           30.44506           9.392478           30.56629
        1.248000           10.76797           30.40410           9.566267           30.56085
        1.252000           10.91508           30.35562           9.737997           30.54677
        1.256000           11.05500           30.30035           9.906824           30.52373
        1.260000           11.18682           30.23890           10.07173           30.49154
        1.264000           11.30970           30.17217           10.23178           30.45013
        1.268000           11.42296           30.10130           10.38575           30.39992
        1.272000           11.52602           30.02747           10.53247           30.34087
        1.276000           11.61854           29.95201           10.67069           30.27378
        1.280000           11.70038           29.87614           10.79910           30.19918
        1.284000           11.77156           29.80138           10.91669           30.11826
        1.288000           11.83241           29.72904           11.02230           30.03210
        1.292000           11.88343           29.66042           11.11508           29.94230
        1.296000           11.92526           29.59681           11.19431           29.85038
        1.300000           11.95885           29.53916           11.25966           29.75805
        1.304000           11.98515           29.48850           11.31099           29.66735
        1.308000           12.00533           29.44560           11.34841           29.58003
        1.312000           12.02059           29.41092           11.37247           29.49783
        1.316000           12.03224           29.38487           11.38399           29.42266
        1.320000           12.04152           29.36761           11.38386           29.35616
        1.324000           12.04973           29.35911           11.37336           29.29961
        1.328000           12.05807           29.35908           11.35407           29.25431
        1.332000           12.06762           29.36716           11.32739           29.22123
        1.336000           12.07943           29.38277           11.29500           29.20111
        1.340000           12.09442           29.40520           11.25863           29.19434
        1.344000           12.11324           29.43365           11.21999           29.20125
        1.348000           12.13654           29.46731           11.18074           29.22187
        1.352000           12.16467           29.50528           11.14254           29.25608
        1.356000           12.19786           29.54654           11.10696           29.30338
        1.360000           12.23625           29.59033           11.07543           29.36340
        1.364000           12.27968           29.63580           11.04923           29.43532
        1.368000           12.32799           29.68207           11.02967           29.51848
        1.372000           12.38080           29.72863           11.01786           29.61188
        1.376000           12.43777           29.77489           11.01477           29.71472
        1.380000           12.49837           29.82045           11.02132           29.82582
        1.384000           12.56211           29.86503           11.03819           29.94408
        1.388000           12.62859           29.90857           11.06602           30.06847
        1.392000           12.69731           29.95097           11.10539           30.19786
        1.396000           12.76791           29.99244           11.15673           30.33088
        1.400000           12.84017           30.03307           11.22023           30.46645
        1.404000           12.91386           30.07316           11.29617           30.60343
        1.408000           12.98895           30.11303           11.38463           30.74037
        1.412000           13.06554           30.15278           11.48551           30.87622
        1.416000           13.14382           30.19277           11.59884           31.00966
        1.420000           13.22407           30.23313           11.72420           31.13964
        1.424000           13.30659           30.27377           11.86126           31.26494
        1.428000           13.39185           30.31477           12.00965           31.38434
        1.432000           13.48024           30.35592           12.16872           31.49668
        1.436000           13.57214           30.39687           12.33778           31.60113
        1.440000           13.66799           30.43725           12.51615           31.69659
        1.444000           13.76808           30.47646           12.70281           31.78224
        1.448000           13.87255           30.51389           12.89683           31.85727
        1.452000           13.98159           30.54891           13.09715           31.92108
        1.456000           14.09508           30.58064           13.30271           31.97307
        1.460000           14.21291           30.60832           13.51245           32.01297
        1.464000           14.33472           30.63115           13.72512           32.04027
        1.468000           14.46005           30.64849           13.93969           32.05494
        1.472000           14.58824           30.65946           14.15498           32.05694
        1.476000           14.71856           30.66360           14.37000           32.04618
        1.480000           14.85019           30.66031           14.58372           32.02283
        1.484000           14.98212           30.64931           14.79521           31.98697
        1.488000           15.11335           30.63028           15.00347           31.93887
        1.492000           15.24277           30.60322           15.20766           31.87856
        1.496000           15.36928           30.56815           15.40680           31.80644
        1.500000           15.49173           30.52538           15.59993           31.72244
        1.504000           15.60906           30.47543           15.78613           31.62708
        1.508000           15.72028           30.41875           15.96428           31.52046
        1.512000           15.82440           30.35623           16.13321           31.40301
        1.516000           15.92058           30.28869           16.29168           31.27524
        1.520000           16.00810           30.21727           16.43846           31.13787
        1.524000           16.08640           30.14313           16.57209           30.99177
        1.528000           16.15509           30.06747           16.69135           30.83809
        1.532000           16.21397           29.99165           16.79499           30.67842
        1.536000           16.26307           29.91716           16.88197           30.51421
        1.540000           16.30260           29.84523           16.95130           30.34753
        1.544000           16.33303           29.77734           17.00238           30.18057
        1.548000           16.35504           29.71474           17.03501           30.01588
        1.552000           16.36953           29.65851           17.04939           29.85566
        1.556000           16.37758           29.60979           17.04595           29.70259
        1.560000           16.38041           29.56928           17.02576           29.55898
        1.564000           16.37944           29.53765           16.99023           29.42719
        1.568000           16.37611           29.51528           16.94113           29.30911
        1.572000           16.37184           29.50220           16.88044           29.20657
        1.576000           16.36820           29.49829           16.81059           29.12079
        1.580000           16.36655           29.50324           16.73412           29.05279
        1.584000           16.36822           29.51628           16.65354           29.00319
        1.588000           16.37438           29.53675           16.57158           28.97196
        1.592000           16.38605           29.56349           16.49070           28.95889
        1.596000           16.40403           29.59548           16.41340           28.96338
        1.600000           16.42890           29.63146           16.34204           28.98436
        1.604000           16.46108           29.67011           16.27850           29.02061
        1.608000           16.50073           29.71009           16.22490           29.07067
        1.612000           16.54777           29.75025           16.18273           29.13279
        1.616000           16.60195           29.78919           16.15331           29.20506
        1.620000           16.66281           29.82591           16.13772           29.28558
        1.624000           16.72978           29.85917           16.13676           29.37212
        1.628000           16.80210           29.88821           16.15094           29.46268
        1.632000           16.87895           29.91218           16.18060           29.55499
        1.636000           16.95930           29.93051           16.22562           29.64689
        1.640000           17.04222           29.94269           16.28579           29.73620
        1.644000           17.12669           29.94839           16.36057           29.82089
        1.648000           17.21169           29.94753           16.44920           29.89886
        1.652000           17.29613           29.94007           16.55061           29.96816
        1.656000           17.37911           29.92617           16.66347           30.02695
        1.660000           17.45972           29.90596           16.78647           30.07357
        1.664000           17.53710           29.87983           16.91783           30.10658
        1.668000           17.61047           29.84823           17.05545           30.12458
        1.672000           17.67906           29.81150           17.19738           30.12655
        1.676000           17.74221           29.77022           17.34128           30.11159
        1.680000           17.79932           29.72485           17.48475           30.07932
        1.684000           17.84969           29.67611           17.62515           30.02950
        1.688000           17.89283           29.62451           17.75999           29.96217
        1.692000           17.92819           29.57086           17.88659           29.87797
        1.696000           17.95525           29.51587           18.00233           29.77767
        1.700000           17.97354           29.46050           18.10467           29.66265
        1.704000           17.98261           29.40561           18.19128           29.53458
        1.708000           17.98222           29.35226           18.26007           29.39537
        1.712000           17.97200           29.30173           18.30919           29.24752
        1.716000           17.95198           29.25520           18.33699           29.09367
        1.720000           17.92219           29.21396           18.34245           28.93666
        1.724000           17.88289           29.17949           18.32487           28.77974
        1.728000           17.83459           29.15317           18.28409           28.62577
        1.732000           17.77794           29.13643           18.22039           28.47831
        1.736000           17.71388           29.13055           18.13446           28.34030
        1.740000           17.64364           29.13681           18.02775           28.21467
        1.744000           17.56854           29.15616           17.90172           28.10408
        1.748000           17.49019           29.18960           17.75852           28.01103
        1.752000           17.41019           29.23771           17.60044           27.93752
        1.756000           17.33037           29.30088           17.43003           27.88508
        1.760000           17.25258           29.37924           17.24994           27.85505
        1.764000           17.17869           29.47263           17.06293           27.84811
        1.768000           17.11046           29.58069           16.87175           27.86478
        1.772000           17.04965           29.70270           16.67906           27.90493
        1.776000           16.99789           29.83783           16.48735           27.96834
        1.780000           16.95663           29.98504           16.29903           28.05427
        1.784000           16.92722           30.14306           16.11626           28.16203
        1.788000           16.91072           30.31049           15.94096           28.29045
        1.792000           16.90811           30.48586           15.77482           28.43835
        1.796000           16.92013           30.66748           15.61948           28.60454
        1.800000           16.94729           30.85386           15.47614           28.78746
        1.804000           16.98993           31.04319           15.34597           28.98591
        1.808000           17.04813           31.23380           15.22984           29.19822
        1.812000           17.12187           31.42409           15.12840           29.42300
        1.816000           17.21077           31.61226           15.04241           29.65893
        1.820000           17.31442           31.79690           14.97214           29.90464
        1.824000           17.43213           31.97636           14.91807           30.15874
        1.828000           17.56302           32.14935           14.88030           30.41999
        1.832000           17.70614           32.31458           14.85904           30.68712
        1.836000           17.86028           32.47092           14.85426           30.95886
        1.840000           18.02418           32.61743           14.86604           31.23416
        1.844000           18.19651           32.75342           14.89414           31.51194
        1.848000           18.37584           32.87834           14.93856           31.79112
        1.852000           18.56066           32.99184           14.99899           32.07076
        1.856000           18.74957           33.09385           15.07529           32.34993
        1.860000           18.94112           33.18441           15.16715           32.62756
        1.864000           19.13401           33.26391           15.27427           32.90306
        1.868000           19.32711           33.33279           15.39629           33.17544
        1.872000           19.51926           33.39161           15.53295           33.44415
        1.876000           19.70963           33.44113           15.68389           33.70834
        1.880000           19.89745           33.48209           15.84872           33.96734
        1.884000           20.08211           33.51534           16.02717           34.22044
        1.888000           20.26329           33.54170           16.21888           34.46706
        1.892000           20.44071           33.56187           16.42365           34.70660
        1.896000           20.61427           33.57662           16.64103           34.93826
        1.900000           20.78382           33.58648           16.87081           35.16149
        1.904000           20.94934           33.59207           17.11276           35.37550
        1.908000           21.11100           33.59385           17.36645           35.57932
        1.912000           21.26880           33.59211           17.63168           35.77224
        1.916000           21.42284           33.58725           17.90789           35.95339
        1.920000           21.57303           33.57950           18.19450           36.12148
        1.924000           21.71950           33.56900           18.49099           36.27547
        1.928000           21.86207           33.55606           18.79633           36.41430
        1.932000           22.00084           33.54075           19.10963           36.53680
        1.936000           22.13549           33.52332           19.42954           36.64182
        1.940000           22.26596           33.50400           19.75450           36.72818
        1.944000           22.39206           33.48297           20.08278           36.79504
        1.948000           22.51361           33.46054           20.41229           36.84155
        1.952000           22.63032           33.43708           20.74083           36.86739
        1.956000           22.74198           33.41295           21.06587           36.87215
        1.960000           22.84848           33.38865           21.38496           36.85612
        1.964000           22.94954           33.36465           21.69527           36.81993
        1.968000           23.04509           33.34158           21.99421           36.76461
        1.972000           23.13505           33.32006           22.27919           36.69158
        1.976000           23.21947           33.30083           22.54783           36.60283
        1.980000           23.29846           33.28461           22.79810           36.50085
        1.984000           23.37216           33.27213           23.02827           36.38834
        1.988000           23.44096           33.26414           23.23714           36.26847
        1.992000           23.50539           33.26145           23.42398           36.14421
        1.996000           23.56586           33.26465           23.58859           36.01930
        2.000000           23.62313           33.27444           23.73151           35.89663
        2.004000           23.67793           33.29133           23.85358           35.77991
        2.008000           23.73111           33.31580           23.95639           35.67167
        2.012000           23.78359           33.34810           24.04181           35.57486
        2.016000           23.83635           33.38852           24.11213           35.49157
        2.020000           23.89025           33.43711           24.16991           35.42341
        2.024000           23.94633           33.49389           24.21780           35.37196
        2.028000           24.00563           33.55856           24.25871           35.33800
        2.032000           24.06881           33.63098           24.29553           35.32167
        2.036000           24.13693           33.71072           24.33072           35.32315
        2.040000           24.21077           33.79734           24.36707           35.34184
        2.044000           24.29106           33.89028           24.40676           35.37707
        2.048000           24.37837           33.98886           24.45204           35.42775
        2.052000           24.47337           34.09251           24.50462           35.49242
        2.056000           24.57636           34.20046           24.56626           35.56984
        2.060000           24.68786           34.31200           24.63798           35.65830
        2.064000           24.80800           34.42636           24.72087           35.75618
        2.068000           24.93714           34.54289           24.81589           35.86182
        2.072000           25.07523           34.66091           24.92331           35.97347
        2.076000           25.22238           34.77970           25.04321           36.08966
        2.080000           25.37856           34.89875           25.17585           36.20872
        2.084000           25.54369           35.01751           25.32086           36.32929
        2.088000           25.71776           35.13549           25.47792           36.45011
        2.092000           25.90079           35.25235           25.64651           36.57003
        2.096000           26.09275           35.36767           25.82590           36.68807
        2.100000           26.29372           35.48104           26.01556           36.80371
        2.104000           26.50378           35.59214           26.21454           36.91642
        2.108000           26.72314           35.70054           26.42236           37.02593
        2.112000           26.95201           35.80576           26.63844           37.13183
        2.116000           27.19059           35.90721           26.86229           37.23446
        2.120000           27.43916           36.00428           27.09361           37.33393
        2.124000           27.69792           36.09606           27.33238           37.43041
        2.128000           27.96713           36.18173           27.57871           37.52425
        2.132000           28.24655           36.26028           27.83307           37.61554
        2.136000           28.53633           36.33055           28.09588           37.70423
        2.140000           28.83614           36.39134           28.36801           37.79031
        2.144000           29.14571           36.44156           28.65042           37.87330
        2.148000           29.46422           36.47981           28.94386           37.95259
        2.152000           29.79103           36.50503           29.24932           38.02705
        2.156000           30.12513           36.51605           29.56763           38.09557
        2.160000           30.46545           36.51186           29.89956           38.15639
        2.164000           30.81067           36.49149           30.24563           38.20778
        2.168000           31.15936           36.45433           30.60583           38.24734
        2.172000           31.50999           36.39964           30.98005           38.27307
        2.176000           31.86092           36.32700           31.36751           38.28248
        2.180000           32.21064           36.23621           31.76757           38.27315
        2.184000           32.55727           36.12718           32.17853           38.24251
        2.188000           32.89911           35.99999           32.59821           38.18837
        2.192000           33.23451           35.85493           33.02440           38.10875
        2.196000           33.56165           35.69252           33.45418           38.00181
        2.200000           33.87880           35.51334           33.88419           37.86626
        2.204000           34.18443           35.31827           34.31128           37.70144
        2.208000           34.47684           35.10833           34.73143           37.50690
        2.212000           34.75450           34.88473           35.14094           37.28307
        2.216000           35.01605           34.64902           35.53603           37.03092
        2.220000           35.26020           34.40268           35.91312           36.75210
        2.224000           35.48595           34.14749           36.26878           36.44862
        2.228000           35.69241           33.88544           36.60023           36.12313
        2.232000           35.87878           33.61855           36.90469           35.77885
        2.236000           36.04497           33.34904           37.18028           35.41898
        2.240000           36.19070           33.07896           37.42575           35.04731
        2.244000           36.31618           32.81057           37.64011           34.66729
        2.248000           36.42196           32.54591           37.82332           34.28259
        2.252000           36.50872           32.28704           37.97544           33.89667
        2.256000           36.57745           32.03574           38.09731           33.51259
        2.260000           36.62918           31.79375           38.18983           33.13324
        2.264000           36.66537           31.56250           38.25450           32.76111
        2.268000           36.68737           31.34337           38.29233           32.39828
        2.272000           36.69660           31.13728           38.30491           32.04678
        2.276000           36.69463           30.94513           38.29357           31.70803
        2.280000           36.68290           30.76769           38.25948           31.38347
        2.284000           36.66292           30.60547           38.20392           31.07461
        2.288000           36.63615           30.45890           38.12797           30.78279
        2.292000           36.60399           30.32832           38.03244           30.50925
        2.296000           36.56775           30.21396           37.91825           30.25557
        2.300000           36.52885           30.11601           37.78668           30.02343
        2.304000           36.48866           30.03465           37.63897           29.81471
        2.308000           36.44856           29.96987           37.47659           29.63113
        2.312000           36.41002           29.92166           37.30128           29.47460
        2.316000           36.37428           29.88997           37.11517           29.34720
        2.320000           36.34290           29.87452           36.92069           29.25051
        2.324000           36.31740           29.87498           36.72088           29.18619
        2.328000           36.29914           29.89094           36.51869           29.15541
        2.332000           36.28965           29.92173           36.31775           29.15909
        2.336000           36.29021           29.96655           36.12164           29.19772
        2.340000           36.30222           30.02458           35.93430           29.27116
        2.344000           36.32679           30.09465           35.75916           29.37896
        2.348000           36.36498           30.17567           35.60024           29.52002
        2.352000           36.41772           30.26636           35.46124           29.69303
        2.356000           36.48584           30.36545           35.34531           29.89593
        2.360000           36.56984           30.47157           35.25563           30.12658
        2.364000           36.67012           30.58341           35.19531           30.38236
        2.368000           36.78712           30.69964           35.16654           30.66033
        2.372000           36.92099           30.81908           35.17167           30.95738
        2.376000           37.07160           30.94056           35.21228           31.27058
        2.380000           37.23922           31.06297           35.29007           31.59615
        2.384000           37.42362           31.18539           35.40600           31.93104
        2.388000           37.62487           31.30702           35.56059           32.27174
        2.392000           37.84285           31.42696           35.75456           32.61490
        2.396000           38.07772           31.54461           35.98782           32.95713
        2.400000           38.32952           31.65915           36.26030           33.29534
        2.404000           38.59853           31.76996           36.57164           33.62638
        2.408000           38.88503           31.87636           36.92118           33.94726
        2.412000           39.18940           31.97743           37.30828           34.25513
        2.416000           39.51217           32.07228           37.73181           34.54720
        2.420000           39.85384           32.15979           38.19087           34.82095
        2.424000           40.21492           32.23876           38.68424           35.07386
        2.428000           40.59591           32.30764           39.21088           35.30344
        2.432000           40.99733           32.36481           39.76951           35.50745
        2.436000           41.41953           32.40842           40.35862           35.68348
        2.440000           41.86260           32.43630           40.97713           35.82935
        2.444000           42.32640           32.44617           41.62339           35.94254
        2.448000           42.81076           32.43567           42.29576           36.02079
        2.452000           43.31522           32.40207           42.99267           36.06165
        2.456000           43.83866           32.34277           43.71184           36.06249
        2.460000           44.37985           32.25505           44.45125           36.02108
        2.464000           44.93714           32.13616           45.20814           35.93460
        2.468000           45.50828           31.98354           45.97968           35.80109
        2.472000           46.09100           31.79467           46.76266           35.61793
        2.476000           46.68240           31.56733           47.55333           35.38330
        2.480000           47.27911           31.29951           48.34766           35.09547
        2.484000           47.87767           30.98964           49.14145           34.75340
        2.488000           48.47418           30.63650           49.92997           34.35596
        2.492000           49.06466           30.23932           50.70870           33.90303
        2.496000           49.64530           29.79777           51.47291           33.39478
        2.500000           50.21154           29.31204           52.21780           32.83205
        2.504000           50.75948           28.78281           52.93905           32.21578
        2.508000           51.28509           28.21115           53.63219           31.54823
        2.512000           51.78465           27.59843           54.29326           30.83088
        2.516000           52.25432           26.94662           54.91859           30.06626
        2.520000           52.69081           26.25767           55.50488           29.25683
        2.524000           53.09084           25.53397           56.04860           28.40492
        2.528000           53.45152           24.77795           56.54728           27.51330
        2.532000           53.76988           23.99239           56.99733           26.58458
        2.536000           54.04319           23.18016           57.39665           25.62159
        2.540000           54.26939           22.34417           57.74212           24.62692
        2.544000           54.44571           21.48773           58.03078           23.60375
        2.548000           54.57001           20.61430           58.25969           22.55522
        2.552000           54.64000           19.72762           58.42591           21.48504
        2.556000           54.65408           18.83167           58.52670           20.39742
        2.560000           54.61039           17.93095           58.55915           19.29700
        2.564000           54.50763           17.02990           58.52072           18.18864
        2.568000           54.34488           16.13360           58.40995           17.07819
        2.572000           54.12162           15.24735           58.22467           15.97187
        2.576000           53.83825           14.37650           57.96445           14.87627
        2.580000           53.49526           13.52677           57.62886           13.79841
        2.584000           53.09393           12.70364           57.21933           12.74518
        2.588000           52.63651           11.91276           56.73706           11.72369
        2.592000           52.12570           11.15948           56.18506           10.74104
        2.596000           51.56480           10.44897           55.56676           9.803807
        2.600000           50.95796           9.786008           54.88648           8.918234
        2.604000           50.30981           9.174849           54.14944           8.090038
        2.608000           49.62536           8.619162           53.36110           7.324043
        2.612000           48.91006           8.122008           52.52822           6.624519
        2.616000           48.17007           7.685830           51.65724           5.994864
        2.620000           47.41126           7.312260           50.75513           5.437607
        2.624000           46.63975           7.002194           49.82876           4.954460
        2.628000           45.86192           6.755838           48.88560           4.546247
        2.632000           45.08349           6.572593           47.93219           4.212974
        2.636000           44.31038           6.451303           46.97573           3.953912
        2.640000           43.54809           6.390098           46.02210           3.767664
        2.644000           42.80179           6.386637           45.07779           3.652186
        2.648000           42.07639           6.437957           44.14845           3.604899
        2.652000           41.37583           6.540901           43.23887           3.622751
        2.656000           40.70396           6.691803           42.35411           3.702339
        2.660000           40.06408           6.886837           41.49797           3.839972
        2.664000           39.45894           7.122005           40.67419           4.031732
        2.668000           38.89072           7.393145           39.88586           4.273551
        2.672000           38.36127           7.696087           39.13577           4.561286
        2.676000           37.87180           8.026657           38.42560           4.890842
        2.680000           37.42324           8.380795           37.75745           5.258050
        2.684000           37.01595           8.754386           37.13256           5.658831
        2.688000           36.65015           9.143521           36.55194           6.089212
        2.692000           36.32551           9.544456           36.01614           6.545304
        2.696000           36.04148           9.953481           35.52569           7.023273
        2.700000           35.79720           10.36725           35.08043           7.519629
        2.704000           35.59155           10.78246           34.68039           8.030778
        2.708000           35.42316           11.19606           34.32524           8.553375
        2.712000           35.29040           11.60523           34.01456           9.084139
        2.716000           35.19154           12.00727           33.74752           9.619876
        2.720000           35.12452           12.39990           33.52323           10.15769
        2.724000           35.08725           12.78095           33.34082           10.69458
        2.728000           35.07736           13.14854           33.19883           11.22777
        2.732000           35.09237           13.50112           33.09611           11.75453
        2.736000           35.12986           13.83737           33.03102           12.27226
        2.740000           35.18716           14.15626           33.00175           12.77848
        2.744000           35.26162           14.45725           33.00641           13.27096
        2.748000           35.35067           14.73997           33.04292           13.74751
        2.752000           35.45166           15.00444           33.10902           14.20613
        2.756000           35.56221           15.25095           33.20204           14.64509
        2.760000           35.67990           15.48006           33.31933           15.06287
        2.764000           35.80257           15.69281           33.45805           15.45840
        2.768000           35.92842           15.89026           33.61524           15.83071
        2.772000           36.05561           16.07375           33.78778           16.17942
        2.776000           36.18287           16.24479           33.97259           16.50443
        2.780000           36.30899           16.40492           34.16670           16.80595
        2.784000           36.43327           16.55573           34.36692           17.08486
        2.788000           36.55497           16.69894           34.57056           17.34227
        2.792000           36.67396           16.83613           34.77502           17.57963
        2.796000           36.79007           16.96876           34.97799           17.79903
        2.800000           36.90338           17.09832           35.17754           18.00255
        2.804000           37.01421           17.22614           35.37231           18.19251
        2.808000           37.12296           17.35345           35.56092           18.37158
        2.812000           37.23014           17.48133           35.74303           18.54241
        2.816000           37.33639           17.61076           35.91834           18.70759
        2.820000           37.44245           17.74264           36.08710           18.86963
        2.824000           37.54900           17.87774           36.25019           19.03094
        2.828000           37.65680           18.01671           36.40817           19.19361
        2.832000           37.76680           18.16020           36.56280           19.35956
        2.836000           37.87969           18.30874           36.71531           19.53041
        2.840000           37.99655           18.46278           36.86738           19.70731
        2.844000           38.11827           18.62278           37.02089           19.89132
        2.848000           38.24584           18.78907           37.17762           20.08308
        2.852000           38.38024           18.96194           37.33924           20.28304
        2.856000           38.52281           19.14170           37.50747           20.49158
        2.860000           38.67458           19.32848           37.68404           20.70865
        2.864000           38.83698           19.52239           37.87052           20.93428
        2.868000           39.01146           19.72334           38.06852           21.16832
        2.872000           39.19938           19.93116           38.27958           21.41052
        2.876000           39.40242           20.14555           38.50551           21.66073
        2.880000           39.62226           20.36597           38.74794           21.91856
        2.884000           39.86056           20.59171           39.00856           22.18344
        2.888000           40.11898           20.82175           39.28928           22.45491
        2.892000           40.39916           21.05492           39.59203           22.73204
        2.896000           40.70288           21.28979           39.91904           23.01381
        2.900000           41.03160           21.52470           40.27238           23.29892
        2.904000           41.38680           21.75772           40.65427           23.58574
        2.908000           41.76997           21.98670           41.06695           23.87212
        2.912000           42.18214           22.20928           41.51226           24.15582
        2.916000           42.62415           22.42288           41.99252           24.43371
        2.920000           43.09698           22.62466           42.50927           24.70275
        2.924000           43.60117           22.81169           43.06389           24.95926
        2.928000           44.13694           22.98077           43.65774           25.19911
        2.932000           44.70430           23.12863           44.29110           25.41802
        2.936000           45.30297           23.25170           44.96463           25.61139
        2.940000           45.93209           23.34632           45.67744           25.77399
        2.944000           46.59108           23.40878           46.42874           25.90104
        2.948000           47.27795           23.43523           47.21705           25.98708
        2.952000           47.99094           23.42178           48.03951           26.02705
        2.956000           48.72753           23.36450           48.89340           26.01568
        2.960000           49.48452           23.25963           49.77449           25.94817
        2.964000           50.25830           23.10361           50.67827           25.81981
        2.968000           51.04465           22.89311           51.59928           25.62655
        2.972000           51.83852           22.62510           52.53123           25.36474
        2.976000           52.63472           22.29728           53.46761           25.03159
        2.980000           53.42710           21.90772           54.40074           24.62506
        2.984000           54.20937           21.45544           55.32338           24.14401
        2.988000           54.97472           20.94022           56.22705           23.58851
        2.992000           55.71629           20.36253           57.10394           22.95932
        2.996000           56.42725           19.72412           57.94607           22.25859
        3.000000           57.10073           19.02747           58.74539           21.48941
        3.004000           57.73025           18.27611           59.49497           20.65583
        3.008000           58.30949           17.47457           60.18707           19.76333
        3.012000           58.83316           16.62795           60.81593           18.81744
        3.016000           59.29623           15.74241           61.37634           17.82522
        3.020000           59.69478           14.82463           61.86356           16.79397
        3.024000           60.02571           13.88182           62.27374           15.73165
        3.028000           60.28685           12.92151           62.60465           14.64651
        3.032000           60.47725           11.95164           62.85442           13.54723
        3.036000           60.59691           10.97985           63.02311           12.44228
        3.040000           60.64675           10.01391           63.11080           11.34029
        3.044000           60.62887           9.061391           63.11942           10.24969
        3.048000           60.54639           8.129263           63.05174           9.178568
        3.052000           60.40326           7.224102           62.91126           8.134520
        3.056000           60.20401           6.351830           62.70242           7.124755
        3.060000           59.95423           5.517264           62.43105           6.155384
        3.064000           59.65985           4.724709           62.10255           5.232058
        3.068000           59.32709           3.977453           61.72394           4.359500
        3.072000           58.96256           3.277736           61.30201           3.541432
        3.076000           58.57298           2.626976           60.84455           2.780716
        3.080000           58.16480           2.025368           60.35894           2.078987
        3.084000           57.74448           1.472540           59.85217           1.437094
        3.088000           57.31807           0.967111           59.33271           0.854866
        3.092000           56.89138           0.506966           58.80704           0.331169
        3.096000           56.46940           0.089294           58.28235          -0.135980
        3.100000           56.05662          -0.289213           57.76535          -0.549440
        3.104000           55.65718          -0.632480           57.26161          -0.912885
        3.108000           55.27414          -0.944626           56.77694          -1.230609
        3.112000           54.91018          -1.230229           56.31565          -1.507538
        3.116000           54.56710          -1.493819           55.88188          -1.749074
        3.120000           54.24609          -1.740245           55.47848          -1.961084
        3.124000           53.94753          -1.974224           55.10794          -2.149704
        3.128000           53.67123          -2.200492           54.77115          -2.321297
        3.132000           53.41629          -2.423437           54.46901          -2.482208
        3.136000           53.18121          -2.647434           54.20055          -2.638787
        3.140000           52.96370          -2.876371           53.96415          -2.797198
        3.144000           52.76123          -3.113811           53.75785          -2.963204
        3.148000           52.57059          -3.362931           53.57802          -3.142226
        3.152000           52.38791          -3.626197           53.42075          -3.339079
        3.156000           52.20918          -3.905415           53.28138          -3.557808
        3.160000           52.03000          -4.201950           53.15411          -3.801723
        3.164000           51.84582          -4.516120           53.03348          -4.073188
        3.168000           51.65199          -4.847601           52.91288          -4.373510
        3.172000           51.44389          -5.195267           52.78618          -4.703022
        3.176000           51.21721          -5.557128           52.64661          -5.060863
        3.180000           50.96779          -5.930367           52.48800          -5.445104
        3.184000           50.69227          -6.311544           52.30455          -5.852683
        3.188000           50.38749          -6.696441           52.09082          -6.279550
        3.192000           50.05145          -7.080518           51.84226          -6.720782
        3.196000           49.68270          -7.458694           51.55515          -7.170696
        3.200000           49.28067          -7.825651           51.22702          -7.622975
        3.204000           48.84598          -8.176121           50.85620          -8.070934
        3.208000           48.37976          -8.504860           50.44242          -8.507732
        3.212000           47.88442          -8.806825           49.98646          -8.926552
        3.216000           47.36298          -9.077542           49.49039          -9.320883
        3.220000           46.81905          -9.313046           48.95699          -9.684567
        3.224000           46.25703          -9.509936           48.39032          -10.01215
        3.228000           45.68180          -9.665662           47.79525          -10.29893
        3.232000           45.09837          -9.778441           47.17709          -10.54104
        3.236000           44.51203          -9.847331           46.54159          -10.73553
        3.240000           43.92813          -9.872153           45.89470          -10.88052
        3.244000           43.35178          -9.853594           45.24267          -10.97495
        3.248000           42.78799          -9.792887           44.59173          -11.01879
        3.252000           42.24119          -9.692241           43.94782          -11.01278
        3.256000           41.71571          -9.554152           43.31647          -10.95854
        3.260000           41.21540          -9.381762           42.70277          -10.85837
        3.264000           40.74304          -9.178489           42.11162          -10.71504
        3.268000           40.30145          -8.948157           41.54699          -10.53205
        3.272000           39.89263          -8.694709           41.01258          -10.31300
        3.276000           39.51803          -8.422272           40.51146          -10.06209
        3.280000           39.17849          -8.134927           40.04599          -9.783461
        3.284000           38.87429          -7.836751           39.61794          -9.481604
        3.288000           38.60527          -7.531727           39.22859          -9.160935
        3.292000           38.37074          -7.223713           38.87877          -8.825976
        3.296000           38.16952          -6.916154           38.56834          -8.481078
        3.300000           38.00010          -6.612472           38.29738          -8.130576
        3.304000           37.86059          -6.315543           38.06471          -7.778591
        3.308000           37.74874          -6.027922           37.86919          -7.429010
        3.312000           37.66217          -5.751803           37.70897          -7.085515
        3.316000           37.59819          -5.489011           37.58213          -6.751358
        3.320000           37.55409          -5.240831           37.48611          -6.429612
        3.324000           37.52711          -5.008192           37.41795          -6.122883
        3.328000           37.51441          -4.791426           37.37483          -5.833201
        3.332000           37.51347          -4.590621           37.35338          -5.562274
        3.336000           37.52161          -4.405406           37.35034          -5.311237
        3.340000           37.53663          -4.234987           37.36213          -5.080735
        3.344000           37.55645          -4.078372           37.38546          -4.870828
        3.348000           37.57934          -3.934216           37.41719          -4.681129
        3.352000           37.60395          -3.801008           37.45406          -4.510672
        3.356000           37.62926          -3.677099           37.49341          -4.358087
        3.360000           37.65468          -3.560773           37.53296          -4.221601
        3.364000           37.67997          -3.450338           37.57083          -4.099152
        3.368000           37.70514          -3.344241           37.60524          -3.988476
        3.372000           37.73075          -3.240902           37.63547          -3.887079
        3.376000           37.75753          -3.139163           37.66114          -3.792550
        3.380000           37.78640          -3.037911           37.68215          -3.702503
        3.384000           37.81861          -2.936518           37.69913          -3.614735
        3.388000           37.85545          -2.834572           37.71300          -3.527292
        3.392000           37.89812          -2.731983           37.72500          -3.438501
        3.396000           37.94820          -2.629064           37.73677          -3.347137
        3.400000           38.00668          -2.526253           37.74991          -3.252305
        3.404000           38.07470          -2.424457           37.76617          -3.153582
        3.408000           38.15321          -2.324787           37.78750          -3.050905
        3.412000           38.24273          -2.228357           37.81548          -2.944609
        3.416000           38.34372          -2.136558           37.85163          -2.835316
        3.420000           38.45632          -2.050736           37.89721          -2.723956
        3.424000           38.58040          -1.972299           37.95345          -2.611588
        3.428000           38.71566          -1.902523           38.02103          -2.499459
        3.432000           38.86154          -1.842645           38.10068          -2.388847
        3.436000           39.01733          -1.793738           38.19251          -2.280997
        3.440000           39.18226          -1.756690           38.29667          -2.177133
        3.444000           39.35544          -1.732365           38.41347          -2.078402
        3.448000           39.53609          -1.721358           38.54244          -1.985831
        3.452000           39.72323          -1.724251           38.68359          -1.900394
        3.456000           39.91608          -1.741428           38.83679          -1.822947
        3.460000           40.11382          -1.773309           39.00184          -1.754377
        3.464000           40.31570          -1.820272           39.17878          -1.695516
        3.468000           40.52105          -1.882654           39.36752          -1.647254
        3.472000           40.72904          -1.960815           39.56804          -1.610635
        3.476000           40.93904          -2.055208           39.78006          -1.586747
        3.480000           41.15028          -2.166268           40.00396          -1.576919
        3.484000           41.36190          -2.294469           40.23915          -1.582583
        3.488000           41.57310          -2.440378           40.48547          -1.605374
        3.492000           41.78269          -2.604462           40.74233          -1.647063
        3.496000           41.98980          -2.787231           41.00887          -1.709523
        3.500000           42.19292          -2.989160           41.28404          -1.794720
        3.504000           42.39067          -3.210593           41.56608          -1.904581
        3.508000           42.58166          -3.451865           41.85330          -2.041071
        3.512000           42.76411          -3.713139           42.14333          -2.205944
        3.516000           42.93629          -3.994453           42.43378          -2.400797
        3.520000           43.09641          -4.295700           42.72128          -2.626963
        3.524000           43.24241          -4.616534           43.00261          -2.885396
        3.528000           43.37214          -4.956404           43.27407          -3.176615
        3.532000           43.48353          -5.314572           43.53186          -3.500713
        3.536000           43.57442          -5.689989           43.77170          -3.857160
        3.540000           43.64251          -6.081216           43.98951          -4.244802
        3.544000           43.68568          -6.486583           44.18108          -4.661885
        3.548000           43.70197          -6.903908           44.34236          -5.105861
        3.552000           43.68929          -7.330821           44.46981          -5.573650
        3.556000           43.64624          -7.764435           44.55969          -6.061428
        3.560000           43.57140          -8.201509           44.60931          -6.564739
        3.564000           43.46403          -8.638511           44.61653          -7.078649
        3.568000           43.32368          -9.071661           44.57994          -7.597761
        3.572000           43.15068          -9.497016           44.49862          -8.116343
        3.576000           42.94587          -9.910705           44.37344          -8.628751
        3.580000           42.71083          -10.30883           44.20557          -9.129246
        3.584000           42.44784          -10.68770           43.99715          -9.612336
        3.588000           42.15957          -11.04409           43.75149          -10.07312
        3.592000           41.84957          -11.37519           43.47244          -10.50711
        3.596000           41.52144          -11.67877           43.16484          -10.91074
        3.600000           41.17945          -11.95337           42.83357          -11.28131
        3.604000           40.82797          -12.19817           42.48432          -11.61701
        3.608000           40.47116          -12.41319           42.12250          -11.91701
        3.612000           40.11351          -12.59911           41.75388          -12.18149
        3.616000           39.75895          -12.75733           41.38339          -12.41160
        3.620000           39.41108          -12.89008           41.01636          -12.60928
        3.624000           39.07309          -13.00002           40.65688          -12.77738
        3.628000           38.74767          -13.09015           40.30871          -12.91916
        3.632000           38.43668          -13.16413           39.97496          -13.03858
        3.636000           38.14139          -13.22563           39.65756          -13.13985
        3.640000           37.86237          -13.27858           39.35811          -13.22740
        3.644000           37.59937          -13.32671           39.07679          -13.30576
        3.648000           37.35149          -13.37380           38.81330          -13.37934
        3.652000           37.11717          -13.42320           38.56687          -13.45232
        3.656000           36.89415          -13.47789           38.33523          -13.52856
        3.660000           36.67978          -13.54041           38.11585          -13.61136
        3.664000           36.47077          -13.61259           37.90574          -13.70354
        3.668000           36.26379          -13.69576           37.70142          -13.80702
        3.672000           36.05498          -13.79030           37.49865          -13.92332
        3.676000           35.84074          -13.89598           37.29366          -14.05287
        3.680000           35.61736          -14.01181           37.08232          -14.19544
        3.684000           35.38164          -14.13603           36.86066          -14.34995
        3.688000           35.13044          -14.26622           36.62504          -14.51446
        3.692000           34.86139          -14.39943           36.37204          -14.68650
        3.696000           34.57267          -14.53220           36.09902          -14.86290
        3.700000           34.26314          -14.66086           35.80403          -15.04002
        3.704000           33.93238          -14.78141           35.48579          -15.21387
        3.708000           33.58079          -14.88997           35.14328          -15.38030
        3.712000           33.20941          -14.98276           34.77732          -15.53509
        3.716000           32.82001          -15.05621           34.38833          -15.67415
        3.720000           32.41491          -15.10716           33.97831          -15.79358
        3.724000           31.99697          -15.13302           33.54947          -15.89001
        3.728000           31.56946          -15.13163           33.10484          -15.96034
        3.732000           31.13586          -15.10147           32.64753          -16.00223
        3.736000           30.69966          -15.04158           32.18114          -16.01379
        3.740000           30.26457          -14.95167           31.70953          -15.99374
        3.744000           29.83414          -14.83195           31.23642          -15.94164
        3.748000           29.41180          -14.68317           30.76570          -15.85737
        3.752000           29.00079          -14.50651           30.30092          -15.74157
        3.756000           28.60379          -14.30354           29.84557          -15.59520
        3.760000           28.22356          -14.07617           29.40282          -15.41980
        3.764000           27.86214          -13.82648           28.97544          -15.21709
        3.768000           27.52153          -13.55683           28.56585          -14.98926
        3.772000           27.20315          -13.26968           28.17624          -14.73858
        3.776000           26.90820          -12.96755           27.80821          -14.46760
        3.780000           26.63747          -12.65294           27.46317          -14.17878
        3.784000           26.39142          -12.32844           27.14218          -13.87475
        3.788000           26.17030          -11.99648           26.84598          -13.55811
        3.792000           25.97400          -11.65949           26.57467          -13.23141
        3.796000           25.80227          -11.31983           26.32836          -12.89709
        3.800000           25.65444          -10.97951           26.10698          -12.55751
        3.804000           25.52986          -10.64062           25.90995          -12.21484
        3.808000           25.42753          -10.30502           25.73663          -11.87121
        3.812000           25.34643          -9.974313           25.58633          -11.52841
        3.816000           25.28541          -9.650039           25.45793          -11.18822
        3.820000           25.24321          -9.333553           25.35044          -10.85212
        3.824000           25.21841          -9.025896           25.26276          -10.52141
        3.828000           25.20979          -8.728036           25.19360          -10.19721
        3.832000           25.21588          -8.440734           25.14175          -9.880550
        3.836000           25.23536          -8.164684           25.10620          -9.572219
        3.840000           25.26682          -7.900405           25.08544          -9.272921
        3.844000           25.30893          -7.648222           25.07855          -8.983208
        3.848000           25.36045          -7.408455           25.08435          -8.703511
        3.852000           25.42004          -7.181259           25.10157          -8.434320
        3.856000           25.48642          -6.966709           25.12944          -8.175912
        3.860000           25.55830          -6.764834           25.16671          -7.928622
        3.864000           25.63449          -6.575609           25.21236          -7.692744
        3.868000           25.71368          -6.398755           25.26523          -7.468431
        3.872000           25.79461          -6.234014           25.32432          -7.255877
        3.876000           25.87605          -6.080916           25.38827          -7.055145
        3.880000           25.95681          -5.938967           25.45610          -6.866180
        3.884000           26.03563          -5.807385           25.52624          -6.688807
        3.888000           26.11149          -5.685298           25.59760          -6.522731
        3.892000           26.18338          -5.571673           25.66885          -6.367392
        3.896000           26.25046          -5.465304           25.73881          -6.222111
        3.900000           26.31201          -5.364850           25.80618          -6.086000
        3.904000           26.36761          -5.268848           25.87027          -5.957945
        3.908000           26.41688          -5.175837           25.92989          -5.836776
        3.912000           26.45987          -5.084184           25.98452          -5.721011
        3.916000           26.49681          -4.992303           26.03395          -5.609272
        3.920000           26.52816          -4.898648           26.07780          -5.499972
        3.924000           26.55470          -4.801784           26.11605          -5.391544
        3.928000           26.57735          -4.700253           26.14932          -5.282519
        3.932000           26.59733          -4.592944           26.17798          -5.171427
        3.936000           26.61620          -4.478713           26.20308          -5.056912
        3.940000           26.63542          -4.356893           26.22549          -4.937788
        3.944000           26.65672          -4.226884           26.24634          -4.812984
        3.948000           26.68201          -4.088402           26.26702          -4.681620
        3.952000           26.71313          -3.941506           26.28922          -4.543027
        3.956000           26.75205          -3.786529           26.31432          -4.396760
        3.960000           26.80068          -3.624016           26.34398          -4.242530
        3.964000           26.86074          -3.454920           26.38045          -4.080319
        3.968000           26.93407          -3.280481           26.42510          -3.910465
        3.972000           27.02214          -3.102109           26.48003          -3.733467
        3.976000           27.12636          -2.921575           26.54696          -3.550182
        3.980000           27.24791          -2.740748           26.62766          -3.361669
        3.984000           27.38761          -2.561814           26.72408          -3.169384
        3.988000           27.54606          -2.386985           26.83725          -2.974974
        3.992000           27.72365          -2.218739           26.96881          -2.780443
        3.996000           27.92036          -2.059455           27.11995          -2.587965
        4.000000           28.13579          -1.911709           27.29112          -2.400073
# 
# 11/06/2023 at 18:19 yambo @ unimi-XPS-8930 [start]
# 11/06/2023 at 18:19                        [end]
#  
# Timing   [Min/Max/Average]: 11s/11s/11s
#
# .-Input file  yambo.in_generated
# | optics                           # [R] Linear Response optical properties
# | bss                              # [R] BSE solver
# | bse                              # [R][BSE] Bethe Salpeter Equation.
# | tddft                            # [R][K] Use TDDFT kernel
# | ElecTemp= 0.025861         eV    # Electronic Temperature
# | BoseTemp= 0.025861         eV    # Bosonic Temperature
# | FFTGvecs=  603             RL    # [FFT] Plane-waves
# | BS_nCPU_LinAlg_INV= 1            # [PARALLEL] CPUs for Linear Algebra (if -1 it is automatically set)
# | BS_nCPU_LinAlg_DIAGO= 1          # [PARALLEL] CPUs for Linear Algebra (if -1 it is automatically set)
# | X_Threads= 1                     # [OPENMP/X] Number of threads for response functions
# | DIP_Threads= 1                   # [OPENMP/X] Number of threads for dipoles
# | K_Threads= 1                     # [OPENMP/BSK] Number of threads for response functions
# | BSKmod= "ALDA"                   # [BSE] IP/Hartree/HF/ALDA/SEX/BSfxc
# | BSEmod= "resonant"               # [BSE] resonant/retarded/coupling
# | BSSmod= "d"                      # [BSS] (h)aydock/(d)iagonalization/(s)lepc/(i)nversion/(t)ddft`
# | DipComputed= "R V P Spin"        # [DIP] [default R P V; extra P2 Spin Orb]
# | BSENGexx= 1157             RL    # [BSK] Exchange components
# | % BSEQptR
# |  1 | 2 |                             # [BSK] Transferred momenta range
# | %
# | % BSEBands
# |   2 |  6 |                           # [BSK] Bands range
# | %
# | % BEnRange
# | -2.000000 | 4.000000 |         eV    # [BSS] Energy range
# | %
# | % BDmRange
# |  0.100000 | 0.100000 |         eV    # [BSS] Damping range
# | %
# | BEnSteps= 1501                   # [BSS] Energy steps
# | % BLongDir
# |  0.000000 | 1.000000 | 0.000000 |        # [BSS] [cc] Electric Field versor
# | %
# | BSEprop= " jdos magn"            # [BSS] Can be any among abs/jdos/kerr/asymm/anHAll/magn/dich/photolum/esrt
# | BSEdips= "none"                  # [BSS] Can be "trace/none" or "xy/xz/yz" to define off-diagonal rotation plane
# | #WRbsWF                        # [BSS] Write to disk excitonic the WFs
