#                                                                     
# :   :::   :::     ::::    ::::  :::::::::   ::::::::                
# :+:   :+: :+: :+:   +:+:+: :+:+:+ :+:    :+: :+:    :+              
#  +:+ +:+ +:+   +:+  +:+ +:+:+ +:+ +:+    +:+ +:+    +:+             
#   +#++: +#++:++#++: +#+  +:+  +#+ +#++:++#+  +#+    +:+             
#    +#+  +#+     +#+ +#+       +#+ +#+    +#+ +#+    +#+             
#    #+#  #+#     #+# #+#       #+# #+#    #+# #+#    #+#             
#    ###  ###     ### ###       ### #########   ########              
#                                                                     
#                                                                     
# Version 5.2.0 Revision 22885 Hash (prev commit) 41fc9d87d4          
#                Branch is phys-dichroism                             
#         MPI+OpenMP+SLK+SLEPC+HDF5_MPI_IO Build                      
#                http://www.yambo-code.org                            
#
# Absorption @ Q(1):   0.00000000     0.999999975E-5   0.00000000    [q->0 direction]
#
# [GEN] GF Energies                               : Perdew, Burke & Ernzerhof(X)+Perdew, Burke & Ernzerhof(C)
# [GEN] Green`s Function                          : Resonant
#
# [GEN] Gauge                                     : Length
# [GEN] [r,Vnl] included                          : yes
#
# DIP band range                                  :   2   6
# DIP band range limits                           :   6   2
# DIP e/h energy range                            :  -1.00000000     -1.00000000    [eV]
# RL vectors in the sum                           :   603
# [r,Vnl] included                                : yes
# Bands ordered                                   : yes
# Direct v evaluation                             : no
# Approach used                                   : G-space v
# Dipoles computed                                : R V P
# Wavefunctions                                   : Perdew, Burke & Ernzerhof(X)+Perdew, Burke & Ernzerhof(C)
#
#
# [K] Identifier                                  :   8810
# [K] Dimension                                   :   694
# [K] Bands                                       :   2   6
# [K] Exchange res                                : yes
# [K] Correlation res                             : no
# [K] Kernel`s coupling                           : no
# [K] Exchange cpl                                : no
# [K] Correlation cpl                             : no
# [K] W interaction is bare                       : no
# [K] ALDA kernel in R-space                      : yes
# [K] RL vectors exchange                         :  1157
# [K] E/h energy range                            :  -1.00000000     -1.00000000    [eV]
# [K] Coupling range                              :   100.000000      100.000000    [o/o]
# [X] Response Kind                               : BAR
#
# Diamagnetic term                                
# Ao                                              :  -7.25616693    [nel]
# A                                               :   0.00000000    [nel]
#
#    E[1] [eV]          Im(eps)            Re(eps)            Im(eps_o)          Re(eps_o)
#
       -2.000000           1.051448           29.35583           1.049847           29.31914
       -1.996000           1.054651           29.39783           1.053046           29.36107
       -1.992000           1.057867           29.43996           1.056258           29.40308
       -1.988000           1.061099           29.48223           1.059487           29.44529
       -1.984000           1.064347           29.52461           1.062732           29.48760
       -1.980000           1.067609           29.56710           1.065989           29.53009
       -1.976000           1.070886           29.60974           1.069264           29.57266
       -1.972000           1.074179           29.65252           1.072552           29.61536
       -1.968000           1.077487           29.69544           1.075855           29.65815
       -1.964000           1.080811           29.73848           1.079174           29.70117
       -1.960000           1.084150           29.78163           1.082512           29.74424
       -1.956000           1.087505           29.82495           1.085862           29.78752
       -1.952000           1.090876           29.86840           1.089230           29.83090
       -1.948000           1.094262           29.91196           1.092614           29.87435
       -1.944000           1.097665           29.95567           1.096010           29.91804
       -1.940000           1.101084           29.99951           1.099427           29.96181
       -1.936000           1.104519           30.04348           1.102855           30.00568
       -1.932000           1.107970           30.08759           1.106305           30.04977
       -1.928000           1.111438           30.13184           1.109768           30.09396
       -1.924000           1.114922           30.17625           1.113247           30.13823
       -1.920000           1.118423           30.22079           1.116745           30.18268
       -1.916000           1.121941           30.26544           1.120260           30.22730
       -1.912000           1.125475           30.31024           1.123790           30.27210
       -1.908000           1.129027           30.35517           1.127337           30.31695
       -1.904000           1.132595           30.40026           1.130901           30.36194
       -1.900000           1.136181           30.44548           1.134482           30.40715
       -1.896000           1.139784           30.49085           1.138082           30.45245
       -1.892000           1.143404           30.53639           1.141698           30.49786
       -1.888000           1.147042           30.58205           1.145332           30.54349
       -1.884000           1.150698           30.62786           1.148983           30.58924
       -1.880000           1.154370           30.67382           1.152651           30.63509
       -1.876000           1.158062           30.71991           1.156339           30.68116
       -1.872000           1.161771           30.76616           1.160045           30.72732
       -1.868000           1.165498           30.81255           1.163767           30.77362
       -1.864000           1.169243           30.85910           1.167508           30.82008
       -1.860000           1.173007           30.90578           1.171267           30.86674
       -1.856000           1.176789           30.95262           1.175045           30.91352
       -1.852000           1.180590           30.99960           1.178842           30.96039
       -1.848000           1.184410           31.04675           1.182656           31.00750
       -1.844000           1.188248           31.09406           1.186490           31.05471
       -1.840000           1.192106           31.14150           1.190345           31.10207
       -1.836000           1.195981           31.18910           1.194216           31.14962
       -1.832000           1.199876           31.23685           1.198107           31.19736
       -1.828000           1.203791           31.28477           1.202020           31.24517
       -1.824000           1.207726           31.33283           1.205950           31.29317
       -1.820000           1.211679           31.38106           1.209900           31.34128
       -1.816000           1.215653           31.42944           1.213867           31.38960
       -1.812000           1.219646           31.47798           1.217857           31.43805
       -1.808000           1.223659           31.52665           1.221867           31.48668
       -1.804000           1.227693           31.57555           1.225896           31.53550
       -1.800000           1.231746           31.62457           1.229946           31.58443
       -1.796000           1.235820           31.67374           1.234015           31.63354
       -1.792000           1.239915           31.72310           1.238105           31.68283
       -1.788000           1.244030           31.77261           1.242216           31.73227
       -1.784000           1.248166           31.82228           1.246349           31.78188
       -1.780000           1.252323           31.87211           1.250500           31.83162
       -1.776000           1.256500           31.92210           1.254675           31.88156
       -1.772000           1.260700           31.97226           1.258870           31.93161
       -1.768000           1.264921           32.02259           1.263087           31.98186
       -1.764000           1.269163           32.07309           1.267324           32.03233
       -1.760000           1.273427           32.12377           1.271582           32.08292
       -1.756000           1.277712           32.17462           1.275865           32.13370
       -1.752000           1.282020           32.22562           1.280169           32.18460
       -1.748000           1.286350           32.27679           1.284494           32.23573
       -1.744000           1.290702           32.32817           1.288842           32.28702
       -1.740000           1.295076           32.37968           1.293209           32.33848
       -1.736000           1.299472           32.43138           1.297604           32.39013
       -1.732000           1.303893           32.48328           1.302019           32.44190
       -1.728000           1.308335           32.53532           1.306459           32.49382
       -1.724000           1.312801           32.58755           1.310920           32.54599
       -1.720000           1.317290           32.63996           1.315404           32.59834
       -1.716000           1.321802           32.69255           1.319913           32.65086
       -1.712000           1.326338           32.74531           1.324442           32.70358
       -1.708000           1.330898           32.79825           1.328998           32.75644
       -1.704000           1.335481           32.85137           1.333576           32.80952
       -1.700000           1.340089           32.90469           1.338181           32.86270
       -1.696000           1.344719           32.95818           1.342809           32.91615
       -1.692000           1.349376           33.01186           1.347459           32.96972
       -1.688000           1.354057           33.06571           1.352136           33.02351
       -1.684000           1.358762           33.11977           1.356838           33.07748
       -1.680000           1.363492           33.17400           1.361562           33.13162
       -1.676000           1.368248           33.22844           1.366314           33.18602
       -1.672000           1.373027           33.28304           1.371089           33.24056
       -1.668000           1.377834           33.33785           1.375893           33.29524
       -1.664000           1.382666           33.39285           1.380720           33.35019
       -1.660000           1.387523           33.44804           1.385572           33.40527
       -1.656000           1.392406           33.50341           1.390450           33.46055
       -1.652000           1.397316           33.55901           1.395356           33.51608
       -1.648000           1.402252           33.61476           1.400288           33.57175
       -1.644000           1.407215           33.67073           1.405246           33.62771
       -1.640000           1.412204           33.72690           1.410229           33.68372
       -1.636000           1.417220           33.78326           1.415242           33.73999
       -1.632000           1.422263           33.83981           1.420282           33.79650
       -1.628000           1.427334           33.89658           1.425347           33.85320
       -1.624000           1.432432           33.95354           1.430440           33.91008
       -1.620000           1.437558           34.01072           1.435565           33.96714
       -1.616000           1.442712           34.06807           1.440712           34.02444
       -1.612000           1.447894           34.12564           1.445890           34.08193
       -1.608000           1.453104           34.18344           1.451095           34.13965
       -1.604000           1.458343           34.24142           1.456332           34.19757
       -1.600000           1.463611           34.29963           1.461594           34.25567
       -1.596000           1.468907           34.35803           1.466887           34.31399
       -1.592000           1.474234           34.41664           1.472208           34.37253
       -1.588000           1.479589           34.47548           1.477560           34.43124
       -1.584000           1.484973           34.53452           1.482939           34.49025
       -1.580000           1.490389           34.59378           1.488350           34.54945
       -1.576000           1.495834           34.65325           1.493790           34.60886
       -1.572000           1.501309           34.71294           1.499259           34.66845
       -1.568000           1.506814           34.77284           1.504762           34.72828
       -1.564000           1.512351           34.83295           1.510296           34.78827
       -1.560000           1.517918           34.89332           1.515860           34.84855
       -1.556000           1.523517           34.95388           1.521452           34.90900
       -1.552000           1.529146           35.01467           1.527079           34.96974
       -1.548000           1.534808           35.07569           1.532736           35.03066
       -1.544000           1.540502           35.13692           1.538424           35.09184
       -1.540000           1.546228           35.19837           1.544147           35.15324
       -1.536000           1.551985           35.26007           1.549902           35.21485
       -1.532000           1.557777           35.32199           1.555688           35.27663
       -1.528000           1.563601           35.38414           1.561507           35.33869
       -1.524000           1.569457           35.44653           1.567360           35.40103
       -1.520000           1.575347           35.50914           1.573242           35.46357
       -1.516000           1.581271           35.57198           1.579162           35.52632
       -1.512000           1.587229           35.63509           1.585116           35.58932
       -1.508000           1.593223           35.69840           1.591106           35.65255
       -1.504000           1.599250           35.76196           1.597127           35.71604
       -1.500000           1.605311           35.82575           1.603189           35.77975
       -1.496000           1.611407           35.88979           1.609279           35.84368
       -1.492000           1.617539           35.95409           1.615408           35.90787
       -1.488000           1.623707           36.01861           1.621570           35.97235
       -1.484000           1.629910           36.08339           1.627769           36.03702
       -1.480000           1.636149           36.14841           1.634003           36.10200
       -1.476000           1.642425           36.21367           1.640277           36.16712
       -1.472000           1.648738           36.27918           1.646582           36.23256
       -1.468000           1.655087           36.34494           1.652927           36.29822
       -1.464000           1.661473           36.41096           1.659306           36.36417
       -1.460000           1.667899           36.47725           1.665728           36.43033
       -1.456000           1.674359           36.54377           1.672185           36.49679
       -1.452000           1.680859           36.61054           1.678684           36.56348
       -1.448000           1.687397           36.67757           1.685217           36.63045
       -1.444000           1.693975           36.74488           1.691787           36.69772
       -1.440000           1.700591           36.81244           1.698399           36.76517
       -1.436000           1.707248           36.88028           1.705057           36.83291
       -1.432000           1.713943           36.94837           1.711743           36.90090
       -1.428000           1.720677           37.01674           1.718474           36.96914
       -1.424000           1.727455           37.08537           1.725247           37.03770
       -1.420000           1.734270           37.15425           1.732057           37.10653
       -1.416000           1.741127           37.22340           1.738910           37.17565
       -1.412000           1.748026           37.29284           1.745804           37.24495
       -1.408000           1.754967           37.36255           1.752740           37.31456
       -1.404000           1.761949           37.43253           1.759722           37.38450
       -1.400000           1.768974           37.50281           1.766742           37.45465
       -1.396000           1.776041           37.57335           1.773806           37.52508
       -1.392000           1.783152           37.64417           1.780912           37.59583
       -1.388000           1.790304           37.71527           1.788061           37.66685
       -1.384000           1.797501           37.78666           1.795253           37.73819
       -1.380000           1.804744           37.85834           1.802492           37.80975
       -1.376000           1.812029           37.93030           1.809773           37.88158
       -1.372000           1.819358           38.00256           1.817100           37.95372
       -1.368000           1.826736           38.07510           1.824471           38.02621
       -1.364000           1.834157           38.14793           1.831892           38.09895
       -1.360000           1.841625           38.22107           1.839355           38.17194
       -1.356000           1.849139           38.29449           1.846863           38.24531
       -1.352000           1.856700           38.36821           1.854421           38.31892
       -1.348000           1.864307           38.44224           1.862020           38.39278
       -1.344000           1.871962           38.51656           1.869674           38.46708
       -1.340000           1.879665           38.59119           1.877376           38.54160
       -1.336000           1.887416           38.66613           1.885123           38.61646
       -1.332000           1.895216           38.74136           1.892915           38.69169
       -1.328000           1.903066           38.81691           1.900760           38.76708
       -1.324000           1.910964           38.89279           1.908657           38.84286
       -1.320000           1.918913           38.96896           1.916604           38.91895
       -1.316000           1.926911           39.04546           1.924597           38.99539
       -1.312000           1.934962           39.12227           1.932643           39.07207
       -1.308000           1.943063           39.19939           1.940737           39.14911
       -1.304000           1.951215           39.27684           1.948888           39.22649
       -1.300000           1.959420           39.35463           1.957092           39.30415
       -1.296000           1.967677           39.43271           1.965346           39.38217
       -1.292000           1.975986           39.51115           1.973651           39.46047
       -1.288000           1.984352           39.58991           1.982010           39.53920
       -1.284000           1.992769           39.66899           1.990425           39.61816
       -1.280000           2.001240           39.74842           1.998893           39.69747
       -1.276000           2.009768           39.82818           2.007415           39.77719
       -1.272000           2.018350           39.90828           2.015996           39.85719
       -1.268000           2.026989           39.98871           2.024631           39.93751
       -1.264000           2.035683           40.06949           2.033324           40.01816
       -1.260000           2.044435           40.15062           2.042071           40.09922
       -1.256000           2.053244           40.23209           2.050873           40.18055
       -1.252000           2.062110           40.31390           2.059736           40.26236
       -1.248000           2.071035           40.39610           2.068657           40.34442
       -1.244000           2.080019           40.47862           2.077640           40.42680
       -1.240000           2.089062           40.56148           2.086678           40.50962
       -1.236000           2.098166           40.64474           2.095778           40.59270
       -1.232000           2.107330           40.72834           2.104940           40.67622
       -1.228000           2.116554           40.81230           2.114160           40.76016
       -1.224000           2.125841           40.89663           2.123445           40.84438
       -1.220000           2.135189           40.98135           2.132788           40.92892
       -1.216000           2.144600           41.06642           2.142198           41.01395
       -1.212000           2.154073           41.15186           2.151670           41.09928
       -1.208000           2.163610           41.23768           2.161204           41.18496
       -1.204000           2.173212           41.32387           2.170805           41.27107
       -1.200000           2.182879           41.41047           2.180465           41.35756
       -1.196000           2.192612           41.49742           2.190200           41.44437
       -1.192000           2.202411           41.58475           2.199992           41.53164
       -1.188000           2.212276           41.67249           2.209856           41.61927
       -1.184000           2.222210           41.76059           2.219789           41.70731
       -1.180000           2.232210           41.84913           2.229784           41.79576
       -1.176000           2.242280           41.93804           2.239854           41.88458
       -1.172000           2.252418           42.02737           2.249988           41.97380
       -1.168000           2.262627           42.11708           2.260193           42.06338
       -1.164000           2.272905           42.20719           2.270471           42.15342
       -1.160000           2.283255           42.29769           2.280817           42.24385
       -1.156000           2.293676           42.38862           2.291235           42.33465
       -1.152000           2.304171           42.48000           2.301729           42.42594
       -1.148000           2.314739           42.57175           2.312294           42.51759
       -1.144000           2.325380           42.66392           2.322934           42.60971
       -1.140000           2.336095           42.75653           2.333646           42.70219
       -1.136000           2.346887           42.84955           2.344439           42.79513
       -1.132000           2.357753           42.94300           2.355303           42.88839
       -1.128000           2.368698           43.03691           2.366244           42.98225
       -1.124000           2.379719           43.13121           2.377263           43.07650
       -1.120000           2.390819           43.22597           2.388360           43.17113
       -1.116000           2.401997           43.32117           2.399536           43.26623
       -1.112000           2.413254           43.41679           2.410794           43.36178
       -1.108000           2.424592           43.51287           2.422135           43.45773
       -1.104000           2.436011           43.60940           2.433551           43.55418
       -1.100000           2.447513           43.70639           2.445051           43.65105
       -1.096000           2.459098           43.80380           2.456632           43.74837
       -1.092000           2.470767           43.90173           2.468300           43.84615
       -1.088000           2.482518           44.00008           2.480050           43.94442
       -1.084000           2.494354           44.09888           2.491885           44.04313
       -1.080000           2.506278           44.19817           2.503809           44.14231
       -1.076000           2.518288           44.29793           2.515818           44.24197
       -1.072000           2.530385           44.39819           2.527917           44.34216
       -1.068000           2.542572           44.49890           2.540101           44.44270
       -1.064000           2.554848           44.60007           2.552378           44.54382
       -1.060000           2.567213           44.70176           2.564742           44.64546
       -1.056000           2.579670           44.80393           2.577198           44.74750
       -1.052000           2.592221           44.90660           2.589745           44.85004
       -1.048000           2.604863           45.00975           2.602388           44.95308
       -1.044000           2.617599           45.11341           2.615126           45.05669
       -1.040000           2.630430           45.21758           2.627957           45.16077
       -1.036000           2.643358           45.32225           2.640887           45.26529
       -1.032000           2.656383           45.42743           2.653911           45.37035
       -1.028000           2.669503           45.53312           2.667032           45.47600
       -1.024000           2.682723           45.63932           2.680254           45.58206
       -1.020000           2.696044           45.74606           2.693579           45.68875
       -1.016000           2.709465           45.85333           2.706999           45.79593
       -1.012000           2.722988           45.96111           2.720523           45.90353
       -1.008000           2.736615           46.06945           2.734148           46.01186
       -1.004000           2.750343           46.17831           2.747881           46.12056
       -1.000000           2.764178           46.28773           2.761718           46.22984
       -0.996000           2.778119           46.39768           2.775656           46.33967
       -0.992000           2.792166           46.50818           2.789706           46.45010
       -0.988000           2.806323           46.61924           2.803866           46.56105
       -0.984000           2.820588           46.73085           2.818133           46.67260
       -0.980000           2.834964           46.84303           2.832511           46.78462
       -0.976000           2.849451           46.95576           2.847003           46.89733
       -0.972000           2.864052           47.06909           2.861602           47.01054
       -0.968000           2.878766           47.18300           2.876318           47.12436
       -0.964000           2.893596           47.29746           2.891155           47.23870
       -0.960000           2.908542           47.41252           2.906102           47.35369
       -0.956000           2.923605           47.52816           2.921169           47.46920
       -0.952000           2.938788           47.64440           2.936355           47.58537
       -0.948000           2.954090           47.76126           2.951659           47.70216
       -0.944000           2.969512           47.87872           2.967093           47.81948
       -0.940000           2.985060           47.99678           2.982638           47.93744
       -0.936000           3.000732           48.11542           2.998315           48.05602
       -0.932000           3.016527           48.23470           3.014117           48.17521
       -0.928000           3.032451           48.35463           3.030041           48.29504
       -0.924000           3.048504           48.47516           3.046093           48.41550
       -0.920000           3.064681           48.59633           3.062287           48.53661
       -0.916000           3.080995           48.71815           3.078597           48.65824
       -0.912000           3.097435           48.84061           3.095053           48.78066
       -0.908000           3.114013           48.96369           3.111636           48.90369
       -0.904000           3.130726           49.08746           3.128350           49.02739
       -0.900000           3.147577           49.21185           3.145205           49.15158
       -0.896000           3.164565           49.33694           3.162197           49.27655
       -0.892000           3.181690           49.46270           3.179334           49.40211
       -0.888000           3.198960           49.58912           3.196605           49.52852
       -0.884000           3.216373           49.71620           3.214021           49.65555
       -0.880000           3.233928           49.84400           3.231580           49.78325
       -0.876000           3.251629           49.97249           3.249298           49.91161
       -0.872000           3.269481           50.10166           3.267154           50.04068
       -0.868000           3.287477           50.23154           3.285161           50.17054
       -0.864000           3.305628           50.36211           3.303320           50.30105
       -0.860000           3.323931           50.49343           3.321631           50.43215
       -0.856000           3.342386           50.62545           3.340096           50.56408
       -0.852000           3.360999           50.75819           3.358711           50.69683
       -0.848000           3.379770           50.89167           3.377485           50.83022
       -0.844000           3.398703           51.02590           3.396436           50.96423
       -0.840000           3.417796           51.16085           3.415537           51.09916
       -0.836000           3.437050           51.29660           3.434806           51.23478
       -0.832000           3.456471           51.43306           3.454236           51.37113
       -0.828000           3.476061           51.57034           3.473840           51.50824
       -0.824000           3.495821           51.70832           3.493605           51.64632
       -0.820000           3.515749           51.84711           3.513543           51.78497
       -0.816000           3.535855           51.98668           3.533655           51.92443
       -0.812000           3.556130           52.12703           3.553945           52.06470
       -0.808000           3.576584           52.26819           3.574415           52.20571
       -0.804000           3.597215           52.41015           3.595061           52.34768
       -0.800000           3.618029           52.55289           3.615891           52.49032
       -0.796000           3.639029           52.69649           3.636897           52.63372
       -0.792000           3.660214           52.84093           3.658097           52.77802
       -0.788000           3.681586           52.98618           3.679481           52.92328
       -0.784000           3.703151           53.13223           3.701059           53.06929
       -0.780000           3.724904           53.27918           3.722826           53.21617
       -0.776000           3.746852           53.42696           3.744792           53.36380
       -0.772000           3.769000           53.57566           3.766958           53.51230
       -0.768000           3.791346           53.72516           3.789319           53.66187
       -0.764000           3.813895           53.87557           3.811882           53.81218
       -0.760000           3.836648           54.02684           3.834656           53.96342
       -0.756000           3.859607           54.17902           3.857629           54.11552
       -0.752000           3.882777           54.33211           3.880811           54.26854
       -0.748000           3.906158           54.48608           3.904208           54.42232
       -0.744000           3.929754           54.64099           3.927823           54.57713
       -0.740000           3.953565           54.79681           3.951654           54.73289
       -0.736000           3.977597           54.95356           3.975712           54.88953
       -0.732000           4.001854           55.11129           3.999987           55.04716
       -0.728000           4.026335           55.26994           4.024481           55.20590
       -0.724000           4.051045           55.42956           4.049216           55.36546
       -0.720000           4.075984           55.59013           4.074174           55.52584
       -0.716000           4.101157           55.75169           4.099370           55.68733
       -0.712000           4.126568           55.91423           4.124803           55.84988
       -0.708000           4.152218           56.07779           4.150476           56.01323
       -0.704000           4.178113           56.24232           4.176395           56.17775
       -0.700000           4.204253           56.40791           4.202561           56.34340
       -0.696000           4.230641           56.57449           4.228970           56.50977
       -0.692000           4.257283           56.74213           4.255641           56.67726
       -0.688000           4.284180           56.91074           4.282567           56.84602
       -0.684000           4.311336           57.08050           4.309743           57.01552
       -0.680000           4.338756           57.25126           4.337189           57.18620
       -0.676000           4.366439           57.42310           4.364898           57.35809
       -0.672000           4.394396           57.59608           4.392884           57.53094
       -0.668000           4.422623           57.77010           4.421140           57.70478
       -0.664000           4.451125           57.94523           4.449672           57.87999
       -0.660000           4.479908           58.12148           4.478480           58.05611
       -0.656000           4.508976           58.29885           4.507575           58.23348
       -0.652000           4.538327           58.47738           4.536965           58.41195
       -0.648000           4.567972           58.65705           4.566637           58.59148
       -0.644000           4.597913           58.83785           4.596617           58.77227
       -0.640000           4.628152           59.01980           4.626885           58.95426
       -0.636000           4.658697           59.20301           4.657460           59.13727
       -0.632000           4.689545           59.38735           4.688347           59.32159
       -0.628000           4.720707           59.57294           4.719538           59.50711
       -0.624000           4.752183           59.75970           4.751052           59.69384
       -0.620000           4.783979           59.94771           4.782889           59.88185
       -0.616000           4.816101           60.13695           4.815043           60.07098
       -0.612000           4.848550           60.32751           4.847537           60.26151
       -0.608000           4.881331           60.51922           4.880360           60.45326
       -0.604000           4.914451           60.71230           4.913519           60.64626
       -0.600000           4.947915           60.90667           4.947023           60.84044
       -0.596000           4.981727           61.10230           4.980885           61.03615
       -0.592000           5.015890           61.29929           5.015085           61.23307
       -0.588000           5.050408           61.49757           5.049652           61.43130
       -0.584000           5.085289           61.69719           5.084574           61.63092
       -0.580000           5.120536           61.89819           5.119868           61.83188
       -0.576000           5.156155           62.10059           5.155540           62.03422
       -0.572000           5.192155           62.30433           5.191583           62.23793
       -0.568000           5.228535           62.50950           5.228022           62.44307
       -0.564000           5.265309           62.71606           5.264841           62.64964
       -0.560000           5.302473           62.92410           5.302056           62.85762
       -0.556000           5.340037           63.13351           5.339673           63.06715
       -0.552000           5.378008           63.34448           5.377706           63.27787
       -0.548000           5.416389           63.55686           5.416134           63.49020
       -0.544000           5.455186           63.77075           5.454991           63.70407
       -0.540000           5.494409           63.98613           5.494270           63.91957
       -0.536000           5.534061           64.20304           5.533979           64.13643
       -0.532000           5.574149           64.42152           5.574128           64.35492
       -0.528000           5.614678           64.64152           5.614727           64.57494
       -0.524000           5.655660           64.86311           5.655765           64.79652
       -0.520000           5.697095           65.08627           5.697268           65.01955
       -0.516000           5.738995           65.31104           5.739229           65.24446
       -0.512000           5.781364           65.53746           5.781661           65.47091
       -0.508000           5.824209           65.76555           5.824580           65.69888
       -0.504000           5.867537           65.99527           5.867975           65.92866
       -0.500000           5.911355           66.22665           5.911869           66.16001
       -0.496000           5.955675           66.45978           5.956263           66.39314
       -0.492000           6.000498           66.69456           6.001165           66.62797
       -0.488000           6.045839           66.93114           6.046589           66.86451
       -0.484000           6.091701           67.16946           6.092517           67.10280
       -0.480000           6.138091           67.40953           6.138992           67.34300
       -0.476000           6.185025           67.65136           6.186001           67.58487
       -0.472000           6.232499           67.89507           6.233560           67.82858
       -0.468000           6.280537           68.14062           6.281692           68.07402
       -0.464000           6.329137           68.38800           6.330366           68.32156
       -0.460000           6.378299           68.63728           6.379628           68.57080
       -0.456000           6.428061           68.88844           6.429464           68.82201
       -0.452000           6.478403           69.14153           6.479906           69.07512
       -0.448000           6.529344           69.39660           6.530955           69.33020
       -0.444000           6.580904           69.65356           6.582602           69.58730
       -0.440000           6.633087           69.91258           6.634879           69.84640
       -0.436000           6.685891           70.17358           6.687789           70.10741
       -0.432000           6.739339           70.43661           6.741328           70.37057
       -0.428000           6.793437           70.70173           6.795533           70.63564
       -0.424000           6.848201           70.96892           6.850410           70.90292
       -0.420000           6.903636           71.23817           6.905961           71.17228
       -0.416000           6.959755           71.50964           6.962195           71.44379
       -0.412000           7.016572           71.78324           7.019127           71.71747
       -0.408000           7.074097           72.05903           7.076756           71.99325
       -0.404000           7.132334           72.33699           7.135126           72.27132
       -0.400000           7.191309           72.61726           7.194201           72.55174
       -0.396000           7.251026           72.89975           7.254047           72.83444
       -0.392000           7.311496           73.18452           7.314642           73.11919
       -0.388000           7.372735           73.47165           7.376009           73.40639
       -0.384000           7.434761           73.76108           7.438176           73.69601
       -0.380000           7.497579           74.05296           7.501119           73.98785
       -0.376000           7.561204           74.34722           7.564894           74.28237
       -0.372000           7.625658           74.64391           7.629488           74.57925
       -0.368000           7.690945           74.94308           7.694916           74.87853
       -0.364000           7.757086           75.24477           7.761199           75.18038
       -0.360000           7.824089           75.54902           7.828353           75.48464
       -0.356000           7.891982           75.85574           7.896409           75.79156
       -0.352000           7.960774           76.16513           7.965363           76.10101
       -0.348000           8.030474           76.47711           8.035232           76.41335
       -0.344000           8.101110           76.79179           8.106022           76.72810
       -0.340000           8.172688           77.10916           8.177781           77.04562
       -0.336000           8.245236           77.42924           8.250496           77.36586
       -0.332000           8.318760           77.75217           8.324187           77.68900
       -0.328000           8.393283           78.07781           8.398901           78.01475
       -0.324000           8.468827           78.40633           8.474623           78.34346
       -0.320000           8.545407           78.73772           8.551403           78.67506
       -0.316000           8.623049           79.07206           8.629229           79.00957
       -0.312000           8.701765           79.40935           8.708130           79.34710
       -0.308000           8.781571           79.74960           8.788142           79.68754
       -0.304000           8.862496           80.09291           8.869278           80.03119
       -0.300000           8.944566           80.43930           8.951551           80.37782
       -0.296000           9.027787           80.78882           9.034985           80.72754
       -0.292000           9.112185           81.14148           9.119622           81.08044
       -0.288000           9.197797           81.49734           9.205441           81.43654
       -0.284000           9.284635           81.85645           9.292504           81.79595
       -0.280000           9.372715           82.21880           9.380830           82.15865
       -0.276000           9.462076           82.58459           9.470416           82.52461
       -0.272000           9.552732           82.95367           9.561311           82.89405
       -0.268000           9.644718           83.32623           9.653553           83.26696
       -0.264000           9.738050           83.70230           9.747139           83.64326
       -0.260000           9.832761           84.08186           9.842107           84.02315
       -0.256000           9.928885           84.46502           9.938498           84.40664
       -0.252000           10.02643           84.85178           10.03632           84.79372
       -0.248000           10.12544           85.24222           10.13561           85.18449
       -0.244000           10.22595           85.63640           10.23641           85.57905
       -0.240000           10.32798           86.03438           10.33874           85.97746
       -0.236000           10.43156           86.43617           10.44260           86.37951
       -0.232000           10.53673           86.84187           10.54807           86.78571
       -0.228000           10.64351           87.25153           10.65518           87.19574
       -0.224000           10.75194           87.66521           10.76392           87.60981
       -0.220000           10.86207           88.08293           10.87437           88.02797
       -0.216000           10.97391           88.50478           10.98655           88.45023
       -0.212000           11.08751           88.93087           11.10049           88.87685
       -0.208000           11.20290           89.36118           11.21623           89.30756
       -0.204000           11.32013           89.79579           11.33382           89.74261
       -0.200000           11.43923           90.23480           11.45330           90.18217
       -0.196000           11.56024           90.67824           11.57468           90.62612
       -0.192000           11.68321           91.12620           11.69801           91.07452
       -0.188000           11.80817           91.57874           11.82337           91.52757
       -0.184000           11.93517           92.03594           11.95079           91.98540
       -0.180000           12.06425           92.49786           12.08026           92.44778
       -0.176000           12.19547           92.96460           12.21191           92.91515
       -0.172000           12.32888           93.43623           12.34573           93.38729
       -0.168000           12.46450           93.91275           12.48180           93.86448
       -0.164000           12.60241           94.39434           12.62016           94.34667
       -0.160000           12.74263           94.88100           12.76086           94.83398
       -0.156000           12.88525           95.37292           12.90392           95.32664
       -0.152000           13.03031           95.87003           13.04947           95.82436
       -0.148000           13.17786           96.37244           13.19750           96.32734
       -0.144000           13.32796           96.88044           13.34810           96.83616
       -0.140000           13.48067           97.39394           13.50135           97.35026
       -0.136000           13.63605           97.91297           13.65726           97.87018
       -0.132000           13.79417           98.43771           13.81590           98.39548
       -0.128000           13.95509           98.96831           13.97738           98.92706
       -0.124000           14.11888           99.50483           14.14174           99.46422
       -0.120000           14.28561           100.0473           14.30903           100.0077
       -0.116000           14.45535           100.5958           14.47935           100.5571
       -0.112000           14.62815           101.1506           14.65280           101.1127
       -0.108000           14.80412           101.7117           14.82940           101.6745
       -0.104000           14.98333           102.2792           15.00923           102.2428
       -0.100000           15.16585           102.8532           15.19239           102.8179
       -0.096000           15.35178           103.4338           15.37897           103.3995
       -0.092000           15.54117           104.0212           15.56907           103.9879
       -0.088000           15.73414           104.6154           15.76274           104.5831
       -0.084000           15.93078           105.2166           15.96011           105.1853
       -0.080000           16.13117           105.8249           16.16121           105.7945
       -0.076000           16.33542           106.4405           16.36622           106.4111
       -0.072000           16.54362           107.0633           16.57519           107.0350
       -0.068000           16.75588           107.6936           16.78826           107.6666
       -0.064000           16.97231           108.3316           17.00550           108.3057
       -0.060000           17.19302           108.9773           17.22703           108.9525
       -0.056000           17.41810           109.6308           17.45297           109.6072
       -0.052000           17.64770           110.2924           17.68342           110.2700
       -0.048000           17.88193           110.9622           17.91854           110.9412
       -0.044000           18.12091           111.6403           18.15843           111.6203
       -0.040000           18.36478           112.3268           18.40325           112.3083
       -0.036000           18.61366           113.0220           18.65310           113.0050
       -0.032000           18.86772           113.7260           18.90812           113.7102
       -0.028000           19.12708           114.4388           19.16851           114.4245
       -0.024000           19.39189           115.1609           19.43435           115.1480
       -0.020000           19.66232           115.8921           19.70582           115.8809
       -0.016000           19.93853           116.6329           19.98312           116.6230
       -0.012000           20.22066           117.3833           20.26634           117.3752
       -0.008000           20.50892           118.1436           20.55575           118.1370
       -0.004000           20.80347           118.9138           20.85147           118.9089
        0.000000           21.10449           119.6942           21.15366           119.6908
        0.004000           21.41219           120.4850           21.46260           120.4834
        0.008000           21.72676           121.2864           21.77841           121.2868
        0.012000           22.04840           122.0985           22.10133           122.1005
        0.016000           22.37734           122.9218           22.43160           122.9256
        0.020000           22.71379           123.7561           22.76940           123.7623
        0.024000           23.05799           124.6020           23.11501           124.6100
        0.028000           23.41021           125.4595           23.46862           125.4693
        0.032000           23.77062           126.3289           23.83049           126.3408
        0.036000           24.13961           127.2105           24.20099           127.2244
        0.040000           24.51734           128.1043           24.58021           128.1205
        0.044000           24.90413           129.0109           24.96853           129.0295
        0.048000           25.30029           129.9304           25.36632           129.9511
        0.052000           25.70609           130.8629           25.77378           130.8860
        0.056000           26.12188           131.8089           26.19119           131.8345
        0.060000           26.54798           132.7684           26.61909           132.7963
        0.064000           26.98475           133.7421           27.05758           133.7727
        0.068000           27.43252           134.7297           27.50717           134.7629
        0.072000           27.89173           135.7320           27.96822           135.7678
        0.076000           28.36271           136.7491           28.44112           136.7879
        0.080000           28.84587           137.7814           28.92620           137.8228
        0.084000           29.34168           138.8290           29.42397           138.8733
        0.088000           29.85054           139.8924           29.93493           139.9395
        0.092000           30.37298           140.9718           30.45941           141.0221
        0.096000           30.90944           142.0676           30.99798           142.1212
        0.100000           31.46042           143.1802           31.55112           143.2371
        0.104000           32.02650           144.3099           32.11941           144.3700
        0.108000           32.60819           145.4569           32.70339           145.5206
        0.112000           33.20609           146.6218           33.30362           146.6888
        0.116000           33.82083           147.8047           33.92071           147.8754
        0.120000           34.45304           149.0062           34.55531           149.0804
        0.124000           35.10333           150.2265           35.20812           150.3044
        0.128000           35.77250           151.4660           35.87985           151.5481
        0.132000           36.46122           152.7253           36.57117           152.8116
        0.136000           37.17025           154.0045           37.28285           154.0949
        0.140000           37.90048           155.3041           38.01579           155.3987
        0.144000           38.65265           156.6246           38.77072           156.7234
        0.148000           39.42774           157.9662           39.54860           158.0695
        0.152000           40.22667           159.3295           40.35041           159.4376
        0.156000           41.05037           160.7147           41.17703           160.8276
        0.160000           41.89993           162.1225           42.02955           162.2405
        0.164000           42.77639           163.5530           42.90908           163.6763
        0.168000           43.68089           165.0067           43.81663           165.1353
        0.172000           44.61470           166.4841           44.75358           166.6182
        0.176000           45.57904           167.9854           45.72111           168.1253
        0.180000           46.57513           169.5111           46.72050           169.6567
        0.184000           47.60458           171.0615           47.75313           171.2133
        0.188000           48.66869           172.6370           48.82063           172.7951
        0.192000           49.76902           174.2379           49.92432           174.4024
        0.196000           50.90730           175.8645           51.06599           176.0364
        0.200000           52.08511           177.5172           52.24726           177.6960
        0.204000           53.30441           179.1964           53.46998           179.3825
        0.208000           54.56702           180.9018           54.73618           181.0958
        0.212000           55.87487           182.6340           56.04752           182.8357
        0.216000           57.23020           184.3931           57.40644           184.6033
        0.220000           58.63517           186.1790           58.81500           186.3981
        0.224000           60.09204           187.9918           60.27555           188.2202
        0.228000           61.60344           189.8317           61.79063           190.0697
        0.232000           63.17182           191.6980           63.36262           191.9459
        0.236000           64.79985           193.5908           64.99433           193.8498
        0.240000           66.49053           195.5100           66.68877           195.7805
        0.244000           68.24676           197.4546           68.44859           197.7366
        0.248000           70.07152           199.4244           70.27700           199.7186
        0.252000           71.96837           201.4183           72.17752           201.7258
        0.256000           73.94057           203.4354           74.15334           203.7572
        0.260000           75.99156           205.4746           76.20799           205.8111
        0.264000           78.12526           207.5345           78.34528           207.8864
        0.268000           80.34530           209.6134           80.56901           209.9821
        0.272000           82.65588           211.7093           82.88321           212.0966
        0.276000           85.06093           213.8201           85.29189           214.2261
        0.280000           87.56453           215.9430           87.79930           216.3694
        0.284000           90.17113           218.0750           90.40971           218.5234
        0.288000           92.88502           220.2127           93.12749           220.6849
        0.292000           95.71027           222.3520           95.95690           222.8495
        0.296000           98.65153           224.4885           98.90265           225.0134
        0.300000           101.7128           226.6174           101.9687           227.1717
        0.304000           104.8981           228.7328           105.1590           229.3189
        0.308000           108.2116           230.8290           108.4781           231.4497
        0.312000           111.6566           232.8986           111.9296           233.5563
        0.316000           115.2362           234.9344           115.5164           235.6322
        0.320000           118.9532           236.9279           119.2417           237.6700
        0.324000           122.8092           238.8705           123.1073           239.6597
        0.328000           126.8058           240.7526           127.1154           241.5930
        0.332000           130.9430           242.5643           131.2658           243.4601
        0.336000           135.2196           244.2946           135.5585           245.2504
        0.340000           139.6339           245.9332           139.9916           246.9537
        0.344000           144.1819           247.4687           144.5621           248.5594
        0.348000           148.8580           248.8900           149.2649           250.0564
        0.352000           153.6558           250.1865           154.0943           251.4335
        0.356000           158.5663           251.3484           159.0426           252.6823
        0.360000           163.5785           252.3661           164.0994           253.7930
        0.364000           168.6804           253.2330           169.2541           254.7588
        0.368000           173.8580           253.9428           174.4931           255.5729
        0.372000           179.0955           254.4926           179.8022           256.2328
        0.376000           184.3771           254.8817           185.1674           256.7370
        0.380000           189.6855           255.1127           190.5723           257.0881
        0.384000           195.0049           255.1925           196.0024           257.2916
        0.388000           200.3192           255.1304           201.4432           257.3560
        0.392000           205.6143           254.9402           206.8818           257.2935
        0.396000           210.8795           254.6385           212.3087           257.1198
        0.400000           216.1066           254.2450           217.7172           256.8528
        0.404000           221.2919           253.7823           223.1045           256.5139
        0.408000           226.4374           253.2743           228.4733           256.1240
        0.412000           231.5491           252.7450           233.8304           255.7057
        0.416000           236.6392           252.2185           239.1886           255.2800
        0.420000           241.7261           251.7171           244.5666           254.8676
        0.424000           246.8324           251.2604           249.9870           254.4842
        0.428000           251.9861           250.8638           255.4774           254.1447
        0.432000           257.2193           250.5387           261.0700           253.8559
        0.436000           262.5676           250.2907           266.7996           253.6224
        0.440000           268.0681           250.1196           272.7030           253.4398
        0.444000           273.7609           250.0189           278.8192           253.2995
        0.448000           279.6849           249.9758           285.1859           253.1855
        0.452000           285.8802           249.9708           291.8422           253.0753
        0.456000           292.3846           249.9782           298.8239           252.9407
        0.460000           299.2339           249.9660           306.1651           252.7453
        0.464000           306.4620           249.8964           313.8978           252.4492
        0.468000           314.0984           249.7258           322.0489           252.0046
        0.472000           322.1688           249.4050           330.6416           251.3588
        0.476000           330.6958           248.8796           339.6939           250.4530
        0.480000           339.6949           248.0905           349.2175           249.2251
        0.484000           349.1765           246.9736           359.2174           247.6061
        0.488000           359.1447           245.4602           369.6924           245.5247
        0.492000           369.5961           243.4779           380.6317           242.9045
        0.496000           380.5183           240.9507           392.0154           239.6661
        0.500000           391.8920           237.7991           403.8143           235.7285
        0.504000           403.6846           233.9421           415.9868           231.0083
        0.508000           415.8555           229.2968           428.4793           225.4228
        0.512000           428.3496           223.7806           441.2256           218.8910
        0.516000           441.0986           217.3129           454.1430           211.3356
        0.520000           454.0226           209.8159           467.1376           202.6840
        0.524000           467.0244           201.2186           480.0987           192.8738
        0.528000           479.9930           191.4591           492.9002           181.8536
        0.532000           492.8038           180.4846           505.4058           169.5856
        0.536000           505.3181           168.2593           517.4626           156.0516
        0.540000           517.3841           154.7654           528.9118           141.2545
        0.544000           528.8436           140.0039           539.5879           125.2184
        0.548000           539.5294           124.0018           549.3229           107.9969
        0.552000           549.2733           106.8124           557.9510           89.66998
        0.556000           557.9106           88.51376           565.3158           70.34373
        0.560000           565.2839           69.21570           571.2727           50.15487
        0.564000           571.2502           49.05115           575.7002           29.26055
        0.568000           575.6860           28.18064           578.4980           7.842811
        0.572000           578.4916           6.786252           579.5959          -13.90006
        0.576000           579.5975          -14.93693           578.9566          -35.76252
        0.580000           578.9655          -36.77989           576.5753          -57.53188
        0.584000           576.5909          -58.52963           572.4818          -78.99750
        0.588000           572.5034          -79.97917           566.7374          -99.96213
        0.592000           566.7653          -100.9276           559.4340          -120.2400
        0.596000           559.4681          -121.1891           550.6884          -139.6664
        0.600000           550.7283          -140.6016           540.6377          -158.1021
        0.604000           540.6830          -159.0239           529.4335          -175.4333
        0.608000           529.4847          -176.3411           517.2377          -191.5720
        0.612000           517.2930          -192.4686           504.2130          -206.4615
        0.616000           504.2730          -207.3464           490.5243          -220.0671
        0.620000           490.5894          -220.9405           476.3293          -232.3794
        0.624000           476.3976          -233.2427           461.7761          -243.4108
        0.628000           461.8486          -244.2636           447.0041          -253.1897
        0.632000           447.0787          -254.0332           432.1349          -261.7608
        0.636000           432.2130          -262.5953           417.2811          -269.1788
        0.640000           417.3632          -270.0044           402.5395          -275.5083
        0.644000           402.6237          -276.3252           387.9912          -280.8176
        0.648000           388.0780          -281.6266           373.7047          -285.1800
        0.652000           373.7951          -285.9808           359.7381          -288.6693
        0.656000           359.8298          -289.4624           346.1337          -291.3589
        0.660000           346.2276          -292.1448           332.9269          -293.3206
        0.664000           333.0232          -294.0995           320.1436          -294.6238
        0.668000           320.2406          -295.3962           307.7994          -295.3347
        0.672000           307.8978          -296.1008           295.9057          -295.5154
        0.676000           296.0059          -296.2749           284.4676          -295.2242
        0.680000           284.5683          -295.9771           273.4839          -294.5139
        0.684000           273.5863          -295.2610           262.9514          -293.4349
        0.688000           263.0545          -294.1757           252.8631          -292.0318
        0.692000           252.9665          -292.7666           243.2089          -290.3460
        0.696000           243.3134          -291.0753           233.9780          -288.4155
        0.700000           234.0823          -289.1392           225.1566          -286.2733
        0.704000           225.2610          -286.9915           216.7305          -283.9505
        0.708000           216.8359          -284.6632           208.6860          -281.4734
        0.712000           208.7914          -282.1812           201.0072          -278.8679
        0.716000           201.1128          -279.5702           193.6791          -276.1546
        0.720000           193.7852          -276.8520           186.6871          -273.3536
        0.724000           186.7929          -274.0458           180.0151          -270.4817
        0.728000           180.1208          -271.1689           173.6485          -267.5542
        0.732000           173.7547          -268.2366           167.5733          -264.5849
        0.736000           167.6792          -265.2622           161.7750          -261.5847
        0.740000           161.8809          -262.2576           156.2405          -258.5653
        0.744000           156.3464          -259.2336           150.9565          -255.5355
        0.748000           151.0621          -256.1987           145.9104          -252.5031
        0.752000           146.0162          -253.1614           141.0907          -249.4739
        0.756000           141.1959          -250.1283           136.4855          -246.4557
        0.760000           136.5904          -247.1055           132.0839          -243.4534
        0.764000           132.1889          -244.0987           127.8759          -240.4713
        0.768000           127.9804          -241.1118           123.8512          -237.5127
        0.772000           123.9556          -238.1489           120.0009          -234.5818
        0.776000           120.1051          -235.2136           116.3161          -231.6810
        0.780000           116.4199          -232.3084           112.7878          -228.8123
        0.784000           112.8918          -229.4357           109.4091          -225.9782
        0.788000           109.5128          -226.5975           106.1720          -223.1801
        0.792000           106.2753          -223.7953           103.0693          -220.4195
        0.796000           103.1723          -221.0304           100.0943          -217.6970
        0.800000           100.1971          -218.3042           97.24085          -215.0138
        0.804000           97.34328          -215.6171           94.50278          -212.3707
        0.808000           94.60505          -212.9698           91.87435          -209.7682
        0.812000           91.97650          -210.3626           89.35044          -207.2049
        0.816000           89.45231          -207.7959           86.92576          -204.6831
        0.820000           87.02761          -205.2700           84.59575          -202.2015
        0.824000           84.69736          -202.7843           82.35571          -199.7606
        0.828000           82.45717          -200.3393           80.20145          -197.3595
        0.832000           80.30289          -197.9345           78.12916          -194.9986
        0.836000           78.23032          -195.5695           76.13451          -192.6770
        0.840000           76.23563          -193.2441           74.21424          -190.3945
        0.844000           74.31544          -190.9581           72.36497          -188.1512
        0.848000           72.46602          -188.7105           70.58335          -185.9457
        0.852000           70.68430          -186.5011           68.86628          -183.7772
        0.856000           68.96734          -184.3295           67.21095          -181.6468
        0.860000           67.31206          -182.1950           65.61455          -179.5524
        0.864000           65.71581          -180.0970           64.07465          -177.4941
        0.868000           64.17593          -178.0348           62.58858          -175.4708
        0.872000           62.69000          -176.0078           61.15403          -173.4821
        0.876000           61.25582          -174.0156           59.76907          -171.5276
        0.880000           59.87096          -172.0574           58.43123          -169.6064
        0.884000           58.53341          -170.1324           57.13871          -167.7177
        0.888000           57.24130          -168.2403           55.88975          -165.8615
        0.892000           55.99260          -166.3802           54.68235          -164.0363
        0.896000           54.78561          -164.5515           53.51492          -162.2418
        0.900000           53.61866          -162.7537           52.38583          -160.4777
        0.904000           52.48998          -160.9859           51.29340          -158.7431
        0.908000           51.39817          -159.2476           50.23648          -157.0371
        0.912000           50.34183          -157.5384           49.21344          -155.3598
        0.916000           49.31944          -155.8572           48.22299          -153.7098
        0.920000           48.32976          -154.2038           47.26401          -152.0870
        0.924000           47.37157          -152.5776           46.33524          -150.4905
        0.928000           46.44366          -150.9779           45.43552          -148.9204
        0.932000           45.54492          -149.4040           44.56384          -147.3754
        0.936000           44.67421          -147.8555           43.71917          -145.8550
        0.940000           43.83056          -146.3319           42.90046          -144.3589
        0.944000           43.01303          -144.8326           42.10695          -142.8866
        0.948000           42.22062          -143.3571           41.33752          -141.4378
        0.952000           41.45250          -141.9047           40.59147          -140.0115
        0.956000           40.70784          -140.4753           39.86799          -138.6076
        0.960000           39.98577          -139.0681           39.16636          -137.2252
        0.964000           39.28556          -137.6827           38.48566          -135.8643
        0.968000           38.60655          -136.3187           37.82538          -134.5242
        0.972000           37.94791          -134.9755           37.18475          -133.2045
        0.976000           37.30905          -133.6530           36.56322          -131.9046
        0.980000           36.68933          -132.3504           35.96014          -130.6245
        0.984000           36.08810          -131.0674           35.37489          -129.3637
        0.988000           35.50479          -129.8039           34.80686          -128.1216
        0.992000           34.93876          -128.5592           34.25561          -126.8981
        0.996000           34.38955          -127.3329           33.72056          -125.6923
        1.000000           33.85660          -126.1248           33.20121          -124.5044
        1.004000           33.33938          -124.9344           32.69707          -123.3340
        1.008000           32.83739          -123.7615           32.20762          -122.1802
        1.012000           32.35020          -122.6056           31.73241          -121.0434
        1.016000           31.87730          -121.4664           31.27112          -119.9226
        1.020000           31.41823          -120.3435           30.82312          -118.8177
        1.024000           30.97259          -119.2368           30.38827          -117.7288
        1.028000           30.53994          -118.1457           29.96593          -116.6549
        1.032000           30.11988          -117.0698           29.55581          -115.5958
        1.036000           29.71211          -116.0090           29.15767          -114.5516
        1.040000           29.31623          -114.9626           28.77100          -113.5215
        1.044000           28.93190          -113.9306           28.39565          -112.5053
        1.048000           28.55888          -112.9124           28.03119          -111.5027
        1.052000           28.19687          -111.9077           27.67752          -110.5131
        1.056000           27.84567          -110.9162           27.33436          -109.5368
        1.060000           27.50508          -109.9376           27.00147          -108.5728
        1.064000           27.17495          -108.9713           26.67883          -107.6208
        1.068000           26.85513          -108.0173           26.36621          -106.6808
        1.072000           26.54551          -107.0751           26.06345          -105.7527
        1.076000           26.24604          -106.1446           25.77066          -104.8360
        1.080000           25.95667          -105.2255           25.48771          -103.9304
        1.084000           25.67739          -104.3175           25.21449          -103.0358
        1.088000           25.40820          -103.4206           24.95110          -102.1517
        1.092000           25.14911          -102.5345           24.69751          -101.2786
        1.096000           24.90013          -101.6591           24.45373          -100.4160
        1.100000           24.66131          -100.7945           24.21983          -99.56390
        1.104000           24.43271          -99.94048           23.99590          -98.72202
        1.108000           24.21435          -99.09703           23.78180          -97.89069
        1.112000           24.00632          -98.26436           23.57771          -97.06969
        1.116000           23.80862          -97.44241           23.38366          -96.25972
        1.120000           23.62133          -96.63123           23.19967          -95.46008
        1.124000           23.44450          -95.83115           23.02578          -94.67117
        1.128000           23.27812          -95.04227           22.86201          -93.89320
        1.132000           23.12222          -94.26483           22.70837          -93.12656
        1.136000           22.97680          -93.49912           22.56489          -92.37122
        1.140000           22.84183          -92.74554           22.43151          -91.62779
        1.144000           22.71725          -92.00420           22.30817          -90.89623
        1.148000           22.60298          -91.27590           22.19480          -90.17744
        1.152000           22.49886          -90.56090           22.09126          -89.47143
        1.156000           22.40469          -89.85970           21.99729          -88.77908
        1.160000           22.32023          -89.17297           21.91276          -88.10058
        1.164000           22.24513          -88.50127           21.83728          -87.43676
        1.168000           22.17896          -87.84524           21.77047          -86.78817
        1.172000           22.12119          -87.20543           21.71177          -86.15534
        1.176000           22.07117          -86.58276           21.66059          -85.53910
        1.180000           22.02813          -85.97775           21.61618          -84.93982
        1.184000           21.99114          -85.39104           21.57770          -84.35850
        1.188000           21.95914          -84.82332           21.54408          -83.79530
        1.192000           21.93092          -84.27515           21.51415          -83.25109
        1.196000           21.90512          -83.74687           21.48665          -82.72628
        1.200000           21.88020          -83.23882           21.46005          -82.22091
        1.204000           21.85451          -82.75117           21.43283          -81.73518
        1.208000           21.82631          -82.28370           21.40320          -81.26929
        1.212000           21.79375          -81.83630           21.36956          -80.82249
        1.216000           21.75491          -81.40822           21.32995          -80.39455
        1.220000           21.70798          -80.99858           21.28256          -79.98447
        1.224000           21.65110          -80.60622           21.22580          -79.59115
        1.228000           21.58262          -80.22974           21.15790          -79.21318
        1.232000           21.50103          -79.86725           21.07749          -78.84892
        1.236000           21.40510          -79.51679           20.98330          -78.49624
        1.240000           21.29387          -79.17616           20.87449          -78.15334
        1.244000           21.16672          -78.84298           20.75045          -77.81768
        1.248000           21.02346          -78.51492           20.61093          -77.48710
        1.252000           20.86417          -78.18946           20.45603          -77.15915
        1.256000           20.68936          -77.86425           20.28622          -76.83161
        1.260000           20.49987          -77.53714           20.10233          -76.50224
        1.264000           20.29685          -77.20608           19.90541          -76.16922
        1.268000           20.08165          -76.86929           19.69681          -75.83095
        1.272000           19.85590          -76.52532           19.47807          -75.48579
        1.276000           19.62128          -76.17297           19.25080          -75.13261
        1.280000           19.37956          -75.81142           19.01671          -74.77075
        1.284000           19.13255          -75.43997           18.77752          -74.39947
        1.288000           18.88198          -75.05844           18.53491          -74.01859
        1.292000           18.62953          -74.66669           18.29053          -73.62774
        1.296000           18.37675          -74.26488           18.04581          -73.22746
        1.300000           18.12506          -73.85330           17.80217          -72.81774
        1.304000           17.87578          -73.43247           17.56088          -72.39916
        1.308000           17.62999          -73.00292           17.32294          -71.97237
        1.312000           17.38867          -72.56528           17.08934          -71.53764
        1.316000           17.15268          -72.12037           16.86094          -71.09600
        1.320000           16.92266          -71.66871           16.63827          -70.64799
        1.324000           16.69919          -71.21120           16.42200          -70.19440
        1.328000           16.48273          -70.74849           16.21246          -69.73580
        1.332000           16.27356          -70.28123           16.01007          -69.27280
        1.336000           16.07198          -69.81013           15.81493          -68.80621
        1.340000           15.87816          -69.33585           15.62736          -68.33660
        1.344000           15.69219          -68.85884           15.44739          -67.86443
        1.348000           15.51413          -68.37979           15.27506          -67.39014
        1.352000           15.34398          -67.89907           15.11042          -66.91450
        1.356000           15.18174          -67.41714           14.95346          -66.43767
        1.360000           15.02735          -66.93449           14.80410          -65.96014
        1.364000           14.88075          -66.45138           14.66230          -65.48212
        1.368000           14.74184          -65.96819           14.52793          -65.00415
        1.372000           14.61055          -65.48511           14.40099          -64.52623
        1.376000           14.48677          -65.00248           14.28134          -64.04878
        1.380000           14.37043          -64.52046           14.16889          -63.57186
        1.384000           14.26142          -64.03935           14.06357          -63.09597
        1.388000           14.15968          -63.55913           13.96533          -62.62088
        1.392000           14.06509          -63.08009           13.87407          -62.14705
        1.396000           13.97762          -62.60236           13.78970          -61.67446
        1.400000           13.89720          -62.12599           13.71214          -61.20314
        1.404000           13.82377          -61.65104           13.64144          -60.73320
        1.408000           13.75731          -61.17768           13.57751          -60.26487
        1.412000           13.69783          -60.70596           13.52035          -59.79803
        1.416000           13.64527          -60.23587           13.46995          -59.33271
        1.420000           13.59968          -59.76752           13.42634          -58.86925
        1.424000           13.56105          -59.30095           13.38952          -58.40749
        1.428000           13.52948          -58.83623           13.35958          -57.94725
        1.432000           13.50499          -58.37336           13.33654          -57.48895
        1.436000           13.48764          -57.91251           13.32045          -57.03255
        1.440000           13.47757          -57.45354           13.31145          -56.57795
        1.444000           13.47487          -56.99667           13.30965          -56.12549
        1.448000           13.47967          -56.54189           13.31516          -55.67490
        1.452000           13.49212          -56.08930           13.32816          -55.22637
        1.456000           13.51238          -55.63906           13.34877          -54.78014
        1.460000           13.54064          -55.19114           13.37723          -54.33609
        1.464000           13.57711          -54.74576           13.41362          -53.89453
        1.468000           13.62201          -54.30301           13.45833          -53.45535
        1.472000           13.67558          -53.86307           13.51149          -53.01888
        1.476000           13.73809          -53.42617           13.57336          -52.58529
        1.480000           13.80979          -52.99256           13.64427          -52.15479
        1.484000           13.89102          -52.56240           13.72442          -51.72749
        1.488000           13.98205          -52.13603           13.81424          -51.30376
        1.492000           14.08322          -51.71374           13.91399          -50.88406
        1.496000           14.19486          -51.29599           14.02400          -50.46846
        1.500000           14.31731          -50.88323           14.14460          -50.05781
        1.504000           14.45096          -50.47596           14.27617          -49.65205
        1.508000           14.59611          -50.07463           14.41906          -49.25201
        1.512000           14.75315          -49.67994           14.57363          -48.85836
        1.516000           14.92239          -49.29269           14.74023          -48.47155
        1.520000           15.10415          -48.91365           14.91918          -48.09253
        1.524000           15.29871          -48.54366           15.11077          -47.72223
        1.528000           15.50635          -48.18373           15.31533          -47.36144
        1.532000           15.72725          -47.83497           15.53302          -47.01117
        1.536000           15.96153          -47.49855           15.76408          -46.67270
        1.540000           16.20921          -47.17587           16.00845          -46.34732
        1.544000           16.47022          -46.86826           16.26627          -46.03628
        1.548000           16.74434          -46.57737           16.53726          -45.74120
        1.552000           17.03123          -46.30476           16.82123          -45.46355
        1.556000           17.33031          -46.05225           17.11771          -45.20518
        1.560000           17.64079          -45.82158           17.42595          -44.96792
        1.564000           17.96165          -45.61470           17.74507          -44.75352
        1.568000           18.29153          -45.43358           18.07383          -44.56395
        1.572000           18.62886          -45.28015           18.41086          -44.40112
        1.576000           18.97161          -45.15613           18.75424          -44.26706
        1.580000           19.31745          -45.06340           19.10185          -44.16343
        1.584000           19.66365          -45.00362           19.45109          -44.09209
        1.588000           20.00712          -44.97800           19.79907          -44.05431
        1.592000           20.34434          -44.98759           20.14239          -44.05154
        1.596000           20.67157          -45.03302           20.47746          -44.08434
        1.600000           20.98475          -45.11440           20.80027          -44.15335
        1.604000           21.27950          -45.23113           21.10660          -44.25796
        1.608000           21.55145          -45.38214           21.39205          -44.39750
        1.612000           21.79622          -45.56558           21.65218          -44.57050
        1.616000           22.00950          -45.77880           21.88261          -44.77468
        1.620000           22.18739          -46.01853           22.07928          -45.00698
        1.624000           22.32631          -46.28086           22.23833          -45.26383
        1.628000           22.42335          -46.56099           22.35660          -45.54058
        1.632000           22.47624          -46.85396           22.43141          -45.83259
        1.636000           22.48358          -47.15419           22.46101          -46.13431
        1.640000           22.44481          -47.45608           22.44445          -46.44027
        1.644000           22.36029          -47.75386           22.38163          -46.74464
        1.648000           22.23126          -48.04205           22.27347          -47.04166
        1.652000           22.05979          -48.31539           22.12165          -47.32619
        1.656000           21.84869          -48.56918           21.92871          -47.59285
        1.660000           21.60142          -48.79923           21.69782          -47.83751
        1.664000           21.32181          -49.00207           21.43271          -48.05622
        1.668000           21.01412          -49.17498           21.13748          -48.24613
        1.672000           20.68275          -49.31583           20.81652          -48.40450
        1.676000           20.33214          -49.42346           20.47424          -48.52986
        1.680000           19.96667          -49.49704           20.11519          -48.62115
        1.684000           19.59043          -49.53668           19.74353          -48.67857
        1.688000           19.20738          -49.54283           19.36333          -48.70177
        1.692000           18.82106          -49.51638           18.97836          -48.69189
        1.696000           18.43474          -49.45860           18.59200          -48.64992
        1.700000           18.05121          -49.37101           18.20727          -48.57725
        1.704000           17.67299          -49.25541           17.82683          -48.47561
        1.708000           17.30209          -49.11354           17.45288          -48.34683
        1.712000           16.94032          -48.94742           17.08735          -48.19285
        1.716000           16.58910          -48.75896           16.73183          -48.01546
        1.720000           16.24953          -48.55000           16.38754          -47.81668
        1.724000           15.92252          -48.32243           16.05552          -47.59845
        1.728000           15.60875          -48.07812           15.73654          -47.36251
        1.732000           15.30860          -47.81852           15.43105          -47.11057
        1.736000           15.02241          -47.54540           15.13941          -46.84443
        1.740000           14.75030          -47.26014           14.86187          -46.56526
        1.744000           14.49231          -46.96410           14.59856          -46.27477
        1.748000           14.24845          -46.65855           14.34942          -45.97420
        1.752000           14.01850          -46.34456           14.11433          -45.66459
        1.756000           13.80234          -46.02312           13.89314          -45.34700
        1.760000           13.59973          -45.69519           13.68566          -45.02262
        1.764000           13.41041          -45.36159           13.49162          -44.69212
        1.768000           13.23413          -45.02310           13.31080          -44.35623
        1.772000           13.07063          -44.68046           13.14291          -44.01593
        1.776000           12.91957          -44.33407           12.98767          -43.67157
        1.780000           12.78073          -43.98457           12.84485          -43.32383
        1.784000           12.65383          -43.63236           12.71408          -42.97323
        1.788000           12.53863          -43.27793           12.59521          -42.62013
        1.792000           12.43487          -42.92165           12.48793          -42.26494
        1.796000           12.34238          -42.56385           12.39207          -41.90808
        1.800000           12.26091          -42.20470           12.30736          -41.54971
        1.804000           12.19033          -41.84461           12.23368          -41.19019
        1.808000           12.13047          -41.48365           12.17083          -40.82978
        1.812000           12.08121          -41.12217           12.11875          -40.46859
        1.816000           12.04247          -40.76030           12.07729          -40.10694
        1.820000           12.01417          -40.39817           12.04636          -39.74495
        1.824000           11.99627          -40.03597           12.02595          -39.38282
        1.828000           11.98877          -39.67387           12.01596          -39.02069
        1.832000           11.99167          -39.31195           12.01649          -38.65858
        1.836000           12.00501          -38.95046           12.02752          -38.29686
        1.840000           12.02888          -38.58953           12.04916          -37.93550
        1.844000           12.06337          -38.22916           12.08145          -37.57479
        1.848000           12.10861          -37.86963           12.12451          -37.21471
        1.852000           12.16476          -37.51112           12.17855          -36.85561
        1.856000           12.23199          -37.15376           12.24373          -36.49753
        1.860000           12.31054          -36.79784           12.32023          -36.14080
        1.864000           12.40063          -36.44344           12.40830          -35.78558
        1.868000           12.50258          -36.09089           12.50828          -35.43201
        1.872000           12.61665          -35.74048           12.62032          -35.08051
        1.876000           12.74318          -35.39253           12.74486          -34.73136
        1.880000           12.88251          -35.04745           12.88222          -34.38496
        1.884000           13.03502          -34.70556           13.03275          -34.04160
        1.888000           13.20114          -34.36737           13.19692          -33.70179
        1.892000           13.38127          -34.03337           13.37501          -33.36604
        1.896000           13.57582          -33.70424           13.56759          -33.03497
        1.900000           13.78527          -33.38052           13.77502          -32.70917
        1.904000           14.01004          -33.06306           13.99780          -32.38945
        1.908000           14.25057          -32.75269           14.23632          -32.07660
        1.912000           14.50734          -32.45035           14.49112          -31.77144
        1.916000           14.78074          -32.15700           14.76256          -31.47519
        1.920000           15.07113          -31.87389           15.05098          -31.18878
        1.924000           15.37891          -31.60228           15.35683          -30.91370
        1.928000           15.70427          -31.34364           15.68031          -30.65110
        1.932000           16.04746          -31.09943           16.02174          -30.40273
        1.936000           16.40853          -30.87145           16.38111          -30.17013
        1.940000           16.78746          -30.66143           16.75852          -29.95516
        1.944000           17.18397          -30.47141           17.15368          -29.75966
        1.948000           17.59770          -30.30348           17.56628          -29.58585
        1.952000           18.02793          -30.15986           17.99570          -29.43583
        1.956000           18.47390          -30.04286           18.44120          -29.31209
        1.960000           18.93433          -29.95486           18.90159          -29.21685
        1.964000           19.40768          -29.89839           19.37541          -29.15258
        1.968000           19.89208          -29.87581           19.86087          -29.12179
        1.972000           20.38522          -29.88954           20.35579          -29.12680
        1.976000           20.88434          -29.94182           20.85748          -29.17006
        1.980000           21.38641          -30.03474           21.36301          -29.25365
        1.984000           21.88782          -30.17009           21.86888          -29.37939
        1.988000           22.38461          -30.34929           22.37117          -29.54897
        1.992000           22.87246          -30.57341           22.86570          -29.76340
        1.996000           23.34667          -30.84282           23.34783          -30.02326
        2.000000           23.80247          -31.15751           23.81277          -30.32879
        2.004000           24.23481          -31.51664           24.25547          -30.67932
        2.008000           24.63868          -31.91873           24.67093          -31.07353
        2.012000           25.00910          -32.36154           25.05414          -31.50943
        2.016000           25.34138          -32.84220           25.40025          -31.98437
        2.020000           25.63107          -33.35707           25.70463          -32.49477
        2.024000           25.87441          -33.90200           25.96341          -33.03671
        2.028000           26.06795          -34.47219           26.17296          -33.60562
        2.032000           26.20901          -35.06250           26.33020          -34.19626
        2.036000           26.29557          -35.66734           26.43305          -34.80315
        2.040000           26.32637          -36.28098           26.47988          -35.42060
        2.044000           26.30092          -36.89771           26.46999          -36.04283
        2.048000           26.21942          -37.51163           26.40317          -36.66391
        2.052000           26.08282          -38.11711           26.28044          -37.27796
        2.056000           25.89274          -38.70862           26.10296          -37.87939
        2.060000           25.65150          -39.28111           25.87308          -38.46287
        2.064000           25.36191          -39.82967           25.59336          -39.02330
        2.068000           25.02731          -40.35015           25.26715          -39.55632
        2.072000           24.65151          -40.83873           24.89814          -40.05783
        2.076000           24.23869          -41.29213           24.49065          -40.52430
        2.080000           23.79320          -41.70778           24.04898          -40.95309
        2.084000           23.31970          -42.08367           23.57788          -41.34185
        2.088000           22.82285          -42.41832           23.08213          -41.68900
        2.092000           22.30723          -42.71112           22.56638          -41.99389
        2.096000           21.77741          -42.96182           22.03540          -42.25600
        2.100000           21.23773          -43.17072           21.49360          -42.47556
        2.104000           20.69229          -43.33878           20.94520          -42.65355
        2.108000           20.14493          -43.46712           20.39427          -42.79092
        2.112000           19.59899          -43.55745           19.84413          -42.88966
        2.116000           19.05755          -43.61164           19.29810          -42.95131
        2.120000           18.52328          -43.63180           18.75889          -42.97808
        2.124000           17.99847          -43.62014           18.22895          -42.97232
        2.128000           17.48507          -43.57902           17.71023          -42.93630
        2.132000           16.98463          -43.51076           17.20443          -42.87239
        2.136000           16.49830          -43.41774           16.71275          -42.78311
        2.140000           16.02705          -43.30221           16.23618          -42.67067
        2.144000           15.57157          -43.16638           15.77550          -42.53734
        2.148000           15.13224          -43.01244           15.33110          -42.38538
        2.152000           14.70930          -42.84224           14.90326          -42.21669
        2.156000           14.30282          -42.65783           14.49199          -42.03326
        2.160000           13.91261          -42.46074           14.09722          -41.83690
        2.164000           13.53846          -42.25270           13.71871          -41.62914
        2.168000           13.18007          -42.03508           13.35617          -41.41154
        2.172000           12.83700          -41.80927           13.00912          -41.18536
        2.176000           12.50882          -41.57645           12.67721          -40.95202
        2.180000           12.19494          -41.33764           12.35978          -40.71245
        2.184000           11.89485          -41.09386           12.05632          -40.46763
        2.188000           11.60798          -40.84585           11.76627          -40.21854
        2.192000           11.33376          -40.59449           11.48904          -39.96585
        2.196000           11.07160          -40.34038           11.22405          -39.71029
        2.200000           10.82098          -40.08407           10.97075          -39.45234
        2.204000           10.58128          -39.82602           10.72853          -39.19253
        2.208000           10.35201          -39.56668           10.49686          -38.93139
        2.212000           10.13266          -39.30642           10.27526          -38.66921
        2.216000           9.922759          -39.04555           10.06322          -38.40625
        2.220000           9.721863          -38.78436           9.860310          -38.14288
        2.224000           9.529514          -38.52302           9.666054          -37.87926
        2.228000           9.345334          -38.26171           9.480079          -37.61559
        2.232000           9.168940          -38.00062           9.302006          -37.35206
        2.236000           8.999993          -37.73991           9.131481          -37.08887
        2.240000           8.838179          -37.47975           8.968184          -36.82602
        2.244000           8.683186          -37.22019           8.811845          -36.56379
        2.248000           8.534708          -36.96132           8.662089          -36.30209
        2.252000           8.392481          -36.70324           8.518696          -36.04115
        2.256000           8.256260          -36.44606           8.381406          -35.78101
        2.260000           8.125787          -36.18982           8.249949          -35.52173
        2.264000           8.000839          -35.93459           8.124136          -35.26336
        2.268000           7.881199          -35.68044           8.003725          -35.00605
        2.272000           7.766639          -35.42737           7.888499          -34.74974
        2.276000           7.656963          -35.17545           7.778248          -34.49447
        2.280000           7.551977          -34.92473           7.672758          -34.24037
        2.284000           7.451486          -34.67516           7.571878          -33.98742
        2.288000           7.355342          -34.42689           7.475421          -33.73564
        2.292000           7.263337          -34.17980           7.383224          -33.48499
        2.296000           7.175323          -33.93399           7.295068          -33.23554
        2.300000           7.091135          -33.68941           7.210835          -32.98729
        2.304000           7.010634          -33.44611           7.130378          -32.74028
        2.308000           6.933671          -33.20403           7.053552          -32.49442
        2.312000           6.860119          -32.96323           6.980201          -32.24983
        2.316000           6.789828          -32.72362           6.910193          -32.00633
        2.320000           6.722685          -32.48521           6.843417          -31.76403
        2.324000           6.658575          -32.24804           6.779762          -31.52284
        2.328000           6.597381          -32.01199           6.719093          -31.28283
        2.332000           6.538996          -31.77713           6.661286          -31.04386
        2.336000           6.483328          -31.54337           6.606283          -30.80603
        2.340000           6.430271          -31.31070           6.553950          -30.56918
        2.344000           6.379738          -31.07909           6.504241          -30.33334
        2.348000           6.331639          -30.84850           6.457009          -30.09851
        2.352000           6.285897          -30.61892           6.412197          -29.86458
        2.356000           6.242447          -30.39028           6.369756          -29.63163
        2.360000           6.201196          -30.16257           6.329585          -29.39947
        2.364000           6.162094          -29.93572           6.291622          -29.16816
        2.368000           6.125065          -29.70976           6.255796          -28.93764
        2.372000           6.090059          -29.48459           6.222039          -28.70791
        2.376000           6.057021          -29.26019           6.190359          -28.47877
        2.380000           6.025898          -29.03654           6.160627          -28.25046
        2.384000           5.996634          -28.81356           6.132842          -28.02269
        2.388000           5.969197          -28.59120           6.106950          -27.79555
        2.392000           5.943544          -28.36949           6.082880          -27.56889
        2.396000           5.919627          -28.14836           6.060634          -27.34282
        2.400000           5.897424          -27.92778           6.040158          -27.11724
        2.404000           5.876885          -27.70769           6.021415          -26.89204
        2.408000           5.857993          -27.48802           6.004403          -26.66721
        2.412000           5.840712          -27.26881           5.989058          -26.44273
        2.416000           5.825028          -27.04997           5.975379          -26.21856
        2.420000           5.810906          -26.83145           5.963334          -25.99467
        2.424000           5.798331          -26.61328           5.952912          -25.77102
        2.428000           5.787281          -26.39534           5.944086          -25.54751
        2.432000           5.777742          -26.17764           5.936841          -25.32420
        2.436000           5.769692          -25.96011           5.931164          -25.10094
        2.440000           5.763123          -25.74274           5.927052          -24.87774
        2.444000           5.758022          -25.52548           5.924479          -24.65458
        2.448000           5.754377          -25.30828           5.923446          -24.43141
        2.452000           5.752191          -25.09112           5.923961          -24.20819
        2.456000           5.751447          -24.87395           5.925984          -23.98485
        2.460000           5.752143          -24.65673           5.929551          -23.76139
        2.464000           5.754279          -24.43941           5.934630          -23.53765
        2.468000           5.757852          -24.22200           5.941239          -23.31380
        2.472000           5.762865          -24.00439           5.949383          -23.08965
        2.476000           5.769320          -23.78659           5.959064          -22.86514
        2.480000           5.777219          -23.56854           5.970292          -22.64034
        2.484000           5.786574          -23.35019           5.983064          -22.41514
        2.488000           5.797383          -23.13155           5.997406          -22.18941
        2.492000           5.809668          -22.91255           6.013318          -21.96327
        2.496000           5.823431          -22.69311           6.030823          -21.73663
        2.500000           5.838693          -22.47324           6.049939          -21.50935
        2.504000           5.855464          -22.25286           6.070672          -21.28142
        2.508000           5.873762          -22.03194           6.093056          -21.05297
        2.512000           5.893609          -21.81046           6.117099          -20.82368
        2.516000           5.915020          -21.58839           6.142834          -20.59374
        2.520000           5.938022          -21.36561           6.170309          -20.36297
        2.524000           5.962641          -21.14214           6.199511          -20.13124
        2.528000           5.988904          -20.91793           6.230507          -19.89874
        2.532000           6.016840          -20.69294           6.263325          -19.66523
        2.536000           6.046474          -20.46710           6.297984          -19.43077
        2.540000           6.077844          -20.24039           6.334530          -19.19521
        2.544000           6.110994          -20.01273           6.373006          -18.95862
        2.548000           6.145954          -19.78410           6.413464          -18.72085
        2.552000           6.182762          -19.55444           6.455941          -18.48193
        2.556000           6.221463          -19.32374           6.500488          -18.24167
        2.560000           6.262106          -19.09194           6.547152          -18.00023
        2.564000           6.304745          -18.85895           6.595996          -17.75739
        2.568000           6.349427          -18.62475           6.647087          -17.51313
        2.572000           6.396208          -18.38931           6.700492          -17.26744
        2.576000           6.445141          -18.15255           6.756245          -17.02021
        2.580000           6.496291          -17.91449           6.814432          -16.77145
        2.584000           6.549731          -17.67494           6.875154          -16.52104
        2.588000           6.605517          -17.43398           6.938462          -16.26896
        2.592000           6.663734          -17.19150           7.004431          -16.01515
        2.596000           6.724453          -16.94745           7.073161          -15.75951
        2.600000           6.787750          -16.70181           7.144746          -15.50201
        2.604000           6.853704          -16.45452           7.219301          -15.24265
        2.608000           6.922429          -16.20548           7.296920          -14.98129
        2.612000           6.993996          -15.95471           7.377674          -14.71788
        2.616000           7.068514          -15.70211           7.461718          -14.45241
        2.620000           7.146085          -15.44764           7.549169          -14.18480
        2.624000           7.226820          -15.19126           7.640115          -13.91493
        2.628000           7.310827          -14.93295           7.734739          -13.64285
        2.632000           7.398240          -14.67261           7.833161          -13.36838
        2.636000           7.489182          -14.41016           7.935535          -13.09156
        2.640000           7.583786          -14.14560           8.042031          -12.81227
        2.644000           7.682189          -13.87888           8.152785          -12.53048
        2.648000           7.784534          -13.60997           8.268027          -12.24614
        2.652000           7.890991          -13.33877           8.387864          -11.95922
        2.656000           8.001731          -13.06522           8.512568          -11.66957
        2.660000           8.116909          -12.78933           8.642311          -11.37720
        2.664000           8.236722          -12.51101           8.777304          -11.08207
        2.668000           8.361362          -12.23028           8.917800          -10.78415
        2.672000           8.491020          -11.94707           9.064010          -10.48339
        2.676000           8.625936          -11.66129           9.216226          -10.17967
        2.680000           8.766333          -11.37292           9.374720          -9.873052
        2.684000           8.912458          -11.08196           9.539759          -9.563460
        2.688000           9.064569          -10.78838           9.711669          -9.250917
        2.692000           9.222937          -10.49216           9.890732          -8.935402
        2.696000           9.387847          -10.19328           10.07730          -8.616899
        2.700000           9.559638          -9.891755           10.27175          -8.295430
        2.704000           9.738611          -9.587497           10.47444          -7.970945
        2.708000           9.925138          -9.280630           10.68579          -7.643586
        2.712000           10.11957          -8.971151           10.90622          -7.313319
        2.716000           10.32227          -8.659151           11.13609          -6.980318
        2.720000           10.53369          -8.344625           11.37597          -6.644536
        2.724000           10.75425          -8.027707           11.62628          -6.306134
        2.728000           10.98439          -7.708510           11.88754          -5.965281
        2.732000           11.22458          -7.387145           12.16032          -5.622097
        2.736000           11.47531          -7.063813           12.44516          -5.276797
        2.740000           11.73708          -6.738689           12.74258          -4.929641
        2.744000           12.01047          -6.412025           13.05330          -4.580837
        2.748000           12.29601          -6.084093           13.37788          -4.230755
        2.752000           12.59425          -5.755208           13.71701          -3.879745
        2.756000           12.90581          -5.425734           14.07134          -3.528206
        2.760000           13.23125          -5.096187           14.44156          -3.176713
        2.764000           13.57125          -4.766947           14.82841          -2.825714
        2.768000           13.92639          -4.438614           15.23265          -2.475850
        2.772000           14.29730          -4.111754           15.65491          -2.127878
        2.776000           14.68460          -3.787140           16.09596          -1.782557
        2.780000           15.08891          -3.465544           16.55659          -1.440810
        2.784000           15.51077          -3.147802           17.03735          -1.103635
        2.788000           15.95084          -2.834878           17.53908          -0.772054
        2.792000           16.40960          -2.527816           18.06237          -0.447357
        2.796000           16.88752          -2.227809           18.60779          -0.130806
        2.800000           17.38501          -1.936074           19.17590           0.176126
        2.804000           17.90239          -1.653948           19.76704           0.471880
        2.808000           18.43984          -1.382913           20.38154           0.754742
        2.812000           18.99756          -1.124496           21.01973           1.023013
        2.816000           19.57549          -0.880271           21.68153           1.274768
        2.820000           20.17343          -0.651926           22.36689           1.508071
        2.824000           20.79105          -0.441180           23.07547           1.720825
        2.828000           21.42775          -0.249776           23.80675           1.910978
        2.832000           22.08295          -0.079414           24.56010           2.076446
        2.836000           22.75565           0.068119           25.33447           2.215078
        2.840000           23.44477           0.191237           26.12887           2.324870
        2.844000           24.14901           0.288402           26.94168           2.403797
        2.848000           24.86688           0.358085           27.77143           2.450009
        2.852000           25.59671           0.399056           28.61624           2.461732
        2.856000           26.33689           0.410185           29.47434           2.437373
        2.860000           27.08548           0.390510           30.34335           2.375508
        2.864000           27.84059           0.339283           31.22126           2.274870
        2.868000           28.60024           0.255879           32.10559           2.134383
        2.872000           29.36249           0.139896           32.99402           1.953169
        2.876000           30.12531          -0.008847           33.88386           1.730546
        2.880000           30.88689          -0.190545           34.77285           1.465858
        2.884000           31.64524          -0.405181           35.65824           1.158735
        2.888000           32.39843          -0.652616           36.53735           0.808918
        2.892000           33.14458          -0.932615           37.40749           0.416319
        2.896000           33.88166          -1.244834           38.26563          -0.018875
        2.900000           34.60791          -1.588804           39.10911          -0.496487
        2.904000           35.32130          -1.963860           39.93481          -1.015751
        2.908000           36.01988          -2.369137           40.73967          -1.575779
        2.912000           36.70179          -2.803598           41.52050          -2.175219
        2.916000           37.36517          -3.265853           42.27456          -2.812289
        2.920000           38.00832          -3.754310           42.99885          -3.484704
        2.924000           38.63000          -4.267189           43.69118          -4.190097
        2.928000           39.22901          -4.802418           44.34927          -4.925419
        2.932000           39.80465          -5.357880           44.97177          -5.687447
        2.936000           40.35663          -5.931318           45.55767          -6.472882
        2.940000           40.88506          -6.520586           46.10644          -7.278312
        2.944000           41.39066          -7.123927           46.61866          -8.100729
        2.948000           41.87437          -7.739718           47.09506          -8.937275
        2.952000           42.33747          -8.366839           47.53679          -9.785659
        2.956000           42.78139          -9.004691           47.94559          -10.64413
        2.960000           43.20759          -9.653330           48.32285          -11.51170
        2.964000           43.61732          -10.31336           48.67056          -12.38782
        2.968000           44.01164          -10.98600           48.98978          -13.27313
        2.972000           44.39096          -11.67294           49.28153          -14.16822
        2.976000           44.75513          -12.37605           49.54585          -15.07447
        2.980000           45.10322          -13.09766           49.78236          -15.99326
        2.984000           45.43351          -13.83985           49.98964          -16.92617
        2.988000           45.74343          -14.60451           50.16533          -17.87418
        2.992000           46.02971          -15.39328           50.30672          -18.83832
        2.996000           46.28826          -16.20691           50.41024          -19.81845
        3.000000           46.51451          -17.04535           50.47168          -20.81380
        3.004000           46.70351          -17.90759           50.48670          -21.82241
        3.008000           46.85017          -18.79133           50.45118          -22.84113
        3.012000           46.94968          -19.69340           50.36104          -23.86603
        3.016000           46.99752          -20.60922           50.21284          -24.89171
        3.020000           46.99003          -21.53314           50.00417          -25.91210
        3.024000           46.92437          -22.45870           49.73354          -26.92007
        3.028000           46.79902          -23.37876           49.40092          -27.90836
        3.032000           46.61378          -24.28555           49.00745          -28.86918
        3.036000           46.36978          -25.17163           48.55604          -29.79536
        3.040000           46.06973          -26.02936           48.05067          -30.67972
        3.044000           45.71757          -26.85177           47.49637          -31.51595
        3.048000           45.31853          -27.63263           46.89962          -32.29885
        3.052000           44.87884          -28.36676           46.26754          -33.02419
        3.056000           44.40549          -29.05017           45.60787          -33.68908
        3.060000           43.90589          -29.68023           44.92842          -34.29203
        3.064000           43.38784          -30.25557           44.23722          -34.83276
        3.068000           42.85900          -30.77613           43.54205          -35.31226
        3.072000           42.32682          -31.24314           42.85008          -35.73281
        3.076000           41.79833          -31.65892           42.16831          -36.09746
        3.080000           41.27969          -32.02701           41.50237          -36.41042
        3.084000           40.77652          -32.35151           40.85745          -36.67648
        3.088000           40.29346          -32.63740           40.23796          -36.90091
        3.092000           39.83421          -32.89016           39.64683          -37.08947
        3.096000           39.40145          -33.11559           39.08661          -37.24823
        3.100000           38.99694          -33.31971           38.55865          -37.38301
        3.104000           38.62131          -33.50860           38.06318          -37.49992
        3.108000           38.27427          -33.68822           37.59974          -37.60491
        3.112000           37.95462          -33.86432           37.16696          -37.70341
        3.116000           37.66021          -34.04222           36.76279          -37.80076
        3.120000           37.38813          -34.22676           36.38425          -37.90138
        3.124000           37.13462          -34.42218           36.02785          -38.00944
        3.128000           36.89540          -34.63197           35.68930          -38.12817
        3.132000           36.66557          -34.85874           35.36428          -38.26010
        3.136000           36.43998          -35.10425           35.04779          -38.40694
        3.140000           36.21314          -35.36916           34.73492          -38.56943
        3.144000           35.97964          -35.65326           34.42072          -38.74726
        3.148000           35.73407          -35.95519           34.10021          -38.93958
        3.152000           35.47154          -36.27271           33.76901          -39.14421
        3.156000           35.18758          -36.60260           33.42308          -39.35842
        3.160000           34.87840          -36.94088           33.05906          -39.57875
        3.164000           34.54105          -37.28292           32.67440          -39.80111
        3.168000           34.17359          -37.62365           32.26739          -40.02120
        3.172000           33.77489          -37.95776           31.83707          -40.23429
        3.176000           33.34499          -38.27981           31.38357          -40.43582
        3.180000           32.88488          -38.58459           30.90782          -40.62135
        3.184000           32.39640          -38.86708           30.41144          -40.78656
        3.188000           31.88231          -39.12279           29.89702          -40.92792
        3.192000           31.34585          -39.34793           29.36723          -41.04223
        3.196000           30.79092          -39.53939           28.82562          -41.12690
        3.200000           30.22176          -39.69469           28.27574          -41.18021
        3.204000           29.64280          -39.81210           27.72141          -41.20070
        3.208000           29.05848          -39.89077           27.16640          -41.18804
        3.212000           28.47328          -39.93036           26.61448          -41.14203
        3.216000           27.89131          -39.93133           26.06898          -41.06343
        3.220000           27.31661          -39.89458           25.53335          -40.95295
        3.224000           26.75281          -39.82150           25.01039          -40.81199
        3.228000           26.20318          -39.71380           24.50284          -40.64223
        3.232000           25.67062          -39.57357           24.01301          -40.44555
        3.236000           25.15773          -39.40301           23.54292          -40.22378
        3.240000           24.66647          -39.20449           23.09415          -39.97910
        3.244000           24.19872          -38.98050           22.66808          -39.71352
        3.248000           23.75591          -38.73347           22.26586          -39.42924
        3.252000           23.33920          -38.46598           21.88833          -39.12844
        3.256000           22.94949          -38.18036           21.53622          -38.81299
        3.260000           22.58735          -37.87897           21.20988          -38.48498
        3.264000           22.25326          -37.56417           20.90965          -38.14628
        3.268000           21.94747          -37.23809           20.63574          -37.79874
        3.272000           21.67010          -36.90284           20.38819          -37.44413
        3.276000           21.42112          -36.56050           20.16698          -37.08414
        3.280000           21.20042          -36.21297           19.97204          -36.72042
        3.284000           21.00775          -35.86209           19.80315          -36.35433
        3.288000           20.84279          -35.50961           19.66012          -35.98756
        3.292000           20.70516          -35.15734           19.54269          -35.62148
        3.296000           20.59441          -34.80679           19.45048          -35.25745
        3.300000           20.51003          -34.45964           19.38316          -34.89701
        3.304000           20.45141          -34.11745           19.34039          -34.54141
        3.308000           20.41788          -33.78160           19.32159          -34.19203
        3.312000           20.40875          -33.45364           19.32627          -33.85011
        3.316000           20.42317          -33.13488           19.35389          -33.51702
        3.320000           20.46030          -32.82668           19.40377          -33.19405
        3.324000           20.51917          -32.53039           19.47516          -32.88240
        3.328000           20.59874          -32.24712           19.56727          -32.58331
        3.332000           20.69787          -31.97801           19.67918          -32.29794
        3.336000           20.81540          -31.72410           19.80992          -32.02737
        3.340000           20.95004          -31.48634           19.95840          -31.77282
        3.344000           21.10047          -31.26553           20.12349          -31.53495
        3.348000           21.26530          -31.06235           20.30395          -31.31485
        3.352000           21.44316          -30.87734           20.49852          -31.11314
        3.356000           21.63262          -30.71085           20.70590          -30.93052
        3.360000           21.83233          -30.56315           20.92479          -30.76740
        3.364000           22.04094          -30.43429           21.15387          -30.62419
        3.368000           22.25717          -30.32429           21.39182          -30.50109
        3.372000           22.47992          -30.23293           21.63753          -30.39823
        3.376000           22.70812          -30.16002           21.88981          -30.31571
        3.380000           22.94090          -30.10524           22.14756          -30.25361
        3.384000           23.17747          -30.06825           22.40986          -30.21183
        3.388000           23.41722          -30.04881           22.67573          -30.19031
        3.392000           23.65961          -30.04662           22.94433          -30.18916
        3.396000           23.90430          -30.06149           23.21482          -30.20831
        3.400000           24.15090          -30.09334           23.48640          -30.24785
        3.404000           24.39911          -30.14225           23.75815          -30.30789
        3.408000           24.64865          -30.20830           24.02925          -30.38852
        3.412000           24.89919          -30.29170           24.29877          -30.48980
        3.416000           25.15030          -30.39284           24.56564          -30.61187
        3.420000           25.40162          -30.51210           24.82892          -30.75479
        3.424000           25.65257          -30.64995           25.08751          -30.91829
        3.428000           25.90256          -30.80690           25.34026          -31.10251
        3.432000           26.15083          -30.98346           25.58618          -31.30711
        3.436000           26.39655          -31.18016           25.82418          -31.53185
        3.440000           26.63890          -31.39759           26.05330          -31.77639
        3.444000           26.87680          -31.63627           26.27265          -32.04042
        3.448000           27.10918          -31.89675           26.48129          -32.32365
        3.452000           27.33478          -32.17956           26.67845          -32.62572
        3.456000           27.55221          -32.48526           26.86335          -32.94659
        3.460000           27.75996          -32.81435           27.03493          -33.28599
        3.464000           27.95632          -33.16736           27.19244          -33.64394
        3.468000           28.13934          -33.54468           27.33470          -34.02060
        3.472000           28.30683          -33.94656           27.46035          -34.41591
        3.476000           28.45638          -34.37312           27.56789          -34.82984
        3.480000           28.58533          -34.82422           27.65562          -35.26242
        3.484000           28.69073          -35.29929           27.72135          -35.71321
        3.488000           28.76953          -35.79758           27.76287          -36.18191
        3.492000           28.81850          -36.31767           27.77766          -36.66734
        3.496000           28.83440          -36.85765           27.76310          -37.16828
        3.500000           28.81405          -37.41502           27.71657          -37.68285
        3.504000           28.75444          -37.98661           27.63554          -38.20853
        3.508000           28.65293          -38.56887           27.51757          -38.74256
        3.512000           28.50732          -39.15744           27.36070          -39.28127
        3.516000           28.31602          -39.74762           27.16345          -39.82076
        3.520000           28.07813          -40.33433           26.92486          -40.35666
        3.524000           27.79358          -40.91221           26.64451          -40.88438
        3.528000           27.46316          -41.47586           26.32307          -41.39914
        3.532000           27.08839          -42.02013           25.96167          -41.89635
        3.536000           26.67172          -42.54000           25.56230          -42.37148
        3.540000           26.21631          -43.03092           25.12757          -42.82034
        3.544000           25.72596          -43.48895           24.66081          -43.23926
        3.548000           25.20501          -43.91075           24.16593          -43.62513
        3.552000           24.65803          -44.29385           23.64686          -43.97551
        3.556000           24.08990          -44.63643           23.10802          -44.28870
        3.560000           23.50553          -44.93752           22.55399          -44.56351
        3.564000           22.90974          -45.19680           21.98905          -44.79963
        3.568000           22.30716          -45.41463           21.41749          -44.99736
        3.572000           21.70216          -45.59200           20.84351          -45.15725
        3.576000           21.09859          -45.73037           20.27061          -45.28075
        3.580000           20.50005          -45.83160           19.70218          -45.36953
        3.584000           19.90966          -45.89785           19.14118          -45.42545
        3.588000           19.33007          -45.93152           18.59016          -45.45065
        3.592000           18.76351          -45.93513           18.05125          -45.44761
        3.596000           18.21183          -45.91134           17.52622          -45.41864
        3.600000           17.67632          -45.86274           17.01633          -45.36637
        3.604000           17.15807          -45.79198           16.52263          -45.29297
        3.608000           16.65779          -45.70160           16.04588          -45.20100
        3.612000           16.17587          -45.59398           15.58644          -45.09264
        3.616000           15.71253          -45.47148           15.14452          -44.97019
        3.620000           15.26755          -45.33622           14.72000          -44.83564
        3.624000           14.84071          -45.19024           14.31267          -44.69081
        3.628000           14.43156          -45.03534           13.92212          -44.53762
        3.632000           14.03949          -44.87325           13.54777          -44.37748
        3.636000           13.66378          -44.70543           13.18898          -44.21198
        3.640000           13.30368          -44.53321           12.84503          -44.04231
        3.644000           12.95821          -44.35774           12.51502          -43.86960
        3.648000           12.62651          -44.18002           12.19809          -43.69470
        3.652000           12.30761          -44.00084           11.89338          -43.51846
        3.656000           12.00058          -43.82084           11.59995          -43.34145
        3.660000           11.70447          -43.64053           11.31695          -43.16420
        3.664000           11.41843          -43.46024           11.04350          -42.98706
        3.668000           11.14154          -43.28017           10.77881          -42.81017
        3.672000           10.87308          -43.10042           10.52211          -42.63368
        3.676000           10.61236          -42.92103           10.27279          -42.45752
        3.680000           10.35877          -42.74190           10.03026          -42.28167
        3.684000           10.11186          -42.56293           9.794053          -42.10604
        3.688000           9.871142          -42.38398           9.563727          -41.93039
        3.692000           9.636335          -42.20481           9.339023          -41.75474
        3.696000           9.407211          -42.02530           9.119695          -41.57862
        3.700000           9.183601          -41.84529           8.905597          -41.40219
        3.704000           8.965416          -41.66470           8.696618          -41.22514
        3.708000           8.752615          -41.48336           8.492779          -41.04750
        3.712000           8.545145          -41.30128           8.293974          -40.86906
        3.716000           8.343034          -41.11845           8.100270          -40.68997
        3.720000           8.146302          -40.93486           7.911644          -40.51014
        3.724000           7.954962          -40.75061           7.728160          -40.32966
        3.728000           7.769057          -40.56576           7.549846          -40.14878
        3.732000           7.588548          -40.38045           7.376668          -39.96729
        3.736000           7.413447          -40.19484           7.208631          -39.78555
        3.740000           7.243724          -40.00908           7.045742          -39.60361
        3.744000           7.079339          -39.82327           6.887935          -39.42168
        3.748000           6.920221          -39.63764           6.735142          -39.23994
        3.752000           6.766312          -39.45234           6.587337          -39.05843
        3.756000           6.617477          -39.26751           6.444386          -38.87746
        3.760000           6.473631          -39.08329           6.306202          -38.69703
        3.764000           6.334651          -38.89986           6.172666          -38.51738
        3.768000           6.200406          -38.71732           6.043662          -38.33857
        3.772000           6.070758          -38.53583           5.919057          -38.16068
        3.776000           5.945579          -38.35548           5.798728          -37.98405
        3.780000           5.824695          -38.17638           5.682528          -37.80844
        3.784000           5.707974          -37.99859           5.570304          -37.63424
        3.788000           5.595267          -37.82223           5.461928          -37.46134
        3.792000           5.486423          -37.64730           5.357261          -37.28986
        3.796000           5.381310          -37.47395           5.256167          -37.11984
        3.800000           5.279760          -37.30214           5.158497          -36.95135
        3.804000           5.181646          -37.13194           5.064115          -36.78441
        3.808000           5.086828          -36.96341           4.972890          -36.61906
        3.812000           4.995174          -36.79652           4.884709          -36.45538
        3.816000           4.906559          -36.63135           4.799445          -36.29325
        3.820000           4.820861          -36.46790           4.716969          -36.13272
        3.824000           4.737948          -36.30610           4.637177          -35.97395
        3.828000           4.657711          -36.14605           4.559951          -35.81673
        3.832000           4.580039          -35.98768           4.485183          -35.66116
        3.836000           4.504831          -35.83102           4.412780          -35.50726
        3.840000           4.431982          -35.67607           4.342646          -35.35502
        3.844000           4.361402          -35.52283           4.274694          -35.20442
        3.848000           4.292988          -35.37122           4.208818          -35.05539
        3.852000           4.226655          -35.22127           4.144932          -34.90794
        3.856000           4.162323          -35.07297           4.082985          -34.76216
        3.860000           4.099906          -34.92630           4.022863          -34.61783
        3.864000           4.039338          -34.78123           3.964520          -34.47509
        3.868000           3.980535          -34.63774           3.907880          -34.33394
        3.872000           3.923430          -34.49581           3.852858          -34.19424
        3.876000           3.867962          -34.35543           3.799421          -34.05602
        3.880000           3.814060          -34.21653           3.747483          -33.91919
        3.884000           3.761668          -34.07914           3.697001          -33.78388
        3.888000           3.710736          -33.94321           3.647922          -33.65001
        3.892000           3.661198          -33.80874           3.600174          -33.51753
        3.896000           3.613006          -33.67567           3.553725          -33.38641
        3.900000           3.566108          -33.54402           3.508527          -33.25659
        3.904000           3.520461          -33.41372           3.464525          -33.12818
        3.908000           3.476022          -33.28479           3.421686          -33.00097
        3.912000           3.432737          -33.15718           3.379953          -32.87516
        3.916000           3.390574          -33.03085           3.339306          -32.75049
        3.920000           3.349490          -32.90583           3.299694          -32.62713
        3.924000           3.309451          -32.78207           3.261089          -32.50492
        3.928000           3.270418          -32.65951           3.223453          -32.38393
        3.932000           3.232362          -32.53818           3.186748          -32.26411
        3.936000           3.195242          -32.41803           3.150954          -32.14550
        3.940000           3.159029          -32.29905           3.116027          -32.02794
        3.944000           3.123694          -32.18124           3.081949          -31.91153
        3.948000           3.089213          -32.06454           3.048694          -31.79621
        3.952000           3.055553          -31.94894           3.016224          -31.68192
        3.956000           3.022691          -31.83443           2.984530          -31.56867
        3.960000           2.990598          -31.72099           2.953576          -31.45644
        3.964000           2.959254          -31.60860           2.923339          -31.34528
        3.968000           2.928634          -31.49720           2.893800          -31.23508
        3.972000           2.898715          -31.38683           2.864936          -31.12590
        3.976000           2.869480          -31.27747           2.836732          -31.01760
        3.980000           2.840903          -31.16904           2.809162          -30.91026
        3.984000           2.812967          -31.06158           2.782211          -30.80387
        3.988000           2.785653          -30.95507           2.755858          -30.69833
        3.992000           2.758945          -30.84947           2.730091          -30.59372
        3.996000           2.732823          -30.74477           2.704892          -30.48994
        4.000000           2.707274          -30.64093           2.680240          -30.38701
# 
# 10/28/2023 at 15:30 yambo @ unimi-XPS-8930 [start]
# 10/28/2023 at 15:30                        [end]
#  
# Timing   [Min/Max/Average]: 11s/11s/11s
#
# .-Input file  yambo.in
# | optics                           # [R] Linear Response optical properties
# | bss                              # [R] BSE solver
# | bse                              # [R][BSE] Bethe Salpeter Equation.
# | tddft                            # [R][K] Use TDDFT kernel
# | ElecTemp= 0.025861         eV    # Electronic Temperature
# | BoseTemp= 0.025861         eV    # Bosonic Temperature
# | FFTGvecs=  603             RL    # [FFT] Plane-waves
# | BS_nCPU_LinAlg_INV= 1            # [PARALLEL] CPUs for Linear Algebra (if -1 it is automatically set)
# | BS_nCPU_LinAlg_DIAGO= 1          # [PARALLEL] CPUs for Linear Algebra (if -1 it is automatically set)
# | X_Threads= 1                     # [OPENMP/X] Number of threads for response functions
# | DIP_Threads= 1                   # [OPENMP/X] Number of threads for dipoles
# | K_Threads= 1                     # [OPENMP/BSK] Number of threads for response functions
# | BSKmod= "ALDA"                   # [BSE] IP/Hartree/HF/ALDA/SEX/BSfxc
# | BSEmod= "resonant"               # [BSE] resonant/retarded/coupling
# | BSSmod= "d"                      # [BSS] (h)aydock/(d)iagonalization/(s)lepc/(i)nversion/(t)ddft`
# | DipComputed= "R V P"             # [DIP] [default R P V; extra P2 Spin Orb]
# | BSENGexx= 1157             RL    # [BSK] Exchange components
# | BSENGfxc= 1157             RL    # [BSK] Fxc components
# | % BSEQptR
# |  1 | 2 |                             # [BSK] Transferred momenta range
# | %
# | % BSEBands
# |   2 |  6 |                           # [BSK] Bands range
# | %
# | % BEnRange
# | -2.000000 | 4.000000 |         eV    # [BSS] Energy range
# | %
# | % BDmRange
# |  0.100000 | 0.100000 |         eV    # [BSS] Damping range
# | %
# | BEnSteps= 1501                   # [BSS] Energy steps
# | % BLongDir
# |  0.000000 | 1.000000 | 0.000000 |        # [BSS] [cc] Electric Field versor
# | %
# | BSEprop= " abs jdos"             # [BSS] Can be any among abs/jdos/kerr/asymm/anHAll/magn/dich/photolum/esrt
# | BSEdips= "none"                  # [BSS] Can be "trace/none" or "xy/xz/yz" to define off-diagonal rotation plane
# | #WRbsWF                        # [BSS] Write to disk excitonic the WFs
