#                                                                     
#  __  __   ________   ___ __ __    _______   ______                  
# /_/\/_/\ /_______/\ /__//_//_/\ /_______/\ /_____/\                 
# \ \ \ \ \\::: _  \ \\::\| \| \ \\::: _  \ \\:::_ \ \                
#  \:\_\ \ \\::(_)  \ \\:.      \ \\::(_)  \/_\:\ \ \ \               
#   \::::_\/ \:: __  \ \\:.\-/\  \ \\::  _  \ \\:\ \ \ \              
#     \::\ \  \:.\ \  \ \\. \  \  \ \\::(_)  \ \\:\_\ \ \             
#      \__\/   \__\/\__\/ \__\/ \__\/ \_______\/ \_____\/             
#                                                                     
#                                                                     
# Version 5.2.0 Revision 22885 Hash (prev commit) 41fc9d87d4          
#                Branch is phys-dichroism                             
#         MPI+OpenMP+SLK+SLEPC+HDF5_MPI_IO Build                      
#                http://www.yambo-code.org                            
#
# Joint Density of states @ Q(2):   0.00000000      0.00000000    -0.500000000    [iku]
#
# [GEN] GF Energies                               : Perdew, Burke & Ernzerhof(X)+Perdew, Burke & Ernzerhof(C)
# [GEN] Green`s Function                          : Resonant
#
# DIP band range                                  :   2   6
# DIP band range limits                           :   6   2
# DIP e/h energy range                            :  -1.00000000     -1.00000000    [eV]
# RL vectors in the sum                           :   603
# [r,Vnl] included                                : yes
# Bands ordered                                   : yes
# Direct v evaluation                             : no
# Approach used                                   : G-space v
# Dipoles computed                                : R V P
# Wavefunctions                                   : Perdew, Burke & Ernzerhof(X)+Perdew, Burke & Ernzerhof(C)
#
#
# [K] Identifier                                  :   7737
# [K] Q-point                                     :   0.00000000      0.00000000    -0.500000000   
# [K] Dimension                                   :   748
# [K] Bands                                       :   2   6
# [K] Exchange res                                : yes
# [K] Correlation res                             : no
# [K] Kernel`s coupling                           : no
# [K] Exchange cpl                                : no
# [K] Correlation cpl                             : no
# [K] W interaction is bare                       : no
# [K] ALDA kernel in R-space                      : yes
# [K] RL vectors exchange                         :  1157
# [K] E/h energy range                            :  -1.00000000     -1.00000000    [eV]
# [K] Coupling range                              :   100.000000      100.000000    [o/o]
# [X] Response Kind                               : BAR
#
#
#    E[1] [eV]          Im(jdos)           Re(jdos)           Im(jdos_o)         Re(jdos_o)
#
       -2.000000           0.267495           10.84365           0.266692           10.82956
       -1.996000           0.268087           10.85433           0.267281           10.84023
       -1.992000           0.268681           10.86505           0.267873           10.85091
       -1.988000           0.269278           10.87579           0.268466           10.86161
       -1.984000           0.269877           10.88656           0.269062           10.87234
       -1.980000           0.270478           10.89734           0.269660           10.88309
       -1.976000           0.271081           10.90816           0.270261           10.89388
       -1.972000           0.271686           10.91900           0.270864           10.90468
       -1.968000           0.272294           10.92986           0.271468           10.91551
       -1.964000           0.272904           10.94075           0.272075           10.92635
       -1.960000           0.273516           10.95165           0.272684           10.93726
       -1.956000           0.274130           10.96259           0.273296           10.94814
       -1.952000           0.274747           10.97356           0.273910           10.95906
       -1.948000           0.275366           10.98453           0.274525           10.97000
       -1.944000           0.275987           10.99554           0.275144           10.98099
       -1.940000           0.276611           11.00657           0.275765           10.99201
       -1.936000           0.277237           11.01763           0.276387           11.00302
       -1.932000           0.277865           11.02871           0.277013           11.01407
       -1.928000           0.278496           11.03983           0.277640           11.02512
       -1.924000           0.279129           11.05095           0.278271           11.03623
       -1.920000           0.279764           11.06211           0.278903           11.04737
       -1.916000           0.280402           11.07329           0.279538           11.05851
       -1.912000           0.281042           11.08450           0.280174           11.06965
       -1.908000           0.281685           11.09573           0.280814           11.08086
       -1.904000           0.282330           11.10700           0.281456           11.09210
       -1.900000           0.282978           11.11828           0.282101           11.10337
       -1.896000           0.283627           11.12959           0.282747           11.11465
       -1.892000           0.284280           11.14092           0.283398           11.12593
       -1.888000           0.284936           11.15228           0.284049           11.13726
       -1.884000           0.285593           11.16368           0.284703           11.14862
       -1.880000           0.286253           11.17509           0.285360           11.16000
       -1.876000           0.286916           11.18655           0.286019           11.17141
       -1.872000           0.287580           11.19801           0.286681           11.18281
       -1.868000           0.288248           11.20949           0.287345           11.19427
       -1.864000           0.288919           11.22102           0.288013           11.20577
       -1.860000           0.289591           11.23257           0.288683           11.21731
       -1.856000           0.290267           11.24415           0.289354           11.22884
       -1.852000           0.290945           11.25574           0.290029           11.24043
       -1.848000           0.291626           11.26738           0.290707           11.25198
       -1.844000           0.292309           11.27904           0.291387           11.26361
       -1.840000           0.292995           11.29071           0.292069           11.27526
       -1.836000           0.293683           11.30243           0.292754           11.28693
       -1.832000           0.294375           11.31416           0.293443           11.29865
       -1.828000           0.295070           11.32594           0.294133           11.31036
       -1.824000           0.295766           11.33773           0.294827           11.32212
       -1.820000           0.296466           11.34955           0.295523           11.33389
       -1.816000           0.297168           11.36141           0.296222           11.34569
       -1.812000           0.297873           11.37329           0.296924           11.35754
       -1.808000           0.298581           11.38519           0.297628           11.36942
       -1.804000           0.299292           11.39711           0.298336           11.38132
       -1.800000           0.300005           11.40908           0.299045           11.39323
       -1.796000           0.300722           11.42107           0.299759           11.40519
       -1.792000           0.301441           11.43309           0.300474           11.41717
       -1.788000           0.302163           11.44515           0.301192           11.42918
       -1.784000           0.302888           11.45721           0.301914           11.44122
       -1.780000           0.303616           11.46932           0.302638           11.45329
       -1.776000           0.304346           11.48145           0.303365           11.46538
       -1.772000           0.305081           11.49362           0.304095           11.47750
       -1.768000           0.305817           11.50582           0.304828           11.48966
       -1.764000           0.306557           11.51804           0.305564           11.50186
       -1.760000           0.307300           11.53028           0.306304           11.51405
       -1.756000           0.308046           11.54259           0.307045           11.52630
       -1.752000           0.308794           11.55488           0.307790           11.53857
       -1.748000           0.309546           11.56723           0.308539           11.55086
       -1.744000           0.310301           11.57959           0.309289           11.56322
       -1.740000           0.311059           11.59200           0.310044           11.57555
       -1.736000           0.311820           11.60441           0.310801           11.58795
       -1.732000           0.312584           11.61689           0.311561           11.60037
       -1.728000           0.313351           11.62938           0.312324           11.61282
       -1.724000           0.314122           11.64190           0.313091           11.62530
       -1.720000           0.314896           11.65446           0.313860           11.63781
       -1.716000           0.315672           11.66704           0.314634           11.65035
       -1.712000           0.316452           11.67967           0.315409           11.66293
       -1.708000           0.317236           11.69230           0.316189           11.67550
       -1.704000           0.318022           11.70497           0.316971           11.68816
       -1.700000           0.318812           11.71770           0.317756           11.70083
       -1.696000           0.319605           11.73043           0.318546           11.71354
       -1.692000           0.320401           11.74320           0.319339           11.72628
       -1.688000           0.321201           11.75602           0.320134           11.73902
       -1.684000           0.322004           11.76884           0.320934           11.75182
       -1.680000           0.322811           11.78171           0.321736           11.76465
       -1.676000           0.323621           11.79461           0.322541           11.77754
       -1.672000           0.324434           11.80753           0.323350           11.79041
       -1.668000           0.325251           11.82051           0.324163           11.80332
       -1.664000           0.326070           11.83351           0.324978           11.81629
       -1.660000           0.326894           11.84654           0.325798           11.82929
       -1.656000           0.327721           11.85961           0.326620           11.84227
       -1.652000           0.328552           11.87269           0.327448           11.85534
       -1.648000           0.329386           11.88583           0.328277           11.86842
       -1.644000           0.330224           11.89899           0.329110           11.88152
       -1.640000           0.331065           11.91219           0.329947           11.89469
       -1.636000           0.331910           11.92542           0.330787           11.90786
       -1.632000           0.332759           11.93867           0.331632           11.92110
       -1.628000           0.333611           11.95196           0.332479           11.93436
       -1.624000           0.334467           11.96530           0.333331           11.94764
       -1.620000           0.335327           11.97866           0.334187           11.96097
       -1.616000           0.336190           11.99207           0.335046           11.97431
       -1.612000           0.337057           12.00551           0.335908           11.98768
       -1.608000           0.337928           12.01897           0.336774           12.00113
       -1.604000           0.338802           12.03246           0.337644           12.01458
       -1.600000           0.339681           12.04600           0.338518           12.02806
       -1.596000           0.340563           12.05958           0.339396           12.04160
       -1.592000           0.341449           12.07320           0.340277           12.05515
       -1.588000           0.342339           12.08683           0.341163           12.06873
       -1.584000           0.343234           12.10051           0.342052           12.08239
       -1.580000           0.344132           12.11422           0.342945           12.09603
       -1.576000           0.345033           12.12798           0.343842           12.10976
       -1.572000           0.345940           12.14176           0.344743           12.12350
       -1.568000           0.346849           12.15560           0.345648           12.13726
       -1.564000           0.347764           12.16944           0.346557           12.15108
       -1.560000           0.348681           12.18333           0.347471           12.16492
       -1.556000           0.349604           12.19725           0.348388           12.17880
       -1.552000           0.350530           12.21124           0.349309           12.19272
       -1.548000           0.351461           12.22524           0.350235           12.20666
       -1.544000           0.352395           12.23928           0.351164           12.22068
       -1.540000           0.353334           12.25336           0.352099           12.23470
       -1.536000           0.354277           12.26749           0.353036           12.24878
       -1.532000           0.355225           12.28162           0.353979           12.26287
       -1.528000           0.356176           12.29583           0.354926           12.27703
       -1.524000           0.357133           12.31006           0.355877           12.29121
       -1.520000           0.358093           12.32432           0.356831           12.30542
       -1.516000           0.359057           12.33864           0.357792           12.31968
       -1.512000           0.360027           12.35298           0.358756           12.33397
       -1.508000           0.361001           12.36736           0.359723           12.34829
       -1.504000           0.361978           12.38177           0.360696           12.36264
       -1.500000           0.362961           12.39625           0.361674           12.37710
       -1.496000           0.363949           12.41074           0.362655           12.39152
       -1.492000           0.364940           12.42528           0.363642           12.40599
       -1.488000           0.365936           12.43984           0.364633           12.42056
       -1.484000           0.366937           12.45448           0.365628           12.43510
       -1.480000           0.367943           12.46913           0.366629           12.44973
       -1.476000           0.368953           12.48383           0.367633           12.46437
       -1.472000           0.369968           12.49857           0.368642           12.47904
       -1.468000           0.370988           12.51336           0.369656           12.49375
       -1.464000           0.372012           12.52817           0.370675           12.50856
       -1.460000           0.373042           12.54304           0.371699           12.52333
       -1.456000           0.374076           12.55792           0.372727           12.53819
       -1.452000           0.375115           12.57288           0.373760           12.55310
       -1.448000           0.376159           12.58786           0.374799           12.56803
       -1.444000           0.377208           12.60289           0.375842           12.58297
       -1.440000           0.378262           12.61797           0.376891           12.59802
       -1.436000           0.379321           12.63308           0.377943           12.61305
       -1.432000           0.380385           12.64821           0.379002           12.62815
       -1.428000           0.381454           12.66341           0.380065           12.64329
       -1.424000           0.382529           12.67865           0.381133           12.65848
       -1.420000           0.383608           12.69394           0.382207           12.67366
       -1.416000           0.384693           12.70925           0.383285           12.68896
       -1.412000           0.385783           12.72462           0.384370           12.70426
       -1.408000           0.386878           12.74001           0.385458           12.71962
       -1.404000           0.387979           12.75549           0.386554           12.73503
       -1.400000           0.389084           12.77098           0.387653           12.75046
       -1.396000           0.390196           12.78651           0.388757           12.76594
       -1.392000           0.391313           12.80211           0.389868           12.78148
       -1.388000           0.392435           12.81772           0.390983           12.79703
       -1.384000           0.393563           12.83340           0.392105           12.81267
       -1.380000           0.394696           12.84912           0.393233           12.82830
       -1.376000           0.395835           12.86487           0.394365           12.84403
       -1.372000           0.396979           12.88067           0.395504           12.85975
       -1.368000           0.398130           12.89655           0.396647           12.87557
       -1.364000           0.399285           12.91245           0.397796           12.89142
       -1.360000           0.400447           12.92840           0.398951           12.90728
       -1.356000           0.401615           12.94438           0.400113           12.92323
       -1.352000           0.402788           12.96042           0.401278           12.93921
       -1.348000           0.403968           12.97651           0.402451           12.95524
       -1.344000           0.405153           12.99264           0.403629           12.97129
       -1.340000           0.406344           13.00883           0.404814           12.98743
       -1.336000           0.407541           13.02505           0.406004           13.00359
       -1.332000           0.408745           13.04132           0.407201           13.01979
       -1.328000           0.409953           13.05764           0.408404           13.03605
       -1.324000           0.411170           13.07402           0.409613           13.05237
       -1.320000           0.412391           13.09044           0.410827           13.06872
       -1.316000           0.413619           13.10690           0.412049           13.08514
       -1.312000           0.414854           13.12342           0.413275           13.10160
       -1.308000           0.416095           13.13999           0.414509           13.11809
       -1.304000           0.417342           13.15660           0.415748           13.13465
       -1.300000           0.418595           13.17326           0.416995           13.15124
       -1.296000           0.419855           13.18999           0.418250           13.16789
       -1.292000           0.421123           13.20675           0.419508           13.18458
       -1.288000           0.422395           13.22357           0.420774           13.20135
       -1.284000           0.423675           13.24042           0.422045           13.21816
       -1.280000           0.424962           13.25733           0.423325           13.23500
       -1.276000           0.426256           13.27430           0.424611           13.25193
       -1.272000           0.427556           13.29134           0.425902           13.26883
       -1.268000           0.428863           13.30840           0.427203           13.28587
       -1.264000           0.430177           13.32552           0.428510           13.30292
       -1.260000           0.431498           13.34270           0.429823           13.32003
       -1.256000           0.432826           13.35993           0.431141           13.33721
       -1.252000           0.434161           13.37720           0.432471           13.35440
       -1.248000           0.435504           13.39453           0.433804           13.37167
       -1.244000           0.436853           13.41194           0.435145           13.38895
       -1.240000           0.438209           13.42934           0.436495           13.40639
       -1.236000           0.439574           13.44685           0.437851           13.42378
       -1.232000           0.440945           13.46441           0.439215           13.44126
       -1.228000           0.442324           13.48200           0.440586           13.45880
       -1.224000           0.443711           13.49967           0.441962           13.47638
       -1.220000           0.445105           13.51738           0.443349           13.49403
       -1.216000           0.446507           13.53515           0.444744           13.51174
       -1.212000           0.447915           13.55296           0.446144           13.52948
       -1.208000           0.449332           13.57085           0.447552           13.54730
       -1.204000           0.450758           13.58878           0.448968           13.56515
       -1.200000           0.452190           13.60677           0.450393           13.58307
       -1.196000           0.453631           13.62482           0.451825           13.60103
       -1.192000           0.455079           13.64293           0.453265           13.61907
       -1.188000           0.456537           13.66109           0.454713           13.63717
       -1.184000           0.458002           13.67932           0.456170           13.65532
       -1.180000           0.459474           13.69759           0.457633           13.67351
       -1.176000           0.460956           13.71595           0.459106           13.69179
       -1.172000           0.462446           13.73435           0.460586           13.71014
       -1.168000           0.463944           13.75278           0.462077           13.72852
       -1.164000           0.465451           13.77132           0.463574           13.74697
       -1.160000           0.466966           13.78989           0.465080           13.76542
       -1.156000           0.468491           13.80851           0.466594           13.78403
       -1.152000           0.470022           13.82721           0.468117           13.80266
       -1.148000           0.471565           13.84598           0.469652           13.82131
       -1.144000           0.473115           13.86479           0.471191           13.84006
       -1.140000           0.474674           13.88369           0.472741           13.85884
       -1.136000           0.476243           13.90262           0.474301           13.87771
       -1.132000           0.477820           13.92163           0.475867           13.89665
       -1.128000           0.479407           13.94069           0.477444           13.91564
       -1.124000           0.481003           13.95983           0.479031           13.93470
       -1.120000           0.482608           13.97901           0.480625           13.95382
       -1.116000           0.484223           13.99828           0.482230           13.97300
       -1.112000           0.485847           14.01759           0.483844           13.99224
       -1.108000           0.487480           14.03698           0.485468           14.01154
       -1.104000           0.489124           14.05642           0.487102           14.03093
       -1.100000           0.490778           14.07595           0.488745           14.05032
       -1.096000           0.492441           14.09553           0.490398           14.06985
       -1.092000           0.494114           14.11517           0.492060           14.08939
       -1.088000           0.495797           14.13488           0.493733           14.10905
       -1.084000           0.497490           14.15466           0.495418           14.12873
       -1.080000           0.499194           14.17453           0.497110           14.14849
       -1.076000           0.500908           14.19443           0.498813           14.16832
       -1.072000           0.502632           14.21443           0.500526           14.18825
       -1.068000           0.504367           14.23445           0.502250           14.20821
       -1.064000           0.506112           14.25460           0.503984           14.22825
       -1.060000           0.507868           14.27479           0.505731           14.24837
       -1.056000           0.509636           14.29502           0.507485           14.26850
       -1.052000           0.511413           14.31537           0.509251           14.28876
       -1.048000           0.513202           14.33577           0.511030           14.30909
       -1.044000           0.515003           14.35624           0.512819           14.32945
       -1.040000           0.516813           14.37680           0.514618           14.34994
       -1.036000           0.518636           14.39738           0.516429           14.37044
       -1.032000           0.520470           14.41807           0.518253           14.39102
       -1.028000           0.522315           14.43882           0.520087           14.41171
       -1.024000           0.524173           14.45966           0.521932           14.43246
       -1.020000           0.526042           14.48057           0.523789           14.45326
       -1.016000           0.527923           14.50155           0.525658           14.47417
       -1.012000           0.529816           14.52259           0.527539           14.49512
       -1.008000           0.531721           14.54372           0.529432           14.51618
       -1.004000           0.533638           14.56494           0.531337           14.53728
       -1.000000           0.535568           14.58620           0.533253           14.55846
       -0.996000           0.537510           14.60758           0.535184           14.57970
       -0.992000           0.539465           14.62900           0.537126           14.60108
       -0.988000           0.541432           14.65052           0.539081           14.62247
       -0.984000           0.543413           14.67211           0.541048           14.64394
       -0.980000           0.545406           14.69377           0.543029           14.66555
       -0.976000           0.547413           14.71553           0.545024           14.68721
       -0.972000           0.549432           14.73733           0.547030           14.70893
       -0.968000           0.551466           14.75924           0.549051           14.73074
       -0.964000           0.553512           14.78123           0.551084           14.75265
       -0.960000           0.555572           14.80330           0.553130           14.77459
       -0.956000           0.557647           14.82544           0.555191           14.79665
       -0.952000           0.559735           14.84768           0.557266           14.81878
       -0.948000           0.561837           14.86999           0.559354           14.84101
       -0.944000           0.563954           14.89239           0.561457           14.86330
       -0.940000           0.566085           14.91486           0.563574           14.88566
       -0.936000           0.568231           14.93741           0.565707           14.90813
       -0.932000           0.570391           14.96007           0.567852           14.93067
       -0.928000           0.572566           14.98281           0.570014           14.95333
       -0.924000           0.574756           15.00563           0.572189           14.97604
       -0.920000           0.576961           15.02853           0.574380           14.99886
       -0.916000           0.579182           15.05152           0.576586           15.02173
       -0.912000           0.581418           15.07460           0.578807           15.04473
       -0.908000           0.583670           15.09778           0.581045           15.06779
       -0.904000           0.585938           15.12102           0.583297           15.09093
       -0.900000           0.588221           15.14439           0.585565           15.11418
       -0.896000           0.590522           15.16782           0.587852           15.13754
       -0.892000           0.592838           15.19135           0.590151           15.16093
       -0.888000           0.595171           15.21496           0.592470           15.18444
       -0.884000           0.597521           15.23869           0.594804           15.20805
       -0.880000           0.599887           15.26248           0.597155           15.23177
       -0.876000           0.602271           15.28638           0.599522           15.25556
       -0.872000           0.604672           15.31038           0.601908           15.27944
       -0.868000           0.607091           15.33447           0.604310           15.30342
       -0.864000           0.609527           15.35865           0.606731           15.32747
       -0.860000           0.611981           15.38293           0.609167           15.35167
       -0.856000           0.614453           15.40731           0.611625           15.37589
       -0.852000           0.616944           15.43177           0.614099           15.40030
       -0.848000           0.619454           15.45634           0.616591           15.42472
       -0.844000           0.621982           15.48101           0.619102           15.44926
       -0.840000           0.624529           15.50577           0.621632           15.47390
       -0.836000           0.627095           15.53065           0.624182           15.49869
       -0.832000           0.629681           15.55563           0.626750           15.52351
       -0.828000           0.632286           15.58071           0.629336           15.54849
       -0.824000           0.634911           15.60589           0.631945           15.57355
       -0.820000           0.637558           15.63114           0.634572           15.59874
       -0.816000           0.640223           15.65651           0.637220           15.62397
       -0.812000           0.642910           15.68203           0.639888           15.64934
       -0.808000           0.645618           15.70763           0.642577           15.67484
       -0.804000           0.648346           15.73333           0.645289           15.70040
       -0.800000           0.651096           15.75912           0.648020           15.72609
       -0.796000           0.653868           15.78505           0.650773           15.75191
       -0.792000           0.656663           15.81107           0.653548           15.77780
       -0.788000           0.659478           15.83720           0.656346           15.80377
       -0.784000           0.662316           15.86344           0.659165           15.82991
       -0.780000           0.665177           15.88980           0.662006           15.85614
       -0.776000           0.668062           15.91627           0.664870           15.88247
       -0.772000           0.670970           15.94286           0.667759           15.90894
       -0.768000           0.673901           15.96955           0.670671           15.93549
       -0.764000           0.676857           15.99635           0.673606           15.96222
       -0.760000           0.679837           16.02328           0.676565           15.98903
       -0.756000           0.682841           16.05033           0.679550           16.01592
       -0.752000           0.685871           16.07749           0.682557           16.04294
       -0.748000           0.688926           16.10477           0.685592           16.07009
       -0.744000           0.692007           16.13217           0.688653           16.09738
       -0.740000           0.695113           16.15970           0.691736           16.12473
       -0.736000           0.698247           16.18735           0.694847           16.15225
       -0.732000           0.701406           16.21510           0.697986           16.17989
       -0.728000           0.704593           16.24301           0.701149           16.20764
       -0.724000           0.707808           16.27102           0.704342           16.23553
       -0.720000           0.711050           16.29916           0.707562           16.26352
       -0.716000           0.714320           16.32742           0.710810           16.29163
       -0.712000           0.717618           16.35581           0.714086           16.31992
       -0.708000           0.720946           16.38435           0.717390           16.34828
       -0.704000           0.724303           16.41299           0.720724           16.37680
       -0.700000           0.727690           16.44179           0.724088           16.40545
       -0.696000           0.731108           16.47069           0.727481           16.43424
       -0.692000           0.734555           16.49976           0.730906           16.46314
       -0.688000           0.738037           16.52893           0.734362           16.49220
       -0.684000           0.741546           16.55826           0.737848           16.52135
       -0.680000           0.745090           16.58771           0.741366           16.55066
       -0.676000           0.748665           16.61733           0.744916           16.58012
       -0.672000           0.752275           16.64705           0.748501           16.60969
       -0.668000           0.755918           16.67694           0.752118           16.63942
       -0.664000           0.759594           16.70693           0.755770           16.66933
       -0.660000           0.763306           16.73710           0.759455           16.69933
       -0.656000           0.767051           16.76741           0.763173           16.72952
       -0.652000           0.770832           16.79787           0.766930           16.75976
       -0.648000           0.774651           16.82847           0.770720           16.79018
       -0.644000           0.778506           16.85923           0.774546           16.82080
       -0.640000           0.782398           16.89010           0.778415           16.85156
       -0.636000           0.786328           16.92116           0.782318           16.88245
       -0.632000           0.790296           16.95238           0.786257           16.91346
       -0.628000           0.794305           16.98374           0.790239           16.94468
       -0.624000           0.798353           17.01526           0.794259           16.97602
       -0.620000           0.802443           17.04691           0.798316           17.00752
       -0.616000           0.806571           17.07874           0.802419           17.03921
       -0.612000           0.810744           17.11073           0.806560           17.07105
       -0.608000           0.814958           17.14288           0.810746           17.10299
       -0.604000           0.819215           17.17517           0.814973           17.13518
       -0.600000           0.823518           17.20767           0.819245           17.16747
       -0.596000           0.827863           17.24032           0.823561           17.19995
       -0.592000           0.832257           17.27312           0.827922           17.23261
       -0.588000           0.836695           17.30611           0.832329           17.26538
       -0.584000           0.841181           17.33925           0.836783           17.29842
       -0.580000           0.845714           17.37258           0.841285           17.33152
       -0.576000           0.850297           17.40610           0.845835           17.36485
       -0.572000           0.854929           17.43977           0.850436           17.39836
       -0.568000           0.859613           17.47360           0.855083           17.43202
       -0.564000           0.864349           17.50764           0.859789           17.46590
       -0.560000           0.869135           17.54186           0.864542           17.49993
       -0.556000           0.873978           17.57626           0.869346           17.53412
       -0.552000           0.878873           17.61085           0.874210           17.56858
       -0.548000           0.883823           17.64561           0.879124           17.60315
       -0.544000           0.888831           17.68058           0.884098           17.63791
       -0.540000           0.893897           17.71573           0.889127           17.67290
       -0.536000           0.899023           17.75110           0.894217           17.70806
       -0.532000           0.904208           17.78664           0.899365           17.74341
       -0.528000           0.909454           17.82239           0.904577           17.77896
       -0.524000           0.914763           17.85831           0.909846           17.81470
       -0.520000           0.920135           17.89448           0.915182           17.85064
       -0.516000           0.925572           17.93083           0.920582           17.88682
       -0.512000           0.931075           17.96740           0.926045           17.92316
       -0.508000           0.936648           18.00414           0.931578           17.95975
       -0.504000           0.942289           18.04112           0.937181           17.99655
       -0.500000           0.948000           18.07832           0.942852           18.03352
       -0.496000           0.953784           18.11571           0.948594           18.07071
       -0.492000           0.959641           18.15335           0.954412           18.10814
       -0.488000           0.965574           18.19119           0.960302           18.14577
       -0.484000           0.971584           18.22926           0.966272           18.18365
       -0.480000           0.977673           18.26757           0.972317           18.22173
       -0.476000           0.983843           18.30610           0.978444           18.26006
       -0.472000           0.990093           18.34485           0.984651           18.29861
       -0.468000           0.996430           18.38385           0.990945           18.33737
       -0.464000           1.002852           18.42308           0.997324           18.37638
       -0.460000           1.009361           18.46255           1.003787           18.41567
       -0.456000           1.015962           18.50227           1.010344           18.45516
       -0.452000           1.022654           18.54222           1.016987           18.49490
       -0.448000           1.029443           18.58244           1.023730           18.53489
       -0.444000           1.036326           18.62290           1.030569           18.57511
       -0.440000           1.043311           18.66361           1.037505           18.61557
       -0.436000           1.050397           18.70459           1.044542           18.65633
       -0.432000           1.057587           18.74583           1.051681           18.69737
       -0.428000           1.064883           18.78735           1.058928           18.73867
       -0.424000           1.072292           18.82910           1.066287           18.78014
       -0.420000           1.079812           18.87115           1.073757           18.82200
       -0.416000           1.087447           18.91346           1.081340           18.86405
       -0.412000           1.095201           18.95607           1.089039           18.90643
       -0.408000           1.103078           18.99894           1.096865           18.94905
       -0.404000           1.111079           19.04209           1.104813           18.99200
       -0.400000           1.119208           19.08558           1.112888           19.03516
       -0.396000           1.127471           19.12932           1.121095           19.07870
       -0.392000           1.135869           19.17337           1.129436           19.12248
       -0.388000           1.144408           19.21772           1.137920           19.16657
       -0.384000           1.153090           19.26236           1.146544           19.21099
       -0.380000           1.161921           19.30735           1.155317           19.25568
       -0.376000           1.170903           19.35263           1.164242           19.30075
       -0.372000           1.180042           19.39822           1.173322           19.34605
       -0.368000           1.189344           19.44414           1.182565           19.39174
       -0.364000           1.198813           19.49042           1.191970           19.43770
       -0.360000           1.208454           19.53699           1.201550           19.48404
       -0.356000           1.218272           19.58391           1.211303           19.53066
       -0.352000           1.228270           19.63118           1.221239           19.57767
       -0.348000           1.238459           19.67877           1.231363           19.62500
       -0.344000           1.248845           19.72673           1.241683           19.67270
       -0.340000           1.259430           19.77506           1.252202           19.72069
       -0.336000           1.270223           19.82374           1.262926           19.76912
       -0.332000           1.281232           19.87277           1.273866           19.81787
       -0.328000           1.292462           19.92217           1.285028           19.86702
       -0.324000           1.303923           19.97195           1.296420           19.91648
       -0.320000           1.315622           20.02214           1.308046           19.96635
       -0.316000           1.327566           20.07270           1.319921           20.01662
       -0.312000           1.339768           20.12364           1.332045           20.06725
       -0.308000           1.352231           20.17500           1.344436           20.11830
       -0.304000           1.364970           20.22676           1.357101           20.16978
       -0.300000           1.377995           20.27893           1.370049           20.22165
       -0.296000           1.391314           20.33148           1.383289           20.27387
       -0.292000           1.404939           20.38449           1.396837           20.32659
       -0.288000           1.418884           20.43793           1.410695           20.37967
       -0.284000           1.433159           20.49179           1.424896           20.43327
       -0.280000           1.447777           20.54608           1.439428           20.48721
       -0.276000           1.462751           20.60080           1.454317           20.54166
       -0.272000           1.478100           20.65598           1.469581           20.59644
       -0.268000           1.493833           20.71163           1.485229           20.65179
       -0.264000           1.509969           20.76772           1.501277           20.70756
       -0.260000           1.526527           20.82427           1.517746           20.76378
       -0.256000           1.543524           20.88131           1.534650           20.82046
       -0.252000           1.560977           20.93883           1.552010           20.87759
       -0.248000           1.578906           20.99680           1.569849           20.93528
       -0.244000           1.597334           21.05528           1.588178           20.99339
       -0.240000           1.616278           21.11424           1.607028           21.05197
       -0.236000           1.635768           21.17369           1.626420           21.11111
       -0.232000           1.655824           21.23364           1.646377           21.17067
       -0.228000           1.676473           21.29407           1.666927           21.23075
       -0.224000           1.697744           21.35501           1.688096           21.29131
       -0.220000           1.719664           21.41644           1.709914           21.35237
       -0.216000           1.742265           21.47840           1.732406           21.41397
       -0.212000           1.765582           21.54079           1.755611           21.47602
       -0.208000           1.789641           21.60378           1.779568           21.53856
       -0.204000           1.814485           21.66721           1.804296           21.60158
       -0.200000           1.840152           21.73112           1.829845           21.66512
       -0.196000           1.866676           21.79552           1.856257           21.72909
       -0.192000           1.894105           21.86039           1.883573           21.79358
       -0.188000           1.922486           21.92578           1.911831           21.85854
       -0.184000           1.951856           21.99156           1.941082           21.92391
       -0.180000           1.982274           22.05777           1.971377           21.98975
       -0.176000           2.013788           22.12446           2.002760           22.05602
       -0.172000           2.046454           22.19153           2.035297           22.12264
       -0.168000           2.080325           22.25890           2.069039           22.18958
       -0.164000           2.115467           22.32667           2.104049           22.25695
       -0.160000           2.151936           22.39476           2.140383           22.32457
       -0.156000           2.189804           22.46310           2.178111           22.39249
       -0.152000           2.229134           22.53163           2.217308           22.46051
       -0.148000           2.269996           22.60034           2.258029           22.52884
       -0.144000           2.312463           22.66916           2.300346           22.59715
       -0.140000           2.356605           22.73798           2.344344           22.66550
       -0.136000           2.402504           22.80680           2.390085           22.73382
       -0.132000           2.450227           22.87543           2.437661           22.80203
       -0.128000           2.499852           22.94384           2.487129           22.86998
       -0.124000           2.551450           23.01191           2.538570           22.93749
       -0.120000           2.605104           23.07941           2.592057           23.00460
       -0.116000           2.660872           23.14636           2.647658           23.07095
       -0.112000           2.718814           23.21247           2.705436           23.13663
       -0.108000           2.778994           23.27758           2.765440           23.20126
       -0.104000           2.841455           23.34157           2.827726           23.26469
       -0.100000           2.906224           23.40416           2.892326           23.32671
       -0.096000           2.973325           23.46511           2.959235           23.38715
       -0.092000           3.042748           23.52417           3.028474           23.44566
       -0.088000           3.114473           23.58109           3.100001           23.50203
       -0.084000           3.188434           23.63552           3.173775           23.55598
       -0.080000           3.264548           23.68716           3.249692           23.60699
       -0.076000           3.342690           23.73570           3.327628           23.65504
       -0.072000           3.422678           23.78084           3.407416           23.69951
       -0.068000           3.504284           23.82220           3.488796           23.74025
       -0.064000           3.587228           23.85933           3.571531           23.77686
       -0.060000           3.671169           23.89205           3.655248           23.80899
       -0.056000           3.755687           23.91989           3.739543           23.83623
       -0.052000           3.840307           23.94267           3.823925           23.85841
       -0.048000           3.924489           23.96014           3.907877           23.87526
       -0.044000           4.007599           23.97204           3.990737           23.88653
       -0.040000           4.088984           23.97837           4.071867           23.89219
       -0.036000           4.167898           23.97895           4.150537           23.89212
       -0.032000           4.243577           23.97396           4.225945           23.88649
       -0.028000           4.315246           23.96363           4.297344           23.87550
       -0.024000           4.382081           23.94819           4.363923           23.85945
       -0.020000           4.443357           23.92820           4.424901           23.83873
       -0.016000           4.498328           23.90418           4.479585           23.81401
       -0.012000           4.546358           23.87687           4.527329           23.78601
       -0.008000           4.586925           23.84708           4.567590           23.75556
       -0.004000           4.619599           23.81581           4.599942           23.72354
        0.000000           4.644133           23.78392           4.624169           23.69094
        0.004000           4.660429           23.75254           4.640133           23.65885
        0.008000           4.668526           23.72271           4.647893           23.62830
        0.012000           4.668651           23.69539           4.647672           23.60013
        0.016000           4.661180           23.67153           4.639851           23.57559
        0.020000           4.646616           23.65207           4.624939           23.55531
        0.024000           4.625581           23.63768           4.603529           23.54015
        0.028000           4.598783           23.62909           4.576357           23.53072
        0.032000           4.566986           23.62676           4.544168           23.52759
        0.036000           4.530990           23.63105           4.507781           23.53104
        0.040000           4.491608           23.64224           4.468000           23.54145
        0.044000           4.449637           23.66051           4.425615           23.55879
        0.048000           4.405847           23.68579           4.381394           23.58325
        0.052000           4.360930           23.71806           4.336037           23.61463
        0.056000           4.315573           23.75710           4.290236           23.65282
        0.060000           4.270339           23.80280           4.244541           23.69759
        0.064000           4.225775           23.85481           4.199493           23.74871
        0.068000           4.182325           23.91283           4.155555           23.80578
        0.072000           4.140380           23.97657           4.113109           23.86864
        0.076000           4.100264           24.04570           4.072474           23.93676
        0.080000           4.062251           24.11983           4.033942           24.00998
        0.084000           4.026553           24.19862           3.997691           24.08776
        0.088000           3.993331           24.28181           3.963908           24.16990
        0.092000           3.962718           24.36899           3.932719           24.25606
        0.096000           3.934803           24.45998           3.904208           24.34607
        0.100000           3.909647           24.55445           3.878422           24.43942
        0.104000           3.887281           24.65213           3.855432           24.53607
        0.108000           3.867727           24.75281           3.835218           24.63562
        0.112000           3.850983           24.85628           3.817801           24.73797
        0.116000           3.837027           24.96233           3.803143           24.84294
        0.120000           3.825837           25.07078           3.791234           24.95025
        0.124000           3.817383           25.18149           3.782027           25.05979
        0.128000           3.811621           25.29436           3.775503           25.17148
        0.132000           3.808508           25.40919           3.771596           25.28513
        0.136000           3.808017           25.52597           3.770278           25.40069
        0.140000           3.810088           25.64452           3.771494           25.51802
        0.144000           3.814677           25.76479           3.775204           25.63705
        0.148000           3.821766           25.88675           3.781376           25.75766
        0.152000           3.831289           26.01033           3.789956           25.87996
        0.156000           3.843215           26.13540           3.800914           26.00374
        0.160000           3.857532           26.26204           3.814199           26.12906
        0.164000           3.874183           26.39017           3.829810           26.25583
        0.168000           3.893161           26.51971           3.847701           26.38398
        0.172000           3.914453           26.65074           3.867838           26.51361
        0.176000           3.938019           26.78316           3.890230           26.64459
        0.180000           3.963851           26.91702           3.914847           26.77702
        0.184000           3.991965           27.05232           3.941692           26.91084
        0.188000           4.022336           27.18901           3.970741           27.04609
        0.192000           4.054978           27.32713           4.002016           27.18267
        0.196000           4.089889           27.46668           4.035503           27.32069
        0.200000           4.127087           27.60765           4.071215           27.46013
        0.204000           4.166588           27.75005           4.109166           27.60101
        0.208000           4.208408           27.89399           4.149397           27.74340
        0.212000           4.252593           28.03935           4.191895           27.88711
        0.216000           4.299153           28.18624           4.236723           28.03236
        0.220000           4.348140           28.33465           4.283891           28.17921
        0.224000           4.399583           28.48452           4.333438           28.32748
        0.228000           4.453547           28.63601           4.385430           28.47726
        0.232000           4.510075           28.78901           4.439901           28.62868
        0.236000           4.569215           28.94361           4.496900           28.78160
        0.240000           4.631052           29.09978           4.556504           28.93617
        0.244000           4.695642           29.25760           4.618756           29.09230
        0.248000           4.763060           29.41702           4.683732           29.25011
        0.252000           4.833393           29.57802           4.751525           29.40954
        0.256000           4.906724           29.74073           4.822214           29.57059
        0.260000           4.983131           29.90505           4.895871           29.73336
        0.264000           5.062732           30.07099           4.972584           29.89780
        0.268000           5.145601           30.23857           5.052460           30.06387
        0.272000           5.231885           30.40784           5.135613           30.23161
        0.276000           5.321675           30.57873           5.222149           30.40110
        0.280000           5.415080           30.75110           5.312178           30.57220
        0.284000           5.512238           30.92513           5.405814           30.74499
        0.288000           5.613256           31.10068           5.503198           30.91924
        0.292000           5.718279           31.27768           5.604438           31.09533
        0.296000           5.827423           31.45613           5.709689           31.27278
        0.300000           5.940833           31.63598           5.819066           31.45183
        0.304000           6.058612           31.81712           5.932713           31.63232
        0.308000           6.180940           31.99949           6.050784           31.81414
        0.312000           6.307909           32.18297           6.173388           31.99743
        0.316000           6.439637           32.36745           6.300714           32.18185
        0.320000           6.576275           32.55283           6.432847           32.36731
        0.324000           6.717891           32.73900           6.569926           32.55387
        0.328000           6.864625           32.92584           6.712104           32.74135
        0.332000           7.016531           33.11313           6.859485           32.92947
        0.336000           7.173670           33.30077           7.012155           33.11837
        0.340000           7.336122           33.48867           7.170202           33.30767
        0.344000           7.503891           33.67656           7.333739           33.49731
        0.348000           7.676956           33.86440           7.502760           33.68703
        0.352000           7.855378           34.05201           7.677341           33.87692
        0.356000           8.039083           34.23929           7.857509           34.06651
        0.360000           8.228024           34.42617           8.043242           34.25596
        0.364000           8.422151           34.61256           8.234501           34.44498
        0.368000           8.621376           34.79850           8.431295           34.63357
        0.372000           8.825633           34.98393           8.633526           34.82159
        0.376000           9.034851           35.16906           8.841170           35.00916
        0.380000           9.249024           35.35394           9.054155           35.19623
        0.384000           9.468139           35.53876           9.272488           35.38294
        0.388000           9.692238           35.72373           9.496093           35.56931
        0.392000           9.921444           35.90913           9.725083           35.75552
        0.396000           10.15597           36.09525           9.959525           35.94194
        0.400000           10.39608           36.28246           10.19956           36.12877
        0.404000           10.64215           36.47097           10.44547           36.31622
        0.408000           10.89470           36.66117           10.69760           36.50447
        0.412000           11.15431           36.85322           10.95632           36.69402
        0.416000           11.42169           37.04742           11.22221           36.88504
        0.420000           11.69761           37.24380           11.49603           37.07763
        0.424000           11.98297           37.44246           11.77841           37.27207
        0.428000           12.27873           37.64323           12.07023           37.46823
        0.432000           12.58591           37.84583           12.37246           37.66607
        0.436000           12.90556           38.05001           12.68603           37.86544
        0.440000           13.23872           38.25522           13.01199           38.06592
        0.444000           13.58654           38.46080           13.35148           38.26713
        0.448000           13.95005           38.66591           13.70560           38.46833
        0.452000           14.33037           38.86961           14.07539           38.66874
        0.456000           14.72847           39.07071           14.46198           38.86729
        0.460000           15.14527           39.26806           14.86627           39.06297
        0.464000           15.58173           39.46003           15.28935           39.25432
        0.468000           16.03857           39.64505           15.73204           39.43998
        0.472000           16.51652           39.82143           16.19524           39.61821
        0.476000           17.01616           39.98712           16.67956           39.78726
        0.480000           17.53779           40.13999           17.18555           39.94500
        0.484000           18.08162           40.27787           17.71350           40.08930
        0.488000           18.64775           40.39833           18.26372           40.21789
        0.492000           19.23581           40.49868           18.83608           40.32819
        0.496000           19.84534           40.57639           19.43021           40.41757
        0.500000           20.47553           40.62864           20.04557           40.48322
        0.504000           21.12500           40.65247           20.68112           40.52237
        0.508000           21.79229           40.64523           21.33563           40.53210
        0.512000           22.47533           40.60394           22.00730           40.50950
        0.516000           23.17156           40.52586           22.69378           40.45174
        0.520000           23.87812           40.40848           23.39252           40.35589
        0.524000           24.59150           40.24946           24.10033           40.21966
        0.528000           25.30765           40.04687           24.81346           40.04067
        0.532000           26.02245           39.79937           25.52769           39.81704
        0.536000           26.73103           39.50595           26.23857           39.54765
        0.540000           27.42823           39.16644           26.94088           39.23172
        0.544000           28.10912           38.78138           27.62959           38.86933
        0.548000           28.76813           38.35217           28.29920           38.46124
        0.552000           29.40028           37.88105           28.94422           38.00942
        0.556000           30.00074           37.37110           29.55975           37.51638
        0.560000           30.56495           36.82638           30.14069           36.98586
        0.564000           31.08939           36.25158           30.68283           36.42207
        0.568000           31.57107           35.65206           31.18263           35.83031
        0.572000           32.00805           35.03365           31.63751           35.21632
        0.576000           32.39954           34.40229           32.04616           34.58631
        0.580000           32.74568           33.76435           32.40789           33.94651
        0.584000           33.04784           33.12542           32.72356           33.30330
        0.588000           33.30848           32.49117           32.99495           32.66243
        0.592000           33.53091           31.86636           33.22509           32.02941
        0.596000           33.71917           31.25501           33.41780           31.40899
        0.600000           33.87788           30.66006           33.57750           30.80481
        0.604000           34.01216           30.08358           33.70921           30.21937
        0.608000           34.12709           29.52643           33.81824           29.65453
        0.612000           34.22769           28.98847           33.90975           29.11076
        0.616000           34.31885           28.46848           33.98906           28.58737
        0.620000           34.40469           27.96443           34.06068           28.08278
        0.624000           34.48883           27.47341           34.12880           27.59468
        0.628000           34.57415           26.99199           34.19689           27.12009
        0.632000           34.66254           26.51609           34.26736           26.65504
        0.636000           34.75503           26.04160           34.34222           26.19567
        0.640000           34.85169           25.56425           34.42211           25.73758
        0.644000           34.95161           25.07977           34.50679           25.27666
        0.648000           35.05304           24.58429           34.59522           24.80872
        0.652000           35.15340           24.07432           34.68563           24.33005
        0.656000           35.24934           23.54692           34.77518           23.83728
        0.660000           35.33688           22.99992           34.86071           23.32775
        0.664000           35.41174           22.43198           34.93816           22.79957
        0.668000           35.46925           21.84259           35.00348           22.25146
        0.672000           35.50463           21.23217           35.05209           21.68317
        0.676000           35.51328           20.60205           35.07963           21.09523
        0.680000           35.49047           19.95442           35.08169           20.48885
        0.684000           35.43253           19.29238           35.05408           19.86646
        0.688000           35.33574           18.61959           34.99314           19.23083
        0.692000           35.19732           17.94041           34.89578           18.58544
        0.696000           35.01527           17.25960           34.75956           17.93447
        0.700000           34.78822           16.58218           34.58248           17.28222
        0.704000           34.51581           15.91332           34.36349           16.63328
        0.708000           34.19829           15.25820           34.10227           15.99247
        0.712000           33.83672           14.62176           33.79916           15.36428
        0.716000           33.43298           14.00872           33.45520           14.75332
        0.720000           32.98951           13.42344           33.07191           14.16376
        0.724000           32.50914           12.86973           32.65144           13.59944
        0.728000           31.99512           12.35101           32.19626           13.06390
        0.732000           31.45121           11.87017           31.70943           12.56018
        0.736000           30.88104           11.42949           31.19386           12.09083
        0.740000           30.28873           11.03080           30.65305           11.65805
        0.744000           29.67823           10.67543           30.09033           11.26363
        0.748000           29.05359           10.36413           29.50908           10.90889
        0.752000           28.41885           10.09735           28.91291           10.59477
        0.756000           27.77769           9.874962           28.30534           10.32188
        0.760000           27.13395           9.696509           27.68957           10.09044
        0.764000           26.49107           9.561253           27.06922           9.900396
        0.768000           25.85235           9.468023           26.44758           9.751315
        0.772000           25.22091           9.415439           25.82748           9.642530
        0.776000           24.59952           9.401884           25.21215           9.573053
        0.780000           23.99069           9.425539           24.60433           9.541620
        0.784000           23.39657           9.484415           24.00637           9.546870
        0.788000           22.81929           9.576450           23.42084           9.587128
        0.792000           22.26032           9.699488           22.84964           9.660600
        0.796000           21.72111           9.851357           22.29473           9.765395
        0.800000           21.20294           10.02987           21.75774           9.899580
        0.804000           20.70656           10.23288           21.23985           10.06106
        0.808000           20.23269           10.45828           20.74229           10.24784
        0.812000           19.78176           10.70409           20.26580           10.45793
        0.816000           19.35406           10.96836           19.81109           10.68931
        0.820000           18.94979           11.24926           19.37868           10.94012
        0.824000           18.56887           11.54511           18.96872           11.20853
        0.828000           18.21126           11.85433           18.58146           11.49283
        0.832000           17.87677           12.17537           18.21680           11.79136
        0.836000           17.56512           12.50695           17.87476           12.10266
        0.840000           17.27604           12.84778           17.55515           12.42531
        0.844000           17.00923           13.19672           17.25777           12.75801
        0.848000           16.76423           13.55276           16.98221           13.09960
        0.852000           16.54071           13.91492           16.72832           13.44896
        0.856000           16.33833           14.28233           16.49563           13.80514
        0.860000           16.15670           14.65424           16.28385           14.16726
        0.864000           15.99548           15.02987           16.09266           14.53443
        0.868000           15.85437           15.40864           15.92170           14.90600
        0.872000           15.73303           15.78992           15.77067           15.28124
        0.876000           15.63121           16.17310           15.63925           15.65949
        0.880000           15.54866           16.55775           15.52712           16.04029
        0.884000           15.48521           16.94331           15.43419           16.42303
        0.888000           15.44067           17.32930           15.36014           16.80726
        0.892000           15.41489           17.71532           15.30484           17.19252
        0.896000           15.40781           18.10087           15.26811           17.57839
        0.900000           15.41936           18.48551           15.24992           17.96434
        0.904000           15.44947           18.86878           15.25022           18.35005
        0.908000           15.49819           19.25022           15.26902           18.73508
        0.912000           15.56556           19.62930           15.30622           19.11892
        0.916000           15.65164           20.00556           15.36198           19.50119
        0.920000           15.75646           20.37837           15.43639           19.88136
        0.924000           15.88017           20.74720           15.52947           20.25892
        0.928000           16.02289           21.11138           15.64158           20.63336
        0.932000           16.18473           21.47017           15.77274           21.00402
        0.936000           16.36582           21.82293           15.92326           21.37028
        0.940000           16.56631           22.16879           16.09330           21.73142
        0.944000           16.78624           22.50688           16.28308           22.08664
        0.948000           17.02576           22.83627           16.49279           22.43506
        0.952000           17.28490           23.15590           16.72271           22.77559
        0.956000           17.56369           23.46467           16.97296           23.10740
        0.960000           17.86208           23.76147           17.24369           23.42916
        0.964000           18.17996           24.04498           17.53504           23.73965
        0.968000           18.51715           24.31384           17.84689           24.03747
        0.972000           18.87336           24.56664           18.17926           24.32115
        0.976000           19.24822           24.80195           18.53186           24.58907
        0.980000           19.64108           25.01805           18.90435           24.83949
        0.984000           20.05136           25.21333           19.29621           25.07076
        0.988000           20.47812           25.38613           19.70653           25.28078
        0.992000           20.92030           25.53462           20.13457           25.46786
        0.996000           21.37654           25.65709           20.57886           25.62987
        1.000000           21.84528           25.75175           21.03790           25.76502
        1.004000           22.32462           25.81689           21.50991           25.87131
        1.008000           22.81226           25.85094           21.99266           25.94710
        1.012000           23.30580           25.85252           22.48356           25.99082
        1.016000           23.80250           25.82033           22.97990           26.00103
        1.020000           24.29914           25.75355           23.47840           25.97704
        1.024000           24.79238           25.65166           23.97589           25.91796
        1.028000           25.27869           25.51459           24.46874           25.82379
        1.032000           25.75433           25.34281           24.95320           25.69498
        1.036000           26.21570           25.13733           25.42574           25.53238
        1.040000           26.65900           24.89963           25.88266           25.33746
        1.044000           27.08087           24.63197           26.32052           25.11242
        1.048000           27.47819           24.33698           26.73637           24.85985
        1.052000           27.84820           24.01794           27.12769           24.58278
        1.056000           28.18876           23.67846           27.49239           24.28479
        1.060000           28.49831           23.32241           27.82893           23.96954
        1.064000           28.77596           22.95389           28.13666           23.64081
        1.068000           29.02147           22.57700           28.41552           23.30250
        1.072000           29.23535           22.19566           28.66579           22.95815
        1.076000           29.41866           21.81358           28.88893           22.61122
        1.080000           29.57310           21.43418           29.08620           22.26455
        1.084000           29.70048           21.06028           29.25967           21.92060
        1.088000           29.80336           20.69422           29.41149           21.58145
        1.092000           29.88408           20.33794           29.54378           21.24838
        1.096000           29.94525           19.99265           29.65910           20.92228
        1.100000           29.98937           19.65925           29.75930           20.60382
        1.104000           30.01878           19.33815           29.84631           20.29283
        1.108000           30.03562           19.02941           29.92180           19.98929
        1.112000           30.04177           18.73287           29.98697           19.69272
        1.116000           30.03879           18.44815           30.04289           19.40269
        1.120000           30.02811           18.17485           30.09032           19.11878
        1.124000           30.01082           17.91255           30.12970           18.84060
        1.128000           29.98786           17.66083           30.16118           18.56792
        1.132000           29.96005           17.41944           30.18499           18.30077
        1.136000           29.92800           17.18814           30.20127           18.03924
        1.140000           29.89262           16.96686           30.21024           17.78375
        1.144000           29.85476           16.75562           30.21223           17.53486
        1.148000           29.81524           16.55439           30.20765           17.29317
        1.152000           29.77522           16.36316           30.19747           17.05938
        1.156000           29.73580           16.18187           30.18226           16.83416
        1.160000           29.69850           16.01025           30.16381           16.61814
        1.164000           29.66481           15.84786           30.14337           16.41160
        1.168000           29.63613           15.69396           30.12270           16.21475
        1.172000           29.61408           15.54750           30.10359           16.02720
        1.176000           29.60015           15.40714           30.08805           15.84838
        1.180000           29.59566           15.27119           30.07797           15.67720
        1.184000           29.60168           15.13759           30.07512           15.51219
        1.188000           29.61911           15.00410           30.08107           15.35155
        1.192000           29.64818           14.86817           30.09698           15.19293
        1.196000           29.68905           14.72710           30.12380           15.03376
        1.200000           29.74120           14.57819           30.16193           14.87133
        1.204000           29.80368           14.41865           30.21113           14.70256
        1.208000           29.87488           14.24585           30.27084           14.52460
        1.212000           29.95295           14.05735           30.33953           14.33448
        1.216000           30.03551           13.85103           30.41554           14.12944
        1.220000           30.11961           13.62507           30.49656           13.90699
        1.224000           30.20200           13.37821           30.57962           13.66521
        1.228000           30.27950           13.10961           30.66139           13.40240
        1.232000           30.34829           12.81908           30.73847           13.11756
        1.236000           30.40487           12.50700           30.80699           12.81038
        1.240000           30.44547           12.17430           30.86293           12.48107
        1.244000           30.46678           11.82256           30.90265           12.13059
        1.248000           30.46543           11.45394           30.92241           11.76055
        1.252000           30.43869           11.07099           30.91877           11.37309
        1.256000           30.38404           10.67683           30.88862           10.97104
        1.260000           30.29964           10.27484           30.82969           10.55758
        1.264000           30.18405           9.868659           30.73973           10.13629
        1.268000           30.03640           9.462081           30.61745           9.710962
        1.272000           29.85656           9.058979           30.46211           9.285594
        1.276000           29.64473           8.663102           30.27346           8.864088
        1.280000           29.40179           8.278112           30.05183           8.450346
        1.284000           29.12911           7.907474           29.79820           8.048141
        1.288000           28.82834           7.554315           29.51392           7.660911
        1.292000           28.50155           7.221531           29.20078           7.291881
        1.296000           28.15108           6.911584           28.86080           6.943897
        1.300000           27.77955           6.626655           28.49644           6.619523
        1.304000           27.38973           6.368481           28.11045           6.320983
        1.308000           26.98445           6.138454           27.70528           6.050067
        1.312000           26.56664           5.937682           27.28388           5.808281
        1.316000           26.13930           5.766763           26.84951           5.596797
        1.320000           25.70540           5.626129           26.40496           5.416366
        1.324000           25.26768           5.515737           25.95337           5.267477
        1.328000           24.82915           5.435345           25.49773           5.150257
        1.332000           24.39241           5.384394           25.04101           5.064481
        1.336000           23.96005           5.362041           24.58627           5.009624
        1.340000           23.53454           5.367208           24.13620           4.984863
        1.344000           23.11800           5.398618           23.69335           4.989055
        1.348000           22.71264           5.454779           23.26034           5.020806
        1.352000           22.32013           5.534041           22.83923           5.078510
        1.356000           21.94214           5.634638           22.43205           5.160324
        1.360000           21.58013           5.754624           22.04063           5.264244
        1.364000           21.23515           5.892057           21.66635           5.388165
        1.368000           20.90825           6.044868           21.31032           5.529860
        1.372000           20.59992           6.210936           20.97359           5.687040
        1.376000           20.31078           6.388203           20.65660           5.857430
        1.380000           20.04100           6.574541           20.35974           6.038726
        1.384000           19.79057           6.767911           20.08319           6.228673
        1.388000           19.55925           6.966287           19.82672           6.425104
        1.392000           19.34667           7.167762           19.58990           6.625911
        1.396000           19.15214           7.370433           19.37213           6.829098
        1.400000           18.97481           7.572652           19.17260           7.032842
        1.404000           18.81372           7.772829           18.99030           7.235462
        1.408000           18.66769           7.969530           18.82402           7.435426
        1.412000           18.53537           8.161531           18.67246           7.631443
        1.416000           18.41533           8.347838           18.53414           7.822433
        1.420000           18.30607           8.527649           18.40753           8.007519
        1.424000           18.20603           8.700398           18.29117           8.186066
        1.428000           18.11356           8.865738           18.18340           8.357669
        1.432000           18.02709           9.023584           18.08264           8.522202
        1.436000           17.94514           9.174045           17.98742           8.679674
        1.440000           17.86622           9.317570           17.89624           8.830432
        1.444000           17.78906           9.454646           17.80791           8.974880
        1.448000           17.71240           9.586019           17.72119           9.113686
        1.452000           17.63531           9.712578           17.63508           9.247588
        1.456000           17.55690           9.835278           17.54868           9.377448
        1.460000           17.47662           9.955210           17.46141           9.504207
        1.464000           17.39397           10.07348           17.37275           9.628826
        1.468000           17.30874           10.19121           17.28232           9.752304
        1.472000           17.22085           10.30952           17.19001           9.875649
        1.476000           17.13039           10.42951           17.09570           9.999879
        1.480000           17.03768           10.55220           16.99958           10.12590
        1.484000           16.94316           10.67856           16.90186           10.25469
        1.488000           16.84735           10.80947           16.80292           10.38708
        1.492000           16.75102           10.94572           16.70331           10.52388
        1.496000           16.65494           11.08793           16.60364           10.66583
        1.500000           16.56005           11.23666           16.50466           10.81356
        1.504000           16.46733           11.39228           16.40721           10.96757
        1.508000           16.37783           11.55504           16.31230           11.12826
        1.512000           16.29271           11.72494           16.22082           11.29589
        1.516000           16.21303           11.90194           16.13396           11.47053
        1.520000           16.13989           12.08573           16.05273           11.65206
        1.524000           16.07446           12.27587           15.97827           11.84028
        1.528000           16.01768           12.47178           15.91172           12.03476
        1.532000           15.97056           12.67265           15.85409           12.23492
        1.536000           15.93392           12.87760           15.80630           12.43993
        1.540000           15.90851           13.08557           15.76931           12.64898
        1.544000           15.89496           13.29540           15.74382           12.86094
        1.548000           15.89373           13.50581           15.73049           13.07464
        1.552000           15.90508           13.71547           15.72979           13.28889
        1.556000           15.92924           13.92296           15.74211           13.50226
        1.560000           15.96606           14.12683           15.76758           13.71329
        1.564000           16.01535           14.32557           15.80617           13.92050
        1.568000           16.07666           14.51770           15.85771           14.12234
        1.572000           16.14936           14.70176           15.92177           14.31730
        1.576000           16.23260           14.87632           15.99775           14.50377
        1.580000           16.32532           15.04002           16.08484           14.68034
        1.584000           16.42624           15.19163           16.18194           14.84543
        1.588000           16.53387           15.33003           16.28780           14.99774
        1.592000           16.64659           15.45429           16.40088           15.13605
        1.596000           16.76258           15.56367           16.51950           15.25922
        1.600000           16.87986           15.65771           16.64177           15.36647
        1.604000           16.99634           15.73614           16.76549           15.45713
        1.608000           17.10985           15.79906           16.88851           15.53080
        1.612000           17.21820           15.84684           17.00837           15.58761
        1.616000           17.31920           15.88020           17.12268           15.62772
        1.620000           17.41085           15.90019           17.22909           15.65192
        1.624000           17.49104           15.90814           17.32519           15.66131
        1.628000           17.55809           15.90572           17.40873           15.65731
        1.632000           17.61045           15.89485           17.47767           15.64176
        1.636000           17.64682           15.87771           17.53032           15.61681
        1.640000           17.66630           15.85664           17.56521           15.58485
        1.644000           17.66831           15.83407           17.58129           15.54850
        1.648000           17.65257           15.81259           17.57791           15.51055
        1.652000           17.61924           15.79470           17.55494           15.47389
        1.656000           17.56888           15.78291           17.51251           15.44137
        1.660000           17.50224           15.77961           17.45126           15.41567
        1.664000           17.42054           15.78701           17.37229           15.39950
        1.668000           17.32526           15.80710           17.27695           15.39524
        1.672000           17.21799           15.84168           17.16701           15.40493
        1.676000           17.10070           15.89218           17.04431           15.43049
        1.680000           16.97537           15.95985           16.91113           15.47326
        1.684000           16.84408           16.04556           16.76953           15.53460
        1.688000           16.70899           16.14993           16.62190           15.61513
        1.692000           16.57222           16.27327           16.47059           15.71542
        1.696000           16.43584           16.41560           16.31774           15.83565
        1.700000           16.30184           16.57675           16.16563           15.97563
        1.704000           16.17217           16.75632           16.01628           16.13504
        1.708000           16.04848           16.95371           15.87146           16.31340
        1.712000           15.93242           17.16820           15.73301           16.50983
        1.716000           15.82544           17.39896           15.60240           16.72365
        1.720000           15.72878           17.64501           15.48105           16.95383
        1.724000           15.64363           17.90539           15.37018           17.19934
        1.728000           15.57098           18.17903           15.27086           17.45908
        1.732000           15.51170           18.46494           15.18393           17.73211
        1.736000           15.46652           18.76201           15.11020           18.01727
        1.740000           15.43613           19.06923           15.05033           18.31353
        1.744000           15.42107           19.38561           15.00484           18.61986
        1.748000           15.42182           19.71004           14.97423           18.93527
        1.752000           15.43878           20.04165           14.95889           19.25875
        1.756000           15.47242           20.37943           14.95918           19.58949
        1.760000           15.52298           20.72246           14.97543           19.92648
        1.764000           15.59074           21.06983           15.00780           20.26883
        1.768000           15.67605           21.42060           15.05660           20.61578
        1.772000           15.77905           21.77386           15.12206           20.96651
        1.776000           15.90008           22.12877           15.20428           21.32017
        1.780000           16.03930           22.48442           15.30353           21.67597
        1.784000           16.19693           22.83987           15.42004           22.03316
        1.788000           16.37310           23.19415           15.55391           22.39083
        1.792000           16.56802           23.54634           15.70534           22.74834
        1.796000           16.78176           23.89536           15.87449           23.10460
        1.800000           17.01454           24.24026           16.06144           23.45895
        1.804000           17.26633           24.57994           16.26647           23.81033
        1.808000           17.53719           24.91319           16.48941           24.15792
        1.812000           17.82698           25.23893           16.73066           24.50069
        1.816000           18.13566           25.55586           16.98999           24.83746
        1.820000           18.46300           25.86276           17.26737           25.16740
        1.824000           18.80868           26.15832           17.56275           25.48920
        1.828000           19.17231           26.44122           17.87594           25.80173
        1.832000           19.55333           26.71012           18.20660           26.10383
        1.836000           19.95107           26.96363           18.55428           26.39418
        1.840000           20.36469           27.20042           18.91854           26.67167
        1.844000           20.79334           27.41928           19.29872           26.93500
        1.848000           21.23586           27.61891           19.69392           27.18299
        1.852000           21.69096           27.79814           20.10334           27.41456
        1.856000           22.15723           27.95597           20.52579           27.62859
        1.860000           22.63317           28.09138           20.96007           27.82419
        1.864000           23.11719           28.20368           21.40488           28.00050
        1.868000           23.60747           28.29230           21.85883           28.15689
        1.872000           24.10220           28.35681           22.32047           28.29288
        1.876000           24.59956           28.39703           22.78823           28.40812
        1.880000           25.09768           28.41309           23.26064           28.50278
        1.884000           25.59468           28.40521           23.73629           28.57676
        1.888000           26.08898           28.37397           24.21401           28.63033
        1.892000           26.57893           28.31997           24.69228           28.66398
        1.896000           27.06315           28.24421           25.17035           28.67842
        1.900000           27.54042           28.14766           25.64731           28.67405
        1.904000           28.00979           28.03134           26.12248           28.65163
        1.908000           28.47050           27.89643           26.59552           28.61163
        1.912000           28.92216           27.74390           27.06611           28.55456
        1.916000           29.36440           27.57472           27.53418           28.48075
        1.920000           29.79721           27.38958           27.99960           28.39027
        1.924000           30.22055           27.18908           28.46252           28.28308
        1.928000           30.63445           26.97354           28.92271           28.15896
        1.932000           31.03897           26.74296           29.37996           28.01721
        1.936000           31.43393           26.49718           29.83422           27.85732
        1.940000           31.81904           26.23585           30.28461           27.67829
        1.944000           32.19376           25.95846           30.73042           27.47926
        1.948000           32.55721           25.66452           31.17035           27.25947
        1.952000           32.90810           25.35341           31.60309           27.01791
        1.956000           33.24506           25.02475           32.02688           26.75393
        1.960000           33.56623           24.67836           32.43957           26.46692
        1.964000           33.86945           24.31433           32.83879           26.15677
        1.968000           34.15234           23.93320           33.22224           25.82359
        1.972000           34.41263           23.53590           33.58714           25.46794
        1.976000           34.64772           23.12384           33.93075           25.09068
        1.980000           34.85535           22.69889           34.25055           24.69318
        1.984000           35.03338           22.26344           34.54392           24.27726
        1.988000           35.18002           21.82033           34.80842           23.84509
        1.992000           35.29370           21.37271           35.04201           23.39930
        1.996000           35.37350           20.92407           35.24288           22.94291
        2.000000           35.41896           20.47797           35.40955           22.47894
        2.004000           35.43008           20.03823           35.54106           22.01087
        2.008000           35.40750           19.60855           35.63684           21.54233
        2.012000           35.35233           19.19258           35.69680           21.07690
        2.016000           35.26614           18.79379           35.72120           20.61822
        2.020000           35.15095           18.41543           35.71083           20.16994
        2.024000           35.00916           18.06032           35.66692           19.73540
        2.028000           34.84347           17.73107           35.59093           19.31794
        2.032000           34.65693           17.42988           35.48487           18.92070
        2.036000           34.45264           17.15851           35.35096           18.54649
        2.040000           34.23398           16.91849           35.19169           18.19787
        2.044000           34.00422           16.71075           35.00983           17.87716
        2.048000           33.76691           16.53595           34.80833           17.58626
        2.052000           33.52547           16.39440           34.59031           17.32699
        2.056000           33.28333           16.28609           34.35903           17.10061
        2.060000           33.04383           16.21057           34.11789           16.90823
        2.064000           32.81027           16.16711           33.87032           16.75057
        2.068000           32.58579           16.15473           33.61985           16.62795
        2.072000           32.37334           16.17207           33.37009           16.54051
        2.076000           32.17587           16.21757           33.12445           16.48794
        2.080000           31.99613           16.28938           32.88670           16.46957
        2.084000           31.83654           16.38542           32.66041           16.48442
        2.088000           31.69943           16.50328           32.44875           16.53112
        2.092000           31.58682           16.64052           32.25520           16.60797
        2.096000           31.50055           16.79438           32.08281           16.71292
        2.100000           31.44217           16.96194           31.93460           16.84359
        2.104000           31.41285           17.14019           31.81312           16.99722
        2.108000           31.41359           17.32593           31.72088           17.17090
        2.112000           31.44497           17.51597           31.65985           17.36145
        2.116000           31.50734           17.70699           31.63202           17.56540
        2.120000           31.60062           17.89562           31.63870           17.77908
        2.124000           31.72443           18.07855           31.68098           17.99876
        2.128000           31.87802           18.25251           31.75956           18.22053
        2.132000           32.06036           18.41426           31.87470           18.44032
        2.136000           32.27003           18.56071           32.02657           18.65408
        2.140000           32.50544           18.68893           32.21441           18.85773
        2.144000           32.76436           18.79610           32.43734           19.04713
        2.148000           33.04460           18.87972           32.69413           19.21823
        2.152000           33.34357           18.93742           32.98254           19.36702
        2.156000           33.65838           18.96714           33.30058           19.48966
        2.160000           33.98602           18.96716           33.64537           19.58261
        2.164000           34.32322           18.93608           34.01359           19.64244
        2.168000           34.66655           18.87283           34.40153           19.66618
        2.172000           35.01248           18.77674           34.80503           19.65126
        2.176000           35.35741           18.64751           35.21953           19.59557
        2.180000           35.69774           18.48527           35.64043           19.49757
        2.184000           36.02981           18.29056           36.06244           19.35637
        2.188000           36.35017           18.06435           36.48042           19.17172
        2.192000           36.65531           17.80801           36.88929           18.94411
        2.196000           36.94202           17.52327           37.28374           18.67472
        2.200000           37.20736           17.21233           37.65880           18.36536
        2.204000           37.44873           16.87755           38.00999           18.01852
        2.208000           37.66361           16.52169           38.33315           17.63731
        2.212000           37.85009           16.14767           38.62437           17.22529
        2.216000           38.00658           15.75865           38.88040           16.78641
        2.220000           38.13169           15.35787           39.09899           16.32500
        2.224000           38.22468           14.94853           39.27775           15.84553
        2.228000           38.28512           14.53404           39.41571           15.35257
        2.232000           38.31277           14.11761           39.51183           14.85078
        2.236000           38.30790           13.70253           39.56579           14.34469
        2.240000           38.27108           13.29187           39.57829           13.83874
        2.244000           38.20310           12.88869           39.54977           13.33731
        2.248000           38.10509           12.49579           39.48162           12.84429
        2.252000           37.97842           12.11594           39.37528           12.36360
        2.256000           37.82481           11.75164           39.23313           11.89878
        2.260000           37.64613           11.40520           39.05722           11.45300
        2.264000           37.44442           11.07876           38.85016           11.02918
        2.268000           37.22209           10.77420           38.61517           10.62992
        2.272000           36.98156           10.49302           38.35499           10.25724
        2.276000           36.72552           10.23647           38.07317           9.912881
        2.280000           36.45673           10.00553           37.77291           9.598130
        2.284000           36.17806           9.800654           37.45802           9.313786
        2.288000           35.89242           9.622129           37.13175           9.060207
        2.292000           35.60250           9.469586           36.79737           8.837212
        2.296000           35.31107           9.342435           36.45841           8.644253
        2.300000           35.02054           9.239721           36.11780           8.480286
        2.304000           34.73331           9.160044           35.77825           8.343936
        2.308000           34.45123           9.101798           35.44227           8.233479
        2.312000           34.17585           9.063171           35.11154           8.146930
        2.316000           33.90831           9.042141           34.78781           8.082088
        2.320000           33.64937           9.036705           34.47196           8.036793
        2.324000           33.39932           9.044872           34.16473           8.008832
        2.328000           33.15800           9.064709           33.86613           7.996150
        2.332000           32.92502           9.094625           33.57586           7.996861
        2.336000           32.69960           9.133221           33.29341           8.009419
        2.340000           32.48063           9.179509           33.01775           8.032591
        2.344000           32.26709           9.232852           32.74804           8.065582
        2.348000           32.05773           9.293010           32.48308           8.107965
        2.352000           31.85152           9.360158           32.22181           8.159797
        2.356000           31.64751           9.434851           31.96349           8.221395
        2.360000           31.44498           9.517920           31.70728           8.293527
        2.364000           31.24362           9.610414           31.45301           8.377085
        2.368000           31.04338           9.713556           31.20061           8.473211
        2.372000           30.84469           9.828581           30.95047           8.583014
        2.376000           30.64823           9.956633           30.70334           8.707598
        2.380000           30.45519           10.09876           30.46056           8.847935
        2.384000           30.26686           10.25577           30.22315           9.004760
        2.388000           30.08491           10.42818           29.99304           9.178539
        2.392000           29.91111           10.61613           29.77195           9.369387
        2.396000           29.74723           10.81947           29.56170           9.577097
        2.400000           29.59514           11.03769           29.36431           9.801026
        2.404000           29.45658           11.26992           29.18154           10.04033
        2.408000           29.33303           11.51503           29.01501           10.29375
        2.412000           29.22596           11.77159           28.86617           10.55976
        2.416000           29.13645           12.03802           28.73624           10.83662
        2.420000           29.06531           12.31256           28.62606           11.12249
        2.424000           29.01303           12.59338           28.53646           11.41533
        2.428000           28.97997           12.87868           28.46738           11.71309
        2.432000           28.96603           13.16668           28.41908           12.01378
        2.436000           28.97096           13.45558           28.39120           12.31538
        2.440000           28.99423           13.74386           28.38313           12.61606
        2.444000           29.03519           14.03009           28.39408           12.91419
        2.448000           29.09292           14.31300           28.42300           13.20815
        2.452000           29.16656           14.59164           28.46863           13.49690
        2.456000           29.25509           14.86518           28.52975           13.77933
        2.460000           29.35759           15.13298           28.60523           14.05473
        2.464000           29.47304           15.39468           28.69345           14.32272
        2.468000           29.60065           15.64995           28.79346           14.58294
        2.472000           29.73976           15.89875           28.90412           14.83545
        2.476000           29.88975           16.14093           29.02451           15.08034
        2.480000           30.05019           16.37646           29.15385           15.31784
        2.484000           30.22079           16.60529           29.29174           15.54815
        2.488000           30.40144           16.82721           29.43778           15.77149
        2.492000           30.59197           17.04197           29.59178           15.98793
        2.496000           30.79233           17.24917           29.75393           16.19743
        2.500000           31.00258           17.44824           29.92402           16.39979
        2.504000           31.22245           17.63842           30.10232           16.59445
        2.508000           31.45179           17.81884           30.28869           16.78077
        2.512000           31.69007           17.98845           30.48285           16.95787
        2.516000           31.93662           18.14621           30.68463           17.12466
        2.520000           32.19060           18.29104           30.89310           17.28013
        2.524000           32.45080           18.42179           31.10756           17.42294
        2.528000           32.71564           18.53766           31.32641           17.55202
        2.532000           32.98342           18.63780           31.54808           17.66640
        2.536000           33.25216           18.72174           31.77023           17.76526
        2.540000           33.51967           18.78935           31.99093           17.84823
        2.544000           33.78366           18.84074           32.20745           17.91533
        2.548000           34.04177           18.87652           32.41700           17.96700
        2.552000           34.29164           18.89771           32.61681           18.00421
        2.556000           34.53102           18.90572           32.80415           18.02852
        2.560000           34.75784           18.90243           32.97657           18.04214
        2.564000           34.97032           18.89004           33.13158           18.04760
        2.568000           35.16707           18.87114           33.26757           18.04806
        2.572000           35.34698           18.84857           33.38326           18.04710
        2.576000           35.50964           18.82536           33.47781           18.04851
        2.580000           35.65487           18.80462           33.55121           18.05620
        2.584000           35.78322           18.78954           33.60432           18.07428
        2.588000           35.89562           18.78313           33.63821           18.10658
        2.592000           35.99355           18.78828           33.65520           18.15689
        2.596000           36.07885           18.80762           33.65741           18.22845
        2.600000           36.15387           18.84340           33.64838           18.32422
        2.604000           36.22118           18.89742           33.63147           18.44646
        2.608000           36.28359           18.97125           33.61047           18.59710
        2.612000           36.34395           19.06587           33.58948           18.77718
        2.616000           36.40533           19.18180           33.57257           18.98735
        2.620000           36.47075           19.31922           33.56386           19.22747
        2.624000           36.54298           19.47786           33.56727           19.49714
        2.628000           36.62479           19.65710           33.58669           19.79504
        2.632000           36.71881           19.85607           33.62547           20.11976
        2.636000           36.82740           20.07363           33.68702           20.46934
        2.640000           36.95265           20.30834           33.77416           20.84154
        2.644000           37.09659           20.55872           33.88933           21.23381
        2.648000           37.26090           20.82307           34.03489           21.64350
        2.652000           37.44698           21.09968           34.21270           22.06767
        2.656000           37.65628           21.38676           34.42404           22.50341
        2.660000           37.88985           21.68242           34.67013           22.94769
        2.664000           38.14859           21.98474           34.95160           23.39745
        2.668000           38.43336           22.29179           35.26917           23.84980
        2.672000           38.74475           22.60166           35.62269           24.30153
        2.676000           39.08333           22.91242           36.01226           24.75010
        2.680000           39.44932           23.22207           36.43745           25.19259
        2.684000           39.84293           23.52867           36.89732           25.62642
        2.688000           40.26428           23.83030           37.39148           26.04928
        2.692000           40.71316           24.12497           37.91849           26.45879
        2.696000           41.18933           24.41082           38.47727           26.85298
        2.700000           41.69250           24.68609           39.06685           27.23011
        2.704000           42.22203           24.94902           39.68559           27.58851
        2.708000           42.77739           25.19783           40.33233           27.92678
        2.712000           43.35777           25.43110           41.00570           28.24369
        2.716000           43.96244           25.64717           41.70433           28.53821
        2.720000           44.59058           25.84478           42.42715           28.80935
        2.724000           45.24124           26.02259           43.17307           29.05628
        2.728000           45.91355           26.17934           43.94077           29.27814
        2.732000           46.60661           26.31388           44.72961           29.47410
        2.736000           47.31945           26.42511           45.53864           29.64343
        2.740000           48.05099           26.51189           46.36665           29.78509
        2.744000           48.80044           26.57331           47.21307           29.89845
        2.748000           49.56674           26.60823           48.07671           29.98241
        2.752000           50.34897           26.61566           48.95673           30.03613
        2.756000           51.14595           26.59462           49.85202           30.05868
        2.760000           51.95655           26.54412           50.76134           30.04909
        2.764000           52.77987           26.46311           51.68359           30.00663
        2.768000           53.61446           26.35071           52.61755           29.93047
        2.772000           54.45923           26.20600           53.56208           29.81996
        2.776000           55.31264           26.02802           54.51584           29.67428
        2.780000           56.17339           25.81594           55.47741           29.49296
        2.784000           57.03991           25.56900           56.44567           29.27541
        2.788000           57.91083           25.28632           57.41988           29.02094
        2.792000           58.78444           24.96726           58.39836           28.72890
        2.796000           59.65903           24.61115           59.38026           28.39854
        2.800000           60.53274           24.21736           60.36425           28.02897
        2.804000           61.40388           23.78540           61.34905           27.61940
        2.808000           62.27041           23.31487           62.33323           27.16868
        2.812000           63.13034           22.80537           63.31537           26.67569
        2.816000           63.98166           22.25666           64.29330           26.13915
        2.820000           64.82211           21.66861           65.26512           25.55811
        2.824000           65.64954           21.04124           66.22824           24.93126
        2.828000           66.46143           20.37474           67.17988           24.25784
        2.832000           67.25571           19.66925           68.11704           23.53678
        2.836000           68.02966           18.92535           69.03609           22.76776
        2.840000           68.78088           18.14365           69.93355           21.95080
        2.844000           69.50676           17.32514           70.80534           21.08609
        2.848000           70.20486           16.47095           71.64729           20.17462
        2.852000           70.87257           15.58268           72.45560           19.21801
        2.856000           71.50745           14.66190           73.22617           18.21804
        2.860000           72.10725           13.71068           73.95496           17.17751
        2.864000           72.66996           12.73141           74.63861           16.09969
        2.868000           73.19372           11.72666           75.27431           14.98827
        2.872000           73.67707           10.69919           75.85923           13.84749
        2.876000           74.11880           9.652026           76.39168           12.68187
        2.880000           74.51826           8.587890           76.87036           11.49584
        2.884000           74.87505           7.509845           77.29516           10.29414
        2.888000           75.18908           6.420737           77.66569           9.081291
        2.892000           75.46085           5.323252           77.98317           7.861556
        2.896000           75.69080           4.219945           78.24873           6.638973
        2.900000           75.87963           3.112783           78.46429           5.416725
        2.904000           76.02840           2.003770           78.63203           4.197872
        2.908000           76.13791           0.894552           78.75392           2.984800
        2.912000           76.20924          -0.213506           78.83266           1.779360
        2.916000           76.24294          -1.319316           78.87024           0.582905
        2.920000           76.24002          -2.421768           78.86886          -0.603559
        2.924000           76.20080          -3.520229           78.83041          -1.779761
        2.928000           76.12570          -4.613815           78.75654          -2.945359
        2.932000           76.01490          -5.701712           78.64841          -4.100359
        2.936000           75.86842          -6.783122           78.50703          -5.244811
        2.940000           75.68621          -7.856845           78.33290          -6.378760
        2.944000           75.46796          -8.921979           78.12646          -7.502448
        2.948000           75.21356          -9.977183           77.88712          -8.615715
        2.952000           74.92281          -11.02090           77.61518          -9.718224
        2.956000           74.59550          -12.05145           77.30984          -10.80949
        2.960000           74.23167          -13.06694           76.97043          -11.88867
        2.964000           73.83140          -14.06531           76.59654          -12.95457
        2.968000           73.39494          -15.04454           76.18742          -14.00587
        2.972000           72.92280          -16.00227           75.74268          -15.04088
        2.976000           72.41568          -16.93607           75.26170          -16.05737
        2.980000           71.87460          -17.84366           74.74456          -17.05313
        2.984000           71.30087          -18.72243           74.19137          -18.02560
        2.988000           70.69598          -19.56996           73.60247          -18.97196
        2.992000           70.06173          -20.38408           72.97882          -19.88956
        2.996000           69.40018          -21.16235           72.32142          -20.77544
        3.000000           68.71385          -21.90264           71.63216          -21.62664
        3.004000           68.00533          -22.60297           70.91281          -22.44035
        3.008000           67.27769          -23.26155           70.16579          -23.21385
        3.012000           66.53413          -23.87689           69.39443          -23.94446
        3.016000           65.77812          -24.44776           68.60128          -24.63013
        3.020000           65.01328          -24.97316           67.79019          -25.26880
        3.024000           64.24377          -25.45277           66.96524          -25.85879
        3.028000           63.47347          -25.88636           66.13050          -26.39892
        3.032000           62.70668          -26.27448           65.29073          -26.88855
        3.036000           61.94733          -26.61810           64.45001          -27.32765
        3.040000           61.19975          -26.91860           63.61362          -27.71655
        3.044000           60.46764          -27.17811           62.78567          -28.05637
        3.048000           59.75467          -27.39910           61.97092          -28.34883
        3.052000           59.06436          -27.58460           61.17395          -28.59624
        3.056000           58.39946          -27.73799           60.39840          -28.80128
        3.060000           57.76242          -27.86302           59.64799          -28.96734
        3.064000           57.15497          -27.96369           58.92566          -29.09793
        3.068000           56.57873          -28.04410           58.23429          -29.19728
        3.072000           56.03435          -28.10851           57.57584          -29.26934
        3.076000           55.52220          -28.16104           56.95188          -29.31875
        3.080000           55.04194          -28.20587           56.36343          -29.34967
        3.084000           54.59293          -28.24695           55.81092          -29.36661
        3.088000           54.17416          -28.28813           55.29456          -29.37409
        3.092000           53.78414          -28.33301           54.81382          -29.37630
        3.096000           53.42104          -28.38496           54.36809          -29.37761
        3.100000           53.08266          -28.44725           53.95613          -29.38221
        3.104000           52.76664          -28.52272           53.57628          -29.39405
        3.108000           52.47012          -28.61411           53.22634          -29.41708
        3.112000           52.19008          -28.72382           52.90385          -29.45514
        3.116000           51.92320          -28.85392           52.60577          -29.51172
        3.120000           51.66576          -29.00616           52.32879          -29.58984
        3.124000           51.41387          -29.18180           52.06898          -29.69264
        3.128000           51.16328          -29.38173           51.82180          -29.82239
        3.132000           50.90966          -29.60616           51.58244          -29.98084
        3.136000           50.64847          -29.85483           51.34578          -30.16928
        3.140000           50.37535          -30.12670           51.10632          -30.38815
        3.144000           50.08583          -30.42013           50.85851          -30.63691
        3.148000           49.77561          -30.73280           50.59665          -30.91449
        3.152000           49.44068          -31.06170           50.31522          -31.21861
        3.156000           49.07776          -31.40313           50.00932          -31.54617
        3.160000           48.68383          -31.75304           49.67410          -31.89330
        3.164000           48.25653          -32.10661           49.30552          -32.25526
        3.168000           47.79441          -32.45895           48.90065          -32.62687
        3.172000           47.29658          -32.80482           48.45685          -33.00226
        3.176000           46.76311          -33.13897           47.97277          -33.37539
        3.180000           46.19478          -33.45603           47.44811          -33.74009
        3.184000           45.59322          -33.75108           46.88353          -34.09010
        3.188000           44.96088          -34.01926           46.28047          -34.41944
        3.192000           44.30057          -34.25631           45.64128          -34.72269
        3.196000           43.61592          -34.45835           44.96938          -34.99475
        3.200000           42.91088          -34.62228           44.26834          -35.23119
        3.204000           42.18989          -34.74543           43.54265          -35.42825
        3.208000           41.45752          -34.82581           42.79705          -35.58263
        3.212000           40.71866          -34.86228           42.03683          -35.69250
        3.216000           39.97785          -34.85415           41.26676          -35.75603
        3.220000           39.23989          -34.80151           40.49223          -35.77256
        3.224000           38.50930          -34.70492           39.71819          -35.74197
        3.228000           37.79036          -34.56554           38.94952          -35.66479
        3.232000           37.08710          -34.38498           38.19085          -35.54230
        3.236000           36.40327          -34.16528           37.44653          -35.37585
        3.240000           35.74205          -33.90867           36.72033          -35.16750
        3.244000           35.10638          -33.61789           36.01578          -34.91982
        3.248000           34.49885          -33.29559           35.33607          -34.63530
        3.252000           33.92160          -32.94486           34.68390          -34.31697
        3.256000           33.37645          -32.56858           34.06153          -33.96737
        3.260000           32.86468          -32.16990           33.47071          -33.58996
        3.264000           32.38747          -31.75188           32.91317          -33.18760
        3.268000           31.94564          -31.31746           32.38992          -32.76344
        3.272000           31.53960          -30.86977           31.90201          -32.32053
        3.276000           31.16960          -30.41162           31.44977          -31.86180
        3.280000           30.83561          -29.94595           31.03366          -31.39030
        3.284000           30.53743          -29.47530           30.65373          -30.90847
        3.288000           30.27460          -29.00244           30.30984          -30.41916
        3.292000           30.04653          -28.52975           30.00160          -29.92504
        3.296000           29.85238          -28.05965           29.72865          -29.42845
        3.300000           29.69122          -27.59435           29.49034          -28.93169
        3.304000           29.56203          -27.13590           29.28581          -28.43687
        3.308000           29.46356          -26.68625           29.11412          -27.94611
        3.312000           29.39448          -26.24715           28.97438          -27.46115
        3.316000           29.35344          -25.82023           28.86543          -26.98391
        3.320000           29.33896          -25.40691           28.78605          -26.51606
        3.324000           29.34949          -25.00854           28.73514          -26.05881
        3.328000           29.38349          -24.62607           28.71124          -25.61348
        3.332000           29.43941          -24.26050           28.71323          -25.18129
        3.336000           29.51578          -23.91253           28.73972          -24.76315
        3.340000           29.61106          -23.58277           28.78946          -24.35994
        3.344000           29.72386          -23.27172           28.86135          -23.97229
        3.348000           29.85287          -22.97977           28.95411          -23.60092
        3.352000           29.99693          -22.70718           29.06706          -23.24628
        3.356000           30.15491          -22.45412           29.19898          -22.90879
        3.360000           30.32575          -22.22096           29.34919          -22.58913
        3.364000           30.50857          -22.00794           29.51702          -22.28759
        3.368000           30.70254          -21.81529           29.70192          -22.00496
        3.372000           30.90680          -21.64349           29.90319          -21.74175
        3.376000           31.12055          -21.49299           30.12041          -21.49890
        3.380000           31.34299          -21.36438           30.35284          -21.27742
        3.384000           31.57306          -21.25833           30.60004          -21.07825
        3.388000           31.80976          -21.17554           30.86128          -20.90281
        3.392000           32.05185          -21.11680           31.13539          -20.75250
        3.396000           32.29800          -21.08284           31.42139          -20.62875
        3.400000           32.54659          -21.07444           31.71777          -20.53312
        3.404000           32.79578          -21.09219           32.02256          -20.46720
        3.408000           33.04365          -21.13652           32.33404          -20.43239
        3.412000           33.28804          -21.20782           32.64935          -20.43003
        3.416000           33.52662          -21.30611           32.96605          -20.46119
        3.420000           33.75703          -21.43121           33.28092          -20.52662
        3.424000           33.97677          -21.58267           33.59064          -20.62677
        3.428000           34.18340          -21.75965           33.89191          -20.76152
        3.432000           34.37438          -21.96111           34.18092          -20.93036
        3.436000           34.54737          -22.18556           34.45422          -21.13236
        3.440000           34.70013          -22.43138           34.70835          -21.36597
        3.444000           34.83055          -22.69652           34.93997          -21.62918
        3.448000           34.93680          -22.97865           35.14592          -21.91956
        3.452000           35.01724          -23.27535           35.32338          -22.23418
        3.456000           35.07053          -23.58390           35.47005          -22.56988
        3.460000           35.09572          -23.90140           35.58398          -22.92322
        3.464000           35.09207          -24.22489           35.66367          -23.29033
        3.468000           35.05926          -24.55133           35.70788          -23.66753
        3.472000           34.99728          -24.87760           35.71634          -24.05085
        3.476000           34.90655          -25.20069           35.68882          -24.43631
        3.480000           34.78770          -25.51750           35.62570          -24.82011
        3.484000           34.64182          -25.82515           35.52770          -25.19836
        3.488000           34.47028          -26.12087           35.39613          -25.56766
        3.492000           34.27470          -26.40205           35.23257          -25.92433
        3.496000           34.05707          -26.66630           35.03884          -26.26538
        3.500000           33.81956          -26.91137           34.81728          -26.58774
        3.504000           33.56464          -27.13540           34.57036          -26.88880
        3.508000           33.29485          -27.33673           34.30098          -27.16630
        3.512000           33.01304          -27.51399           34.01193          -27.41800
        3.516000           32.72208          -27.66622           33.70655          -27.64231
        3.520000           32.42506          -27.79260           33.38800          -27.83791
        3.524000           32.12501          -27.89282           33.05980          -28.00359
        3.528000           31.82519          -27.96688           32.72538          -28.13888
        3.532000           31.52866          -28.01505           32.38851          -28.24362
        3.536000           31.23849          -28.03813           32.05260          -28.31759
        3.540000           30.95772          -28.03711           31.72129          -28.36164
        3.544000           30.68928          -28.01337           31.39815          -28.37650
        3.548000           30.43587          -27.96875           31.08649          -28.36354
        3.552000           30.19999          -27.90520           30.78962          -28.32445
        3.556000           29.98397          -27.82519           30.51066          -28.26126
        3.560000           29.78969          -27.73120           30.25236          -28.17625
        3.564000           29.61896          -27.62615           30.01734          -28.07235
        3.568000           29.47311          -27.51308           29.80777          -27.95243
        3.572000           29.35324          -27.39521           29.62569          -27.81991
        3.576000           29.25989          -27.27586           29.47267          -27.67810
        3.580000           29.19340          -27.15842           29.34976          -27.53082
        3.584000           29.15372          -27.04648           29.25778          -27.38188
        3.588000           29.14027          -26.94353           29.19715          -27.23529
        3.592000           29.15222          -26.85301           29.16759          -27.09499
        3.596000           29.18820          -26.77845           29.16870          -26.96511
        3.600000           29.24642          -26.72320           29.19928          -26.84976
        3.604000           29.32472          -26.69037           29.25790          -26.75292
        3.608000           29.42045          -26.68317           29.34249          -26.67847
        3.612000           29.53046          -26.70414           29.45045          -26.63028
        3.616000           29.65129          -26.75572           29.57857          -26.61184
        3.620000           29.77900          -26.83995           29.72340          -26.62635
        3.624000           29.90940          -26.95826           29.88063          -26.67651
        3.628000           30.03790          -27.11155           30.04570          -26.76465
        3.632000           30.15977          -27.30019           30.21357          -26.89258
        3.636000           30.27015          -27.52372           30.37880          -27.06131
        3.640000           30.36410          -27.78103           30.53581          -27.27096
        3.644000           30.43695          -28.07029           30.67868          -27.52103
        3.648000           30.48420          -28.38891           30.80175          -27.81003
        3.652000           30.50172          -28.73363           30.89931          -28.13554
        3.656000           30.48587          -29.10052           30.96608          -28.49415
        3.660000           30.43373          -29.48522           30.99748          -28.88183
        3.664000           30.34304          -29.88276           30.98933          -29.29353
        3.668000           30.21225          -30.28817           30.93832          -29.72399
        3.672000           30.04071          -30.69605           30.84236          -30.16692
        3.676000           29.82861          -31.10128           30.70003          -30.61631
        3.680000           29.57685          -31.49870           30.51116          -31.06567
        3.684000           29.28716          -31.88352           30.27649          -31.50893
        3.688000           28.96184          -32.25155           29.99785          -31.94019
        3.692000           28.60377          -32.59880           29.67759          -32.35416
        3.696000           28.21624          -32.92217           29.31948          -32.74625
        3.700000           27.80281          -33.21901           28.92692          -33.11230
        3.704000           27.36727          -33.48744           28.50457          -33.44930
        3.708000           26.91338          -33.72602           28.05655          -33.75489
        3.712000           26.44484          -33.93413           27.58772          -34.02746
        3.716000           25.96518          -34.11142           27.10210          -34.26630
        3.720000           25.47772          -34.25821           26.60416          -34.47118
        3.724000           24.98549          -34.37497           26.09772          -34.64262
        3.728000           24.49133          -34.46253           25.58635          -34.78123
        3.732000           23.99754          -34.52205           25.07309          -34.88834
        3.736000           23.50628          -34.55458           24.56070          -34.96524
        3.740000           23.01944          -34.56147           24.05137          -35.01355
        3.744000           22.53861          -34.54396           23.54731          -35.03493
        3.748000           22.06529          -34.50332           23.04987          -35.03083
        3.752000           21.60075          -34.44087           22.56072          -35.00299
        3.756000           21.14599          -34.35778           22.08079          -34.95287
        3.760000           20.70210          -34.25539           21.61115          -34.88198
        3.764000           20.27001          -34.13481           21.15273          -34.79153
        3.768000           19.85052          -33.99739           20.70616          -34.68292
        3.772000           19.44443          -33.84428           20.27231          -34.55757
        3.776000           19.05245          -33.67675           19.85174          -34.41658
        3.780000           18.67516          -33.49607           19.44489          -34.26115
        3.784000           18.31312          -33.30351           19.05246          -34.09273
        3.788000           17.96678          -33.10058           18.67480          -33.91218
        3.792000           17.63648          -32.88845           18.31235          -33.72118
        3.796000           17.32250          -32.66860           17.96545          -33.52103
        3.800000           17.02489          -32.44236           17.63428          -33.31295
        3.804000           16.74369          -32.21128           17.31886          -33.09822
        3.808000           16.47878          -31.97664           17.01923          -32.87851
        3.812000           16.22991          -31.73987           16.73526          -32.65491
        3.816000           15.99671          -31.50227           16.46663          -32.42892
        3.820000           15.77865          -31.26518           16.21301          -32.20182
        3.824000           15.57509          -31.02980           15.97368          -31.97482
        3.828000           15.38525          -30.79733           15.74803          -31.74927
        3.832000           15.20825          -30.56877           15.53520          -31.52616
        3.836000           15.04307          -30.34514           15.33424          -31.30645
        3.840000           14.88864          -30.12719           15.14411          -31.09115
        3.844000           14.74373          -29.91567           14.96358          -30.88089
        3.848000           14.60707          -29.71101           14.79143          -30.67613
        3.852000           14.47733          -29.51360           14.62633          -30.47727
        3.856000           14.35316          -29.32352           14.46694          -30.28449
        3.860000           14.23325          -29.14073           14.31193          -30.09764
        3.864000           14.11627          -28.96500           14.16000          -29.91662
        3.868000           14.00103          -28.79576           14.00999          -29.74081
        3.872000           13.88641          -28.63249           13.86076          -29.56957
        3.876000           13.77142          -28.47434           13.71138          -29.40200
        3.880000           13.65531          -28.32038           13.56111          -29.23728
        3.884000           13.53744          -28.16956           13.40941          -29.07424
        3.888000           13.41742          -28.02090           13.25589          -28.91179
        3.892000           13.29504          -27.87316           13.10043          -28.74884
        3.896000           13.17031          -27.72536           12.94313          -28.58408
        3.900000           13.04340          -27.57648           12.78429          -28.41668
        3.904000           12.91464          -27.42555           12.62436          -28.24555
        3.908000           12.78451          -27.27187           12.46402          -28.06998
        3.912000           12.65357          -27.11459           12.30389          -27.88916
        3.916000           12.52248          -26.95325           12.14480          -27.70265
        3.920000           12.39191          -26.78741           11.98768          -27.51009
        3.924000           12.26256          -26.61675           11.83326          -27.31128
        3.928000           12.13511          -26.44111           11.68249          -27.10612
        3.932000           12.01027          -26.26029           11.53618          -26.89459
        3.936000           11.88865          -26.07440           11.39508          -26.67696
        3.940000           11.77086          -25.88342           11.25991          -26.45337
        3.944000           11.65751          -25.68745           11.13131          -26.22435
        3.948000           11.54914          -25.48664           11.00985          -25.99006
        3.952000           11.44625          -25.28116           10.89608          -25.75099
        3.956000           11.34935          -25.07129           10.79038          -25.50770
        3.960000           11.25888          -24.85720           10.69315          -25.26043
        3.964000           11.17532          -24.63917           10.60474          -25.00986
        3.968000           11.09908          -24.41750           10.52538          -24.75624
        3.972000           11.03058          -24.19250           10.45534          -24.50026
        3.976000           10.97021          -23.96452           10.39481          -24.24222
        3.980000           10.91835          -23.73391           10.34400          -23.98262
        3.984000           10.87537          -23.50106           10.30295          -23.72187
        3.988000           10.84161          -23.26646           10.27190          -23.46037
        3.992000           10.81739          -23.03049           10.25095          -23.19859
        3.996000           10.80300          -22.79370           10.24021          -22.93699
        4.000000           10.79873          -22.55658           10.23978          -22.67575
# 
# 11/06/2023 at 18:19 yambo @ unimi-XPS-8930 [start]
# 11/06/2023 at 18:19                        [end]
#  
# Timing   [Min/Max/Average]: 11s/11s/11s
#
# .-Input file  yambo.in_generated
# | optics                           # [R] Linear Response optical properties
# | bss                              # [R] BSE solver
# | bse                              # [R][BSE] Bethe Salpeter Equation.
# | tddft                            # [R][K] Use TDDFT kernel
# | ElecTemp= 0.025861         eV    # Electronic Temperature
# | BoseTemp= 0.025861         eV    # Bosonic Temperature
# | FFTGvecs=  603             RL    # [FFT] Plane-waves
# | BS_nCPU_LinAlg_INV= 1            # [PARALLEL] CPUs for Linear Algebra (if -1 it is automatically set)
# | BS_nCPU_LinAlg_DIAGO= 1          # [PARALLEL] CPUs for Linear Algebra (if -1 it is automatically set)
# | X_Threads= 1                     # [OPENMP/X] Number of threads for response functions
# | DIP_Threads= 1                   # [OPENMP/X] Number of threads for dipoles
# | K_Threads= 1                     # [OPENMP/BSK] Number of threads for response functions
# | BSKmod= "ALDA"                   # [BSE] IP/Hartree/HF/ALDA/SEX/BSfxc
# | BSEmod= "resonant"               # [BSE] resonant/retarded/coupling
# | BSSmod= "d"                      # [BSS] (h)aydock/(d)iagonalization/(s)lepc/(i)nversion/(t)ddft`
# | DipComputed= "R V P"             # [DIP] [default R P V; extra P2 Spin Orb]
# | BSENGexx= 1157             RL    # [BSK] Exchange components
# | BSENGfxc= 1157             RL    # [BSK] Fxc components
# | % BSEQptR
# |  1 | 2 |                             # [BSK] Transferred momenta range
# | %
# | % BSEBands
# |   2 |  6 |                           # [BSK] Bands range
# | %
# | % BEnRange
# | -2.000000 | 4.000000 |         eV    # [BSS] Energy range
# | %
# | % BDmRange
# |  0.100000 | 0.100000 |         eV    # [BSS] Damping range
# | %
# | BEnSteps= 1501                   # [BSS] Energy steps
# | % BLongDir
# |  0.000000 | 1.000000 | 0.000000 |        # [BSS] [cc] Electric Field versor
# | %
# | BSEprop= " abs jdos"             # [BSS] Can be any among abs/jdos/kerr/asymm/anHAll/magn/dich/photolum/esrt
# | BSEdips= "none"                  # [BSS] Can be "trace/none" or "xy/xz/yz" to define off-diagonal rotation plane
# | #WRbsWF                        # [BSS] Write to disk excitonic the WFs
