#                                                                     
#   __   __     _        __  __       ____      U  ___  u             
#   \ \ / / U  /"\  U u |" \/ "| u U | __") u    \/"_ \/              
#    \ V /   \/ _ \/   \| |\/| |/   \|  _ \/     | | | |              
#   U_|"|_u  / ___ \    | |  | |     | |_) | .-,_| |_| |              
#     |_|   /_/   \_\   |_|  |_|     |____/   \_)-\___/               
# .-,//|(_   \\    >>  <<,-,,-.     _|| \\_        \\                 
#  \_) (__) (__)  (__)  (./  \.)   (__) (__)      (__)                
#                                                                     
#                                                                     
# Version 5.2.0 Revision 22885 Hash (prev commit) 41fc9d87d4          
#                Branch is phys-dichroism                             
#         MPI+OpenMP+SLK+SLEPC+HDF5_MPI_IO Build                      
#                http://www.yambo-code.org                            
#
# Joint Density of states @ Q(2):   0.00000000      0.00000000    -0.500000000    [iku]
#
# [GEN] GF Energies                               : Perdew, Burke & Ernzerhof(X)+Perdew, Burke & Ernzerhof(C)
# [GEN] Green`s Function                          : Resonant
#
# DIP band range                                  :   2   6
# DIP band range limits                           :   6   2
# DIP e/h energy range                            :  -1.00000000     -1.00000000    [eV]
# RL vectors in the sum                           :   603
# [r,Vnl] included                                : yes
# Bands ordered                                   : no
# Direct v evaluation                             : no
# Approach used                                   : G-space v
# Dipoles computed                                : R V P Spin
# Wavefunctions                                   : Perdew, Burke & Ernzerhof(X)+Perdew, Burke & Ernzerhof(C)
#
#
# [K] Identifier                                  :  2204
# [K] Q-point                                     :   0.00000000      0.00000000    -0.500000000   
# [K] Dimension                                   :   885
# [K] Bands                                       :   2   6
# [K] Exchange res                                : yes
# [K] Correlation res                             : no
# [K] Kernel`s coupling                           : no
# [K] Exchange cpl                                : no
# [K] Correlation cpl                             : no
# [K] W interaction is bare                       : no
# [K] ALDA kernel in R-space                      : yes
# [K] RL vectors exchange                         :  1157
# [K] E/h energy range                            :  -1.00000000     -1.00000000    [eV]
# [K] Coupling range                              :   100.000000      100.000000    [o/o]
# [X] Response Kind                               : BAR
#
#
#    E[1] [eV]          Im(jdos)           Re(jdos)           Im(jdos_o)         Re(jdos_o)
#
       -2.000000           0.216281           10.74124           0.213232           10.68382
       -1.996000           0.216673           10.74988           0.213614           10.69234
       -1.992000           0.217067           10.75856           0.213996           10.70088
       -1.988000           0.217462           10.76724           0.214380           10.70943
       -1.984000           0.217858           10.77592           0.214765           10.71800
       -1.980000           0.218255           10.78464           0.215151           10.72663
       -1.976000           0.218654           10.79337           0.215538           10.73521
       -1.972000           0.219054           10.80211           0.215927           10.74381
       -1.968000           0.219454           10.81087           0.216316           10.75245
       -1.964000           0.219857           10.81965           0.216707           10.76109
       -1.960000           0.220260           10.82844           0.217099           10.76976
       -1.956000           0.220665           10.83725           0.217493           10.77847
       -1.952000           0.221071           10.84607           0.217887           10.78716
       -1.948000           0.221479           10.85491           0.218282           10.79587
       -1.944000           0.221887           10.86377           0.218679           10.80459
       -1.940000           0.222297           10.87263           0.219077           10.81333
       -1.936000           0.222708           10.88153           0.219477           10.82210
       -1.932000           0.223121           10.89044           0.219877           10.83088
       -1.928000           0.223535           10.89935           0.220279           10.83967
       -1.924000           0.223950           10.90830           0.220683           10.84847
       -1.920000           0.224367           10.91725           0.221087           10.85731
       -1.916000           0.224785           10.92622           0.221493           10.86614
       -1.912000           0.225204           10.93522           0.221900           10.87500
       -1.908000           0.225624           10.94421           0.222308           10.88388
       -1.904000           0.226046           10.95324           0.222717           10.89275
       -1.900000           0.226469           10.96228           0.223129           10.90167
       -1.896000           0.226894           10.97134           0.223540           10.91058
       -1.892000           0.227320           10.98040           0.223954           10.91952
       -1.888000           0.227748           10.98950           0.224369           10.92846
       -1.884000           0.228176           10.99860           0.224785           10.93745
       -1.880000           0.228607           11.00772           0.225201           10.94643
       -1.876000           0.229038           11.01687           0.225621           10.95547
       -1.872000           0.229471           11.02603           0.226041           10.96449
       -1.868000           0.229906           11.03520           0.226462           10.97352
       -1.864000           0.230341           11.04441           0.226884           10.98256
       -1.860000           0.230779           11.05360           0.227309           10.99161
       -1.856000           0.231217           11.06284           0.227735           11.00075
       -1.852000           0.231658           11.07207           0.228161           11.00985
       -1.848000           0.232099           11.08135           0.228589           11.01897
       -1.844000           0.232543           11.09063           0.229019           11.02810
       -1.840000           0.232987           11.09993           0.229450           11.03726
       -1.836000           0.233433           11.10924           0.229882           11.04642
       -1.832000           0.233881           11.11856           0.230316           11.05563
       -1.828000           0.234330           11.12792           0.230751           11.06485
       -1.824000           0.234780           11.13728           0.231188           11.07408
       -1.820000           0.235232           11.14668           0.231626           11.08329
       -1.816000           0.235686           11.15610           0.232065           11.09258
       -1.812000           0.236141           11.16551           0.232506           11.10186
       -1.808000           0.236597           11.17495           0.232948           11.11114
       -1.804000           0.237056           11.18441           0.233392           11.12047
       -1.800000           0.237515           11.19388           0.233838           11.12978
       -1.796000           0.237976           11.20339           0.234284           11.13913
       -1.792000           0.238439           11.21291           0.234732           11.14850
       -1.788000           0.238904           11.22244           0.235181           11.15789
       -1.784000           0.239369           11.23198           0.235633           11.16731
       -1.780000           0.239837           11.24156           0.236087           11.17672
       -1.776000           0.240306           11.25115           0.236540           11.18618
       -1.772000           0.240777           11.26077           0.236996           11.19562
       -1.768000           0.241249           11.27038           0.237453           11.20508
       -1.764000           0.241723           11.28002           0.237912           11.21460
       -1.760000           0.242199           11.28970           0.238372           11.22408
       -1.756000           0.242676           11.29938           0.238835           11.23365
       -1.752000           0.243155           11.30908           0.239298           11.24317
       -1.748000           0.243635           11.31880           0.239763           11.25276
       -1.744000           0.244118           11.32854           0.240230           11.26234
       -1.740000           0.244602           11.33830           0.240698           11.27195
       -1.736000           0.245088           11.34809           0.241167           11.28158
       -1.732000           0.245575           11.35788           0.241638           11.29121
       -1.728000           0.246063           11.36770           0.242111           11.30085
       -1.724000           0.246554           11.37754           0.242586           11.31053
       -1.720000           0.247046           11.38741           0.243062           11.32024
       -1.716000           0.247541           11.39727           0.243539           11.32998
       -1.712000           0.248037           11.40717           0.244019           11.33971
       -1.708000           0.248535           11.41708           0.244500           11.34948
       -1.704000           0.249034           11.42702           0.244983           11.35924
       -1.700000           0.249535           11.43699           0.245467           11.36906
       -1.696000           0.250038           11.44696           0.245953           11.37888
       -1.692000           0.250543           11.45696           0.246441           11.38867
       -1.688000           0.251049           11.46696           0.246931           11.39857
       -1.684000           0.251558           11.47701           0.247422           11.40843
       -1.680000           0.252068           11.48707           0.247915           11.41833
       -1.676000           0.252580           11.49713           0.248409           11.42823
       -1.672000           0.253094           11.50724           0.248905           11.43813
       -1.668000           0.253610           11.51735           0.249403           11.44808
       -1.664000           0.254127           11.52750           0.249904           11.45806
       -1.660000           0.254646           11.53765           0.250405           11.46807
       -1.656000           0.255168           11.54783           0.250908           11.47807
       -1.652000           0.255691           11.55804           0.251413           11.48808
       -1.648000           0.256216           11.56827           0.251920           11.49815
       -1.644000           0.256743           11.57850           0.252428           11.50825
       -1.640000           0.257272           11.58877           0.252939           11.51831
       -1.636000           0.257803           11.59906           0.253452           11.52843
       -1.632000           0.258336           11.60935           0.253965           11.53854
       -1.628000           0.258871           11.61970           0.254482           11.54871
       -1.624000           0.259408           11.63003           0.255000           11.55889
       -1.620000           0.259947           11.64041           0.255519           11.56908
       -1.616000           0.260487           11.65080           0.256041           11.57929
       -1.612000           0.261030           11.66120           0.256564           11.58956
       -1.608000           0.261575           11.67166           0.257090           11.59981
       -1.604000           0.262122           11.68210           0.257617           11.61007
       -1.600000           0.262671           11.69260           0.258146           11.62038
       -1.596000           0.263222           11.70307           0.258677           11.63070
       -1.592000           0.263775           11.71361           0.259210           11.64104
       -1.588000           0.264330           11.72414           0.259745           11.65142
       -1.584000           0.264887           11.73472           0.260281           11.66181
       -1.580000           0.265447           11.74531           0.260820           11.67217
       -1.576000           0.266008           11.75592           0.261361           11.68264
       -1.572000           0.266572           11.76655           0.261904           11.69307
       -1.568000           0.267137           11.77722           0.262448           11.70354
       -1.564000           0.267705           11.78789           0.262996           11.71403
       -1.560000           0.268275           11.79859           0.263545           11.72458
       -1.556000           0.268847           11.80931           0.264095           11.73508
       -1.552000           0.269422           11.82006           0.264649           11.74566
       -1.548000           0.269998           11.83084           0.265204           11.75623
       -1.544000           0.270578           11.84163           0.265761           11.76680
       -1.540000           0.271159           11.85244           0.266320           11.77746
       -1.536000           0.271742           11.86328           0.266881           11.78807
       -1.532000           0.272327           11.87414           0.267444           11.79876
       -1.528000           0.272915           11.88503           0.268011           11.80943
       -1.524000           0.273506           11.89594           0.268577           11.82016
       -1.520000           0.274098           11.90688           0.269147           11.83093
       -1.516000           0.274693           11.91782           0.269720           11.84165
       -1.512000           0.275290           11.92882           0.270293           11.85246
       -1.508000           0.275890           11.93981           0.270870           11.86325
       -1.504000           0.276492           11.95084           0.271449           11.87407
       -1.500000           0.277096           11.96189           0.272029           11.88492
       -1.496000           0.277702           11.97296           0.272613           11.89579
       -1.492000           0.278312           11.98406           0.273198           11.90670
       -1.488000           0.278923           11.99519           0.273785           11.91761
       -1.484000           0.279537           12.00635           0.274375           11.92857
       -1.480000           0.280154           12.01752           0.274967           11.93955
       -1.476000           0.280772           12.02871           0.275561           11.95052
       -1.472000           0.281394           12.03993           0.276158           11.96151
       -1.468000           0.282018           12.05118           0.276757           11.97256
       -1.464000           0.282644           12.06245           0.277358           11.98362
       -1.460000           0.283273           12.07374           0.277962           11.99472
       -1.456000           0.283905           12.08507           0.278568           12.00586
       -1.452000           0.284539           12.09641           0.279176           12.01697
       -1.448000           0.285176           12.10779           0.279787           12.02815
       -1.444000           0.285815           12.11918           0.280400           12.03930
       -1.440000           0.286457           12.13061           0.281016           12.05054
       -1.436000           0.287101           12.14206           0.281633           12.06175
       -1.432000           0.287749           12.15353           0.282255           12.07299
       -1.428000           0.288399           12.16502           0.282877           12.08428
       -1.424000           0.289051           12.17656           0.283503           12.09558
       -1.420000           0.289707           12.18811           0.284131           12.10694
       -1.416000           0.290365           12.19969           0.284762           12.11827
       -1.412000           0.291025           12.21130           0.285395           12.12967
       -1.408000           0.291689           12.22294           0.286030           12.14110
       -1.404000           0.292356           12.23458           0.286668           12.15251
       -1.400000           0.293025           12.24627           0.287310           12.16397
       -1.396000           0.293697           12.25798           0.287953           12.17542
       -1.392000           0.294372           12.26971           0.288599           12.18694
       -1.388000           0.295050           12.28148           0.289248           12.19849
       -1.384000           0.295731           12.29326           0.289899           12.21006
       -1.380000           0.296414           12.30509           0.290553           12.22165
       -1.376000           0.297101           12.31693           0.291210           12.23328
       -1.372000           0.297790           12.32882           0.291869           12.24489
       -1.368000           0.298483           12.34071           0.292532           12.25657
       -1.364000           0.299178           12.35264           0.293197           12.26824
       -1.360000           0.299877           12.36461           0.293864           12.27995
       -1.356000           0.300578           12.37658           0.294535           12.29171
       -1.352000           0.301282           12.38859           0.295208           12.30348
       -1.348000           0.301990           12.40063           0.295884           12.31525
       -1.344000           0.302701           12.41270           0.296563           12.32711
       -1.340000           0.303415           12.42480           0.297244           12.33896
       -1.336000           0.304132           12.43692           0.297930           12.35084
       -1.332000           0.304852           12.44907           0.298617           12.36273
       -1.328000           0.305575           12.46125           0.299308           12.37465
       -1.324000           0.306302           12.47347           0.300001           12.38666
       -1.320000           0.307032           12.48569           0.300698           12.39863
       -1.316000           0.307765           12.49797           0.301397           12.41065
       -1.312000           0.308501           12.51028           0.302100           12.42268
       -1.308000           0.309241           12.52259           0.302805           12.43475
       -1.304000           0.309984           12.53495           0.303513           12.44685
       -1.300000           0.310730           12.54734           0.304225           12.45899
       -1.296000           0.311480           12.55975           0.304941           12.47117
       -1.292000           0.312233           12.57220           0.305658           12.48334
       -1.288000           0.312990           12.58468           0.306379           12.49554
       -1.284000           0.313750           12.59718           0.307102           12.50777
       -1.280000           0.314514           12.60970           0.307830           12.52005
       -1.276000           0.315281           12.62228           0.308561           12.53236
       -1.272000           0.316051           12.63488           0.309294           12.54469
       -1.268000           0.316825           12.64750           0.310031           12.55706
       -1.264000           0.317603           12.66016           0.310772           12.56943
       -1.260000           0.318385           12.67285           0.311515           12.58184
       -1.256000           0.319170           12.68557           0.312262           12.59430
       -1.252000           0.319958           12.69833           0.313013           12.60679
       -1.248000           0.320751           12.71111           0.313766           12.61931
       -1.244000           0.321547           12.72392           0.314522           12.63184
       -1.240000           0.322347           12.73678           0.315284           12.64438
       -1.236000           0.323151           12.74965           0.316047           12.65697
       -1.232000           0.323959           12.76256           0.316814           12.66962
       -1.228000           0.324770           12.77550           0.317585           12.68230
       -1.224000           0.325586           12.78847           0.318359           12.69499
       -1.220000           0.326405           12.80148           0.319136           12.70768
       -1.216000           0.327228           12.81451           0.319919           12.72046
       -1.212000           0.328056           12.82760           0.320703           12.73322
       -1.208000           0.328886           12.84069           0.321492           12.74602
       -1.204000           0.329722           12.85383           0.322284           12.75887
       -1.200000           0.330561           12.86701           0.323080           12.77179
       -1.196000           0.331405           12.88021           0.323880           12.78465
       -1.192000           0.332253           12.89346           0.324683           12.79761
       -1.188000           0.333104           12.90671           0.325491           12.81057
       -1.184000           0.333960           12.92003           0.326302           12.82358
       -1.180000           0.334821           12.93338           0.327116           12.83662
       -1.176000           0.335686           12.94673           0.327935           12.84969
       -1.172000           0.336555           12.96016           0.328759           12.86282
       -1.168000           0.337428           12.97360           0.329585           12.87593
       -1.164000           0.338306           12.98707           0.330415           12.88909
       -1.160000           0.339188           13.00059           0.331249           12.90230
       -1.156000           0.340074           13.01412           0.332089           12.91552
       -1.152000           0.340966           13.02772           0.332931           12.92879
       -1.148000           0.341861           13.04132           0.333776           12.94209
       -1.144000           0.342762           13.05500           0.334627           12.95545
       -1.140000           0.343667           13.06868           0.335483           12.96883
       -1.136000           0.344576           13.08241           0.336342           12.98216
       -1.132000           0.345490           13.09618           0.337205           12.99566
       -1.128000           0.346409           13.10996           0.338073           13.00910
       -1.124000           0.347333           13.12379           0.338944           13.02260
       -1.120000           0.348262           13.13767           0.339820           13.03616
       -1.116000           0.349196           13.15157           0.340701           13.04974
       -1.112000           0.350134           13.16551           0.341586           13.06334
       -1.108000           0.351077           13.17949           0.342476           13.07698
       -1.104000           0.352026           13.19351           0.343369           13.09064
       -1.100000           0.352980           13.20757           0.344268           13.10438
       -1.096000           0.353938           13.22168           0.345170           13.11811
       -1.092000           0.354902           13.23580           0.346076           13.13190
       -1.088000           0.355871           13.24998           0.346989           13.14571
       -1.084000           0.356845           13.26419           0.347906           13.15957
       -1.080000           0.357825           13.27844           0.348828           13.17345
       -1.076000           0.358810           13.29273           0.349754           13.18741
       -1.072000           0.359800           13.30704           0.350684           13.20138
       -1.068000           0.360796           13.32141           0.351620           13.21537
       -1.064000           0.361798           13.33583           0.352560           13.22940
       -1.060000           0.362804           13.35029           0.353506           13.24351
       -1.056000           0.363817           13.36476           0.354457           13.25761
       -1.052000           0.364835           13.37928           0.355412           13.27177
       -1.048000           0.365858           13.39385           0.356372           13.28599
       -1.044000           0.366887           13.40846           0.357337           13.30016
       -1.040000           0.367924           13.42311           0.358308           13.31447
       -1.036000           0.368965           13.43779           0.359283           13.32879
       -1.032000           0.370012           13.45252           0.360264           13.34313
       -1.028000           0.371065           13.46728           0.361250           13.35751
       -1.024000           0.372125           13.48208           0.362242           13.37195
       -1.020000           0.373190           13.49695           0.363240           13.38639
       -1.016000           0.374261           13.51185           0.364242           13.40089
       -1.012000           0.375338           13.52679           0.365249           13.41547
       -1.008000           0.376423           13.54177           0.366263           13.43005
       -1.004000           0.377513           13.55680           0.367281           13.44465
       -1.000000           0.378610           13.57186           0.368305           13.45932
       -0.996000           0.379713           13.58698           0.369336           13.47401
       -0.992000           0.380823           13.60213           0.370372           13.48877
       -0.988000           0.381940           13.61734           0.371413           13.50353
       -0.984000           0.383063           13.63258           0.372461           13.51837
       -0.980000           0.384193           13.64787           0.373514           13.53324
       -0.976000           0.385330           13.66319           0.374573           13.54817
       -0.972000           0.386473           13.67860           0.375637           13.56315
       -0.968000           0.387624           13.69399           0.376709           13.57812
       -0.964000           0.388781           13.70949           0.377786           13.59313
       -0.960000           0.389946           13.72497           0.378870           13.60823
       -0.956000           0.391118           13.74056           0.379959           13.62337
       -0.952000           0.392297           13.75615           0.381055           13.63854
       -0.948000           0.393484           13.77180           0.382158           13.65376
       -0.944000           0.394678           13.78750           0.383265           13.66901
       -0.940000           0.395880           13.80326           0.384381           13.68426
       -0.936000           0.397088           13.81904           0.385504           13.69964
       -0.932000           0.398305           13.83491           0.386631           13.71500
       -0.928000           0.399530           13.85079           0.387766           13.73046
       -0.924000           0.400763           13.86672           0.388908           13.74590
       -0.920000           0.402003           13.88271           0.390056           13.76146
       -0.916000           0.403252           13.89875           0.391212           13.77704
       -0.912000           0.404508           13.91485           0.392374           13.79266
       -0.908000           0.405772           13.93098           0.393543           13.80829
       -0.904000           0.407045           13.94715           0.394720           13.82399
       -0.900000           0.408327           13.96339           0.395903           13.83976
       -0.896000           0.409616           13.97967           0.397094           13.85556
       -0.892000           0.410915           13.99602           0.398293           13.87141
       -0.888000           0.412222           14.01242           0.399497           13.88732
       -0.884000           0.413538           14.02884           0.400710           13.90324
       -0.880000           0.414863           14.04534           0.401930           13.91922
       -0.876000           0.416197           14.06189           0.403158           13.93530
       -0.872000           0.417540           14.07850           0.404394           13.95134
       -0.868000           0.418892           14.09514           0.405638           13.96746
       -0.864000           0.420253           14.11184           0.406888           13.98367
       -0.860000           0.421625           14.12860           0.408148           13.99990
       -0.856000           0.423005           14.14541           0.409416           14.01616
       -0.852000           0.424395           14.16227           0.410691           14.03250
       -0.848000           0.425795           14.17920           0.411974           14.04892
       -0.844000           0.427205           14.19617           0.413266           14.06529
       -0.840000           0.428625           14.21322           0.414566           14.08183
       -0.836000           0.430055           14.23029           0.415875           14.09835
       -0.832000           0.431495           14.24744           0.417193           14.11496
       -0.828000           0.432946           14.26464           0.418519           14.13161
       -0.824000           0.434407           14.28188           0.419854           14.14826
       -0.820000           0.435879           14.29921           0.421199           14.16505
       -0.816000           0.437362           14.31658           0.422551           14.18183
       -0.812000           0.438855           14.33400           0.423911           14.19871
       -0.808000           0.440360           14.35149           0.425283           14.21558
       -0.804000           0.441876           14.36905           0.426663           14.23256
       -0.800000           0.443404           14.38666           0.428052           14.24954
       -0.796000           0.444943           14.40435           0.429452           14.26663
       -0.792000           0.446493           14.42207           0.430861           14.28376
       -0.788000           0.448056           14.43985           0.432278           14.30093
       -0.784000           0.449630           14.45770           0.433709           14.31816
       -0.780000           0.451217           14.47561           0.435145           14.33550
       -0.776000           0.452816           14.49359           0.436594           14.35284
       -0.772000           0.454427           14.51164           0.438052           14.37023
       -0.768000           0.456051           14.52973           0.439521           14.38768
       -0.764000           0.457689           14.54790           0.441001           14.40523
       -0.760000           0.459339           14.56614           0.442490           14.42279
       -0.756000           0.461002           14.58444           0.443992           14.44048
       -0.752000           0.462679           14.60279           0.445502           14.45813
       -0.748000           0.464369           14.62121           0.447024           14.47589
       -0.744000           0.466073           14.63968           0.448559           14.49369
       -0.740000           0.467792           14.65825           0.450104           14.51159
       -0.736000           0.469523           14.67689           0.451661           14.52947
       -0.732000           0.471271           14.69557           0.453227           14.54753
       -0.728000           0.473032           14.71434           0.454808           14.56555
       -0.724000           0.474807           14.73317           0.456399           14.58369
       -0.720000           0.476598           14.75207           0.458002           14.60189
       -0.716000           0.478406           14.77103           0.459617           14.62016
       -0.712000           0.480227           14.79007           0.461244           14.63845
       -0.708000           0.482065           14.80920           0.462884           14.65683
       -0.704000           0.483918           14.82837           0.464538           14.67528
       -0.700000           0.485789           14.84762           0.466204           14.69382
       -0.696000           0.487674           14.86695           0.467881           14.71234
       -0.692000           0.489578           14.88636           0.469574           14.73100
       -0.688000           0.491497           14.90583           0.471279           14.74970
       -0.684000           0.493434           14.92537           0.472998           14.76845
       -0.680000           0.495390           14.94501           0.474729           14.78728
       -0.676000           0.497362           14.96473           0.476475           14.80623
       -0.672000           0.499352           14.98450           0.478235           14.82521
       -0.668000           0.501361           15.00436           0.480010           14.84424
       -0.664000           0.503390           15.02429           0.481798           14.86331
       -0.660000           0.505436           15.04431           0.483600           14.88252
       -0.656000           0.507503           15.06442           0.485420           14.90178
       -0.652000           0.509588           15.08456           0.487254           14.92111
       -0.648000           0.511694           15.10483           0.489103           14.94051
       -0.644000           0.513820           15.12517           0.490966           14.95996
       -0.640000           0.515967           15.14557           0.492846           14.97950
       -0.636000           0.518135           15.16607           0.494744           14.99910
       -0.632000           0.520323           15.18666           0.496654           15.01882
       -0.628000           0.522534           15.20735           0.498583           15.03859
       -0.624000           0.524768           15.22810           0.500528           15.05845
       -0.620000           0.527023           15.24893           0.502491           15.07836
       -0.616000           0.529301           15.26988           0.504469           15.09836
       -0.612000           0.531603           15.29090           0.506466           15.11836
       -0.608000           0.533929           15.31199           0.508480           15.13856
       -0.604000           0.536278           15.33318           0.510513           15.15877
       -0.600000           0.538652           15.35447           0.512564           15.17909
       -0.596000           0.541052           15.37585           0.514632           15.19944
       -0.592000           0.543476           15.39733           0.516720           15.21991
       -0.588000           0.545928           15.41889           0.518827           15.24044
       -0.584000           0.548406           15.44054           0.520952           15.26112
       -0.580000           0.550910           15.46230           0.523100           15.28185
       -0.576000           0.553442           15.48414           0.525265           15.30264
       -0.572000           0.556002           15.50610           0.527453           15.32346
       -0.568000           0.558591           15.52815           0.529657           15.34445
       -0.564000           0.561209           15.55029           0.531888           15.36549
       -0.560000           0.563857           15.57252           0.534138           15.38666
       -0.556000           0.566535           15.59487           0.536407           15.40789
       -0.552000           0.569245           15.61732           0.538700           15.42921
       -0.548000           0.571986           15.63987           0.541016           15.45065
       -0.544000           0.574759           15.66252           0.543352           15.47206
       -0.540000           0.577565           15.68529           0.545715           15.49365
       -0.536000           0.580405           15.70815           0.548100           15.51536
       -0.532000           0.583279           15.73114           0.550509           15.53715
       -0.528000           0.586188           15.75421           0.552940           15.55898
       -0.524000           0.589133           15.77741           0.555399           15.58093
       -0.520000           0.592115           15.80070           0.557882           15.60296
       -0.516000           0.595134           15.82415           0.560391           15.62515
       -0.512000           0.598192           15.84766           0.562926           15.64737
       -0.508000           0.601289           15.87134           0.565488           15.66969
       -0.504000           0.604425           15.89509           0.568078           15.69215
       -0.500000           0.607602           15.91896           0.570693           15.71470
       -0.496000           0.610821           15.94297           0.573337           15.73731
       -0.492000           0.614084           15.96710           0.576009           15.76005
       -0.488000           0.617390           15.99134           0.578710           15.78294
       -0.484000           0.620741           16.01572           0.581441           15.80587
       -0.480000           0.624137           16.04022           0.584204           15.82892
       -0.476000           0.627581           16.06483           0.586994           15.85209
       -0.472000           0.631073           16.08957           0.589817           15.87534
       -0.468000           0.634613           16.11446           0.592672           15.89873
       -0.464000           0.638206           16.13948           0.595560           15.92222
       -0.460000           0.641849           16.16463           0.598480           15.94580
       -0.456000           0.645546           16.18990           0.601434           15.96951
       -0.452000           0.649296           16.21533           0.604423           15.99335
       -0.448000           0.653103           16.24088           0.607446           16.01728
       -0.444000           0.656968           16.26657           0.610505           16.04134
       -0.440000           0.660890           16.29238           0.613599           16.06552
       -0.436000           0.664872           16.31838           0.616732           16.08983
       -0.432000           0.668917           16.34450           0.619904           16.11418
       -0.428000           0.673027           16.37078           0.623111           16.13874
       -0.424000           0.677201           16.39721           0.626360           16.16339
       -0.420000           0.681442           16.42379           0.629650           16.18816
       -0.416000           0.685752           16.45050           0.632979           16.21301
       -0.412000           0.690133           16.47739           0.636351           16.23805
       -0.408000           0.694588           16.50444           0.639765           16.26323
       -0.404000           0.699117           16.53165           0.643223           16.28847
       -0.400000           0.703724           16.55898           0.646725           16.31387
       -0.396000           0.708410           16.58652           0.650276           16.33942
       -0.392000           0.713178           16.61421           0.653868           16.36515
       -0.388000           0.718031           16.64206           0.657512           16.39095
       -0.384000           0.722971           16.67011           0.661202           16.41693
       -0.380000           0.727998           16.69832           0.664943           16.44301
       -0.376000           0.733121           16.72669           0.668734           16.46925
       -0.372000           0.738337           16.75525           0.672578           16.49561
       -0.368000           0.743653           16.78401           0.676474           16.52207
       -0.364000           0.749068           16.81293           0.680427           16.54878
       -0.360000           0.754590           16.84205           0.684431           16.57565
       -0.356000           0.760219           16.87134           0.688494           16.60258
       -0.352000           0.765960           16.90083           0.692616           16.62968
       -0.348000           0.771817           16.93051           0.696796           16.65693
       -0.344000           0.777794           16.96041           0.701037           16.68435
       -0.340000           0.783894           16.99048           0.705343           16.71194
       -0.336000           0.790120           17.02076           0.709709           16.73971
       -0.332000           0.796480           17.05127           0.714143           16.76762
       -0.328000           0.802979           17.08195           0.718643           16.79570
       -0.324000           0.809619           17.11288           0.723211           16.82389
       -0.320000           0.816406           17.14400           0.727851           16.85235
       -0.316000           0.823345           17.17534           0.732562           16.88091
       -0.312000           0.830442           17.20690           0.737346           16.90970
       -0.308000           0.837705           17.23870           0.742206           16.93859
       -0.304000           0.845137           17.27070           0.747144           16.96773
       -0.300000           0.852748           17.30296           0.752161           16.99699
       -0.296000           0.860541           17.33542           0.757262           17.02644
       -0.292000           0.868527           17.36814           0.762445           17.05610
       -0.288000           0.876713           17.40110           0.767717           17.08590
       -0.284000           0.885104           17.43427           0.773074           17.11600
       -0.280000           0.893711           17.46770           0.778521           17.14622
       -0.276000           0.902544           17.50137           0.784062           17.17669
       -0.272000           0.911608           17.53529           0.789701           17.20727
       -0.268000           0.920916           17.56947           0.795435           17.23807
       -0.264000           0.930479           17.60390           0.801270           17.26920
       -0.260000           0.940307           17.63858           0.807209           17.30040
       -0.256000           0.950410           17.67354           0.813258           17.33186
       -0.252000           0.960804           17.70874           0.819409           17.36353
       -0.248000           0.971495           17.74416           0.825680           17.39544
       -0.244000           0.982504           17.77989           0.832064           17.42756
       -0.240000           0.993840           17.81586           0.838571           17.45992
       -0.236000           1.005518           17.85210           0.845196           17.49243
       -0.232000           1.017557           17.88859           0.851949           17.52532
       -0.228000           1.029968           17.92533           0.858835           17.55836
       -0.224000           1.042772           17.96234           0.865858           17.59162
       -0.220000           1.055984           17.99959           0.873015           17.62519
       -0.216000           1.069626           18.03708           0.880308           17.65899
       -0.212000           1.083716           18.07482           0.887758           17.69302
       -0.208000           1.098272           18.11279           0.895355           17.72733
       -0.204000           1.113317           18.15097           0.903107           17.76193
       -0.200000           1.128874           18.18943           0.911022           17.79667
       -0.196000           1.144965           18.22803           0.919104           17.83181
       -0.192000           1.161612           18.26684           0.927357           17.86721
       -0.188000           1.178838           18.30583           0.935784           17.90284
       -0.184000           1.196669           18.34497           0.944401           17.93880
       -0.180000           1.215129           18.38424           0.953204           17.97505
       -0.176000           1.234244           18.42364           0.962202           18.01157
       -0.172000           1.254036           18.46311           0.971401           18.04837
       -0.168000           1.274529           18.50263           0.980814           18.08550
       -0.164000           1.295748           18.54218           0.990439           18.12296
       -0.160000           1.317711           18.58169           1.000284           18.16072
       -0.156000           1.340443           18.62116           1.010365           18.19887
       -0.152000           1.363955           18.66051           1.020687           18.23725
       -0.148000           1.388264           18.69968           1.031251           18.27600
       -0.144000           1.413379           18.73864           1.042079           18.31506
       -0.140000           1.439303           18.77730           1.053168           18.35456
       -0.136000           1.466035           18.81558           1.064534           18.39432
       -0.132000           1.493563           18.85347           1.076186           18.43450
       -0.128000           1.521871           18.89082           1.088135           18.47505
       -0.124000           1.550927           18.92760           1.100395           18.51591
       -0.120000           1.580687           18.96371           1.112972           18.55720
       -0.116000           1.611105           18.99908           1.125880           18.59891
       -0.112000           1.642102           19.03362           1.139136           18.64093
       -0.108000           1.673601           19.06725           1.152747           18.68345
       -0.104000           1.705498           19.09988           1.166733           18.72627
       -0.100000           1.737675           19.13148           1.181098           18.76959
       -0.096000           1.770000           19.16202           1.195880           18.81328
       -0.092000           1.802322           19.19142           1.211069           18.85744
       -0.088000           1.834483           19.21972           1.226698           18.90203
       -0.084000           1.866309           19.24693           1.242782           18.94708
       -0.080000           1.897619           19.27308           1.259340           18.99254
       -0.076000           1.928246           19.29825           1.276389           19.03850
       -0.072000           1.958011           19.32254           1.293952           19.08494
       -0.068000           1.986749           19.34613           1.312048           19.13186
       -0.064000           2.014322           19.36914           1.330710           19.17928
       -0.060000           2.040618           19.39184           1.349949           19.22714
       -0.056000           2.065543           19.41442           1.369805           19.27554
       -0.052000           2.089053           19.43714           1.390296           19.32448
       -0.048000           2.111140           19.46024           1.411448           19.37386
       -0.044000           2.131837           19.48403           1.433296           19.42389
       -0.040000           2.151221           19.50872           1.455870           19.47442
       -0.036000           2.169410           19.53457           1.479205           19.52547
       -0.032000           2.186556           19.56180           1.503345           19.57701
       -0.028000           2.202851           19.59064           1.528303           19.62922
       -0.024000           2.218503           19.62124           1.554141           19.68192
       -0.020000           2.233748           19.65375           1.580901           19.73521
       -0.016000           2.248829           19.68823           1.608617           19.78909
       -0.012000           2.263995           19.72478           1.637331           19.84355
       -0.008000           2.279501           19.76344           1.667105           19.89860
       -0.004000           2.295597           19.80421           1.698000           19.95427
        0.000000           2.312524           19.84708           1.730039           20.01049
        0.004000           2.330503           19.89201           1.763309           20.06728
        0.008000           2.349766           19.93890           1.797858           20.12469
        0.012000           2.370508           19.98770           1.833757           20.18262
        0.016000           2.392921           20.03834           1.871076           20.24121
        0.020000           2.417185           20.09065           1.909878           20.30032
        0.024000           2.443471           20.14459           1.950262           20.36001
        0.028000           2.471934           20.20002           1.992286           20.42028
        0.032000           2.502715           20.25680           2.036041           20.48099
        0.036000           2.535959           20.31483           2.081644           20.54230
        0.040000           2.571799           20.37398           2.129155           20.60406
        0.044000           2.610370           20.43414           2.178701           20.66626
        0.048000           2.651791           20.49511           2.230381           20.72896
        0.052000           2.696194           20.55681           2.284315           20.79199
        0.056000           2.743700           20.61912           2.340601           20.85536
        0.060000           2.794436           20.68184           2.399397           20.91903
        0.064000           2.848530           20.74480           2.460821           20.98281
        0.068000           2.906098           20.80790           2.525003           21.04678
        0.072000           2.967286           20.87092           2.592094           21.11077
        0.076000           3.032210           20.93369           2.662259           21.17472
        0.080000           3.101009           20.99600           2.735623           21.23857
        0.084000           3.173813           21.05760           2.812388           21.30203
        0.088000           3.250745           21.11827           2.892708           21.36508
        0.092000           3.331943           21.17779           2.976755           21.42753
        0.096000           3.417521           21.23583           3.064685           21.48912
        0.100000           3.507589           21.29206           3.156711           21.54973
        0.104000           3.602264           21.34620           3.253018           21.60908
        0.108000           3.701627           21.39782           3.353762           21.66687
        0.112000           3.805738           21.44653           3.459143           21.72274
        0.116000           3.914654           21.49192           3.569311           21.77655
        0.120000           4.028389           21.53349           3.684444           21.82768
        0.124000           4.146920           21.57074           3.804686           21.87590
        0.128000           4.270176           21.60316           3.930147           21.92068
        0.132000           4.398046           21.63015           4.060966           21.96146
        0.136000           4.530347           21.65110           4.197196           21.99772
        0.140000           4.666846           21.66541           4.338839           22.02883
        0.144000           4.807205           21.67248           4.485894           22.05414
        0.148000           4.951027           21.67160           4.638308           22.07292
        0.152000           5.097829           21.66219           4.795877           22.08441
        0.156000           5.246995           21.64360           4.958363           22.08790
        0.160000           5.397833           21.61522           5.125436           22.08236
        0.164000           5.549559           21.57659           5.296616           22.06704
        0.168000           5.701254           21.52714           5.471336           22.04099
        0.172000           5.851937           21.46650           5.648873           22.00348
        0.176000           6.000515           21.39442           5.828266           21.95346
        0.180000           6.145805           21.31069           6.008494           21.89016
        0.184000           6.286559           21.21527           6.188340           21.81292
        0.188000           6.421514           21.10826           6.366444           21.72114
        0.192000           6.549343           20.98998           6.541124           21.61417
        0.196000           6.668713           20.86087           6.710750           21.49196
        0.200000           6.778323           20.72159           6.873455           21.35427
        0.204000           6.876943           20.57295           7.027304           21.20149
        0.208000           6.963379           20.41600           7.170280           21.03406
        0.212000           7.036589           20.25187           7.300447           20.85277
        0.216000           7.095652           20.08196           7.415857           20.65896
        0.220000           7.139828           19.90773           7.514716           20.45386
        0.224000           7.168566           19.73085           7.595422           20.23948
        0.228000           7.181560           19.55297           7.656655           20.01785
        0.232000           7.178724           19.37587           7.697499           19.79130
        0.236000           7.160252           19.20130           7.717240           19.56227
        0.240000           7.126559           19.03101           7.715707           19.33328
        0.244000           7.078314           18.86661           7.693058           19.10697
        0.248000           7.016438           18.70960           7.649825           18.88577
        0.252000           6.942009           18.56135           7.587019           18.67205
        0.256000           6.856270           18.42302           7.505962           18.46790
        0.260000           6.760629           18.29555           7.408128           18.27527
        0.264000           6.656536           18.17964           7.295344           18.09558
        0.268000           6.545514           18.07578           7.169478           17.93010
        0.272000           6.429029           17.98420           7.032549           17.77968
        0.276000           6.308551           17.90494           6.886593           17.64496
        0.280000           6.185468           17.83787           6.733486           17.52613
        0.284000           6.061064           17.78270           6.575130           17.42314
        0.288000           5.936525           17.73887           6.413361           17.33589
        0.292000           5.812863           17.70586           6.249665           17.26377
        0.296000           5.690999           17.68301           6.085509           17.20634
        0.300000           5.571691           17.66960           5.922165           17.16277
        0.304000           5.455579           17.66479           5.760743           17.13238
        0.308000           5.343150           17.66786           5.602145           17.11415
        0.312000           5.234779           17.67802           5.447147           17.10734
        0.316000           5.130727           17.69446           5.296365           17.11104
        0.320000           5.031129           17.71645           5.150306           17.12432
        0.324000           4.936054           17.74330           5.009307           17.14642
        0.328000           4.845464           17.77432           4.873697           17.17642
        0.332000           4.759270           17.80898           4.743597           17.21368
        0.336000           4.677300           17.84667           4.619160           17.25736
        0.340000           4.599349           17.88696           4.500418           17.30693
        0.344000           4.525163           17.92949           4.387352           17.36163
        0.348000           4.454484           17.97388           4.279938           17.42094
        0.352000           4.387017           18.01990           4.178082           17.48440
        0.356000           4.322478           18.06735           4.081639           17.55152
        0.360000           4.260595           18.11609           3.990540           17.62184
        0.364000           4.201110           18.16612           3.904605           17.69501
        0.368000           4.143795           18.21735           3.823709           17.77068
        0.372000           4.088469           18.26989           3.747664           17.84853
        0.376000           4.034979           18.32371           3.676330           17.92836
        0.380000           3.983206           18.37896           3.609558           18.00980
        0.384000           3.933100           18.43573           3.547151           18.09271
        0.388000           3.884643           18.49407           3.489008           18.17697
        0.392000           3.837847           18.55414           3.434938           18.26224
        0.396000           3.792759           18.61596           3.384814           18.34849
        0.400000           3.749474           18.67962           3.338490           18.43561
        0.404000           3.708078           18.74513           3.295853           18.52342
        0.408000           3.668699           18.81254           3.256758           18.61182
        0.412000           3.631458           18.88181           3.221114           18.70083
        0.416000           3.596485           18.95290           3.188809           18.79019
        0.420000           3.563898           19.02578           3.159734           18.87991
        0.424000           3.533826           19.10035           3.133822           18.97008
        0.428000           3.506388           19.17655           3.110969           19.06039
        0.432000           3.481685           19.25424           3.091129           19.15104
        0.436000           3.459814           19.33328           3.074211           19.24180
        0.440000           3.440855           19.41363           3.060199           19.33269
        0.444000           3.424896           19.49510           3.048999           19.42380
        0.448000           3.411997           19.57755           3.040603           19.51494
        0.452000           3.402216           19.66089           3.034965           19.60612
        0.456000           3.395620           19.74493           3.032053           19.69737
        0.460000           3.392240           19.82956           3.031880           19.78859
        0.464000           3.392128           19.91464           3.034409           19.87985
        0.468000           3.395320           20.00001           3.039662           19.97097
        0.472000           3.401845           20.08553           3.047621           20.06209
        0.476000           3.411755           20.17105           3.058289           20.15305
        0.480000           3.425071           20.25643           3.071741           20.24382
        0.484000           3.441818           20.34147           3.087945           20.33446
        0.488000           3.462039           20.42606           3.106974           20.42482
        0.492000           3.485747           20.50996           3.128838           20.51485
        0.496000           3.512979           20.59304           3.153599           20.60464
        0.500000           3.543727           20.67502           3.181320           20.69386
        0.504000           3.578005           20.75580           3.212005           20.78262
        0.508000           3.615833           20.83506           3.245768           20.87075
        0.512000           3.657185           20.91264           3.282662           20.95819
        0.516000           3.702028           20.98818           3.322729           21.04482
        0.520000           3.750333           21.06152           3.366074           21.13049
        0.524000           3.802005           21.13229           3.412730           21.21503
        0.528000           3.856972           21.20021           3.462787           21.29828
        0.532000           3.915095           21.26495           3.516307           21.38006
        0.536000           3.976210           21.32619           3.573316           21.46020
        0.540000           4.040108           21.38361           3.633882           21.53836
        0.544000           4.106530           21.43690           3.698062           21.61443
        0.548000           4.175167           21.48565           3.765860           21.68803
        0.552000           4.245660           21.52957           3.837245           21.75880
        0.556000           4.317596           21.56843           3.912231           21.82659
        0.560000           4.390472           21.60189           3.990722           21.89086
        0.564000           4.463758           21.62979           4.072661           21.95130
        0.568000           4.536869           21.65194           4.157868           22.00755
        0.572000           4.609151           21.66833           4.246166           22.05905
        0.576000           4.679917           21.67887           4.337307           22.10560
        0.580000           4.748469           21.68374           4.430946           22.14653
        0.584000           4.814092           21.68309           4.526712           22.18151
        0.588000           4.876086           21.67729           4.624125           22.21012
        0.592000           4.933777           21.66680           4.722648           22.23199
        0.596000           4.986529           21.65209           4.821599           22.24678
        0.600000           5.033819           21.63387           4.920285           22.25427
        0.604000           5.075195           21.61291           5.017943           22.25422
        0.608000           5.110332           21.58997           5.113646           22.24648
        0.612000           5.139023           21.56598           5.206522           22.23124
        0.616000           5.161229           21.54178           5.295601           22.20850
        0.620000           5.177001           21.51833           5.379903           22.17874
        0.624000           5.186620           21.49652           5.458495           22.14239
        0.628000           5.190425           21.47711           5.530507           22.10011
        0.632000           5.188904           21.46095           5.595081           22.05275
        0.636000           5.182675           21.44858           5.651597           22.00128
        0.640000           5.172393           21.44061           5.699495           21.94667
        0.644000           5.158813           21.43746           5.738410           21.89020
        0.648000           5.142716           21.43942           5.768241           21.83300
        0.652000           5.124892           21.44665           5.788926           21.77648
        0.656000           5.106143           21.45921           5.800799           21.72172
        0.660000           5.087235           21.47702           5.804264           21.66997
        0.664000           5.068903           21.49991           5.799993           21.62229
        0.668000           5.051809           21.52765           5.788727           21.57957
        0.672000           5.036569           21.55982           5.771424           21.54257
        0.676000           5.023736           21.59603           5.749063           21.51202
        0.680000           5.013757           21.63583           5.722672           21.48823
        0.684000           5.007051           21.67869           5.693343           21.47146
        0.688000           5.003898           21.72403           5.662143           21.46192
        0.692000           5.004551           21.77132           5.630153           21.45933
        0.696000           5.009161           21.81996           5.598277           21.46368
        0.700000           5.017798           21.86937           5.567471           21.47458
        0.704000           5.030487           21.91895           5.538497           21.49148
        0.708000           5.047144           21.96817           5.512141           21.51399
        0.712000           5.067634           22.01641           5.488982           21.54146
        0.716000           5.091763           22.06317           5.469584           21.57313
        0.720000           5.119229           22.10792           5.454293           21.60839
        0.724000           5.149751           22.15025           5.443551           21.64650
        0.728000           5.182886           22.18970           5.437458           21.68670
        0.732000           5.218237           22.22595           5.436210           21.72824
        0.736000           5.255281           22.25864           5.439826           21.77043
        0.740000           5.293518           22.28758           5.448236           21.81235
        0.744000           5.332388           22.31260           5.461314           21.85350
        0.748000           5.371301           22.33359           5.478786           21.89293
        0.752000           5.409670           22.35053           5.500322           21.93015
        0.756000           5.446907           22.36357           5.525466           21.96445
        0.760000           5.482448           22.37276           5.553792           21.99532
        0.764000           5.515706           22.37836           5.584626           22.02220
        0.768000           5.546175           22.38077           5.617359           22.04468
        0.772000           5.573393           22.38035           5.651202           22.06248
        0.776000           5.596922           22.37750           5.685366           22.07537
        0.780000           5.616444           22.37280           5.719066           22.08319
        0.784000           5.631674           22.36678           5.751376           22.08603
        0.788000           5.642473           22.36010           5.781529           22.08415
        0.792000           5.648737           22.35332           5.808669           22.07781
        0.796000           5.650491           22.34711           5.832058           22.06742
        0.800000           5.647851           22.34207           5.850975           22.05359
        0.804000           5.641038           22.33877           5.864913           22.03717
        0.808000           5.630353           22.33776           5.873379           22.01883
        0.812000           5.616172           22.33950           5.876108           21.99949
        0.816000           5.598932           22.34441           5.872998           21.97998
        0.820000           5.579122           22.35277           5.864069           21.96124
        0.824000           5.557298           22.36485           5.849564           21.94417
        0.828000           5.533982           22.38077           5.829776           21.92950
        0.832000           5.509712           22.40055           5.805211           21.91799
        0.836000           5.485037           22.42413           5.776448           21.91007
        0.840000           5.460421           22.45133           5.744090           21.90639
        0.844000           5.436318           22.48205           5.708896           21.90721
        0.848000           5.413110           22.51591           5.671526           21.91260
        0.852000           5.391104           22.55256           5.632684           21.92263
        0.856000           5.370558           22.59169           5.593067           21.93735
        0.860000           5.351598           22.63285           5.553214           21.95641
        0.864000           5.334334           22.67571           5.513762           21.97965
        0.868000           5.318724           22.71983           5.475008           22.00664
        0.872000           5.304692           22.76486           5.437415           22.03695
        0.876000           5.292107           22.81044           5.401167           22.07028
        0.880000           5.280728           22.85631           5.366447           22.10594
        0.884000           5.270288           22.90223           5.333249           22.14371
        0.888000           5.260490           22.94810           5.301550           22.18307
        0.892000           5.251022           22.99378           5.271248           22.22355
        0.896000           5.241542           23.03936           5.242100           22.26494
        0.900000           5.231746           23.08485           5.213857           22.30695
        0.904000           5.221356           23.13043           5.186194           22.34933
        0.908000           5.210114           23.17631           5.158776           22.39208
        0.912000           5.197841           23.22278           5.131258           22.43511
        0.916000           5.184425           23.27009           5.103296           22.47848
        0.920000           5.169833           23.31867           5.074584           22.52241
        0.924000           5.154088           23.36875           5.044850           22.56706
        0.928000           5.137280           23.42064           5.013879           22.61271
        0.932000           5.119581           23.47472           4.981512           22.65977
        0.936000           5.101213           23.53114           4.947679           22.70850
        0.940000           5.082422           23.59012           4.912393           22.75935
        0.944000           5.063511           23.65177           4.875742           22.81260
        0.948000           5.044768           23.71622           4.837850           22.86865
        0.952000           5.026497           23.78338           4.798967           22.92780
        0.956000           5.008967           23.85331           4.759314           22.99042
        0.960000           4.992443           23.92587           4.719246           23.05645
        0.964000           4.977149           24.00091           4.679039           23.12629
        0.968000           4.963275           24.07827           4.639109           23.19998
        0.972000           4.950944           24.15780           4.599754           23.27747
        0.976000           4.940252           24.23928           4.561302           23.35897
        0.980000           4.931250           24.32254           4.524087           23.44417
        0.984000           4.923946           24.40737           4.488427           23.53314
        0.988000           4.918303           24.49365           4.454582           23.62578
        0.992000           4.914253           24.58127           4.422793           23.72181
        0.996000           4.911710           24.67008           4.393296           23.82124
        1.000000           4.910581           24.76006           4.366234           23.92371
        1.004000           4.910756           24.85117           4.341789           24.02921
        1.008000           4.912141           24.94347           4.320096           24.13741
        1.012000           4.914655           25.03701           4.301262           24.24819
        1.016000           4.918226           25.13184           4.285359           24.36150
        1.020000           4.922846           25.22815           4.272472           24.47700
        1.024000           4.928501           25.32605           4.262646           24.59459
        1.028000           4.935244           25.42571           4.255927           24.71422
        1.032000           4.943161           25.52720           4.252357           24.83550
        1.036000           4.952367           25.63070           4.251941           24.95859
        1.040000           4.963029           25.73635           4.254715           25.08323
        1.044000           4.975317           25.84427           4.260715           25.20938
        1.048000           4.989452           25.95446           4.269938           25.33682
        1.052000           5.005668           26.06702           4.282421           25.46552
        1.056000           5.024197           26.18195           4.298141           25.59541
        1.060000           5.045284           26.29924           4.317183           25.72648
        1.064000           5.069189           26.41879           4.339540           25.85860
        1.068000           5.096140           26.54055           4.365237           25.99157
        1.072000           5.126392           26.66445           4.394351           26.12553
        1.076000           5.160170           26.79027           4.426888           26.26020
        1.080000           5.197678           26.91796           4.462890           26.39572
        1.084000           5.239131           27.04728           4.502420           26.53187
        1.088000           5.284718           27.17799           4.545573           26.66864
        1.092000           5.334612           27.30998           4.592355           26.80602
        1.096000           5.388984           27.44302           4.642897           26.94365
        1.100000           5.447989           27.57679           4.697237           27.08175
        1.104000           5.511731           27.71107           4.755475           27.22019
        1.108000           5.580366           27.84568           4.817687           27.35872
        1.112000           5.653977           27.98022           4.883989           27.49724
        1.116000           5.732642           28.11446           4.954451           27.63572
        1.120000           5.816464           28.24815           5.029173           27.77392
        1.124000           5.905465           28.38091           5.108254           27.91175
        1.128000           5.999672           28.51243           5.191802           28.04903
        1.132000           6.099106           28.64235           5.279890           28.18551
        1.136000           6.203741           28.77043           5.372637           28.32108
        1.140000           6.313512           28.89619           5.470077           28.45536
        1.144000           6.428348           29.01940           5.572297           28.58822
        1.148000           6.548134           29.13964           5.679345           28.71945
        1.152000           6.672721           29.25657           5.791250           28.84857
        1.156000           6.801940           29.36990           5.908068           28.97540
        1.160000           6.935560           29.47927           6.029709           29.09963
        1.164000           7.073358           29.58443           6.156184           29.22085
        1.168000           7.215047           29.68508           6.287425           29.33884
        1.172000           7.360394           29.78102           6.423285           29.45333
        1.176000           7.509078           29.87205           6.563706           29.56362
        1.180000           7.660769           29.95793           6.708431           29.66962
        1.184000           7.815235           30.03861           6.857311           29.77116
        1.188000           7.972167           30.11393           7.010115           29.86755
        1.192000           8.131291           30.18373           7.166552           29.95877
        1.196000           8.292367           30.24796           7.326355           30.04445
        1.200000           8.455175           30.30654           7.489218           30.12445
        1.204000           8.619484           30.35929           7.654854           30.19837
        1.208000           8.785078           30.40616           7.822886           30.26617
        1.212000           8.951764           30.44694           7.993074           30.32751
        1.216000           9.119254           30.48135           8.165068           30.38244
        1.220000           9.287280           30.50920           8.338617           30.43067
        1.224000           9.455501           30.53022           8.513288           30.47184
        1.228000           9.623497           30.54411           8.688886           30.50601
        1.232000           9.790766           30.55064           8.865010           30.53279
        1.236000           9.956659           30.54953           9.041276           30.55197
        1.240000           10.12050           30.54054           9.217238           30.56320
        1.244000           10.28150           30.52360           9.392478           30.56629
        1.248000           10.43869           30.49867           9.566267           30.56085
        1.252000           10.59118           30.46595           9.737997           30.54677
        1.256000           10.73796           30.42566           9.906824           30.52373
        1.260000           10.87799           30.37833           10.07173           30.49154
        1.264000           11.01033           30.32460           10.23178           30.45013
        1.268000           11.13409           30.26530           10.38575           30.39992
        1.272000           11.24844           30.20142           10.53247           30.34087
        1.276000           11.35279           30.13417           10.67069           30.27378
        1.280000           11.44660           30.06481           10.79910           30.19918
        1.284000           11.52967           29.99464           10.91669           30.11826
        1.288000           11.60188           29.92513           11.02230           30.03210
        1.292000           11.66350           29.85775           11.11508           29.94230
        1.296000           11.71481           29.79375           11.19431           29.85038
        1.300000           11.75646           29.73452           11.25966           29.75805
        1.304000           11.78924           29.68128           11.31099           29.66735
        1.308000           11.81407           29.63504           11.34841           29.58003
        1.312000           11.83201           29.59671           11.37247           29.49783
        1.316000           11.84427           29.56711           11.38399           29.42266
        1.320000           11.85209           29.54671           11.38386           29.35616
        1.324000           11.85677           29.53597           11.37336           29.29961
        1.328000           11.85964           29.53506           11.35407           29.25431
        1.332000           11.86203           29.54395           11.32739           29.22123
        1.336000           11.86522           29.56254           11.29500           29.20111
        1.340000           11.87048           29.59054           11.25863           29.19434
        1.344000           11.87896           29.62741           11.21999           29.20125
        1.348000           11.89171           29.67259           11.18074           29.22187
        1.352000           11.90979           29.72529           11.14254           29.25608
        1.356000           11.93403           29.78473           11.10696           29.30338
        1.360000           11.96517           29.84990           11.07543           29.36340
        1.364000           12.00379           29.91985           11.04923           29.43532
        1.368000           12.05037           29.99347           11.02967           29.51848
        1.372000           12.10512           30.06964           11.01786           29.61188
        1.376000           12.16828           30.14732           11.01477           29.71472
        1.380000           12.23974           30.22537           11.02132           29.82582
        1.384000           12.31942           30.30273           11.03819           29.94408
        1.388000           12.40697           30.37848           11.06602           30.06847
        1.392000           12.50202           30.45168           11.10539           30.19786
        1.396000           12.60394           30.52149           11.15673           30.33088
        1.400000           12.71221           30.58723           11.22023           30.46645
        1.404000           12.82613           30.64836           11.29617           30.60343
        1.408000           12.94497           30.70438           11.38463           30.74037
        1.412000           13.06801           30.75500           11.48551           30.87622
        1.416000           13.19458           30.79999           11.59884           31.00966
        1.420000           13.32397           30.83935           11.72420           31.13964
        1.424000           13.45558           30.87299           11.86126           31.26494
        1.428000           13.58890           30.90105           12.00965           31.38434
        1.432000           13.72343           30.92358           12.16872           31.49668
        1.436000           13.85879           30.94072           12.33778           31.60113
        1.440000           13.99471           30.95268           12.51615           31.69659
        1.444000           14.13092           30.95958           12.70281           31.78224
        1.448000           14.26722           30.96142           12.89683           31.85727
        1.452000           14.40345           30.95830           13.09715           31.92108
        1.456000           14.53947           30.95015           13.30271           31.97307
        1.460000           14.67510           30.93693           13.51245           32.01297
        1.464000           14.81018           30.91851           13.72512           32.04027
        1.468000           14.94444           30.89469           13.93969           32.05494
        1.472000           15.07755           30.86537           14.15498           32.05694
        1.476000           15.20916           30.83021           14.37000           32.04618
        1.480000           15.33878           30.78913           14.58372           32.02283
        1.484000           15.46585           30.74197           14.79521           31.98697
        1.488000           15.58975           30.68863           15.00347           31.93887
        1.492000           15.70972           30.62906           15.20766           31.87856
        1.496000           15.82501           30.56334           15.40680           31.80644
        1.500000           15.93476           30.49181           15.59993           31.72244
        1.504000           16.03812           30.41469           15.78613           31.62708
        1.508000           16.13420           30.33254           15.96428           31.52046
        1.512000           16.22218           30.24599           16.13321           31.40301
        1.516000           16.30124           30.15594           16.29168           31.27524
        1.520000           16.37068           30.06335           16.43846           31.13787
        1.524000           16.43000           29.96943           16.57209           30.99177
        1.528000           16.47880           29.87548           16.69135           30.83809
        1.532000           16.51679           29.78285           16.79499           30.67842
        1.536000           16.54412           29.69299           16.88197           30.51421
        1.540000           16.56110           29.60750           16.95130           30.34753
        1.544000           16.56814           29.52792           17.00238           30.18057
        1.548000           16.56614           29.45553           17.03501           30.01588
        1.552000           16.55615           29.39168           17.04939           29.85566
        1.556000           16.53946           29.33755           17.04595           29.70259
        1.560000           16.51751           29.29393           17.02576           29.55898
        1.564000           16.49198           29.26163           16.99023           29.42719
        1.568000           16.46459           29.24092           16.94113           29.30911
        1.572000           16.43712           29.23194           16.88044           29.20657
        1.576000           16.41134           29.23444           16.81059           29.12079
        1.580000           16.38896           29.24798           16.73412           29.05279
        1.584000           16.37164           29.27177           16.65354           29.00319
        1.588000           16.36083           29.30475           16.57158           28.97196
        1.592000           16.35782           29.34577           16.49070           28.95889
        1.596000           16.36369           29.39336           16.41340           28.96338
        1.600000           16.37923           29.44602           16.34204           28.98436
        1.604000           16.40507           29.50203           16.27850           29.02061
        1.608000           16.44155           29.55965           16.22490           29.07067
        1.612000           16.48865           29.61726           16.18273           29.13279
        1.616000           16.54621           29.67300           16.15331           29.20506
        1.620000           16.61379           29.72534           16.13772           29.28558
        1.624000           16.69065           29.77263           16.13676           29.37212
        1.628000           16.77587           29.81340           16.15094           29.46268
        1.632000           16.86839           29.84645           16.18060           29.55499
        1.636000           16.96685           29.87057           16.22562           29.64689
        1.640000           17.06987           29.88489           16.28579           29.73620
        1.644000           17.17593           29.88870           16.36057           29.82089
        1.648000           17.28338           29.88150           16.44920           29.89886
        1.652000           17.39057           29.86300           16.55061           29.96816
        1.656000           17.49579           29.83325           16.66347           30.02695
        1.660000           17.59735           29.79232           16.78647           30.07357
        1.664000           17.69366           29.74068           16.91783           30.10658
        1.668000           17.78315           29.67898           17.05545           30.12458
        1.672000           17.86431           29.60795           17.19738           30.12655
        1.676000           17.93576           29.52856           17.34128           30.11159
        1.680000           17.99621           29.44207           17.48475           30.07932
        1.684000           18.04460           29.34965           17.62515           30.02950
        1.688000           18.07991           29.25285           17.75999           29.96217
        1.692000           18.10140           29.15312           17.88659           29.87797
        1.696000           18.10838           29.05221           18.00233           29.77767
        1.700000           18.10046           28.95183           18.10467           29.66265
        1.704000           18.07742           28.85378           18.19128           29.53458
        1.708000           18.03922           28.75999           18.26007           29.39537
        1.712000           17.98617           28.67227           18.30919           29.24752
        1.716000           17.91869           28.59252           18.33699           29.09367
        1.720000           17.83747           28.52257           18.34245           28.93666
        1.724000           17.74348           28.46415           18.32487           28.77974
        1.728000           17.63790           28.41888           18.28409           28.62577
        1.732000           17.52207           28.38822           18.22039           28.47831
        1.736000           17.39760           28.37349           18.13446           28.34030
        1.740000           17.26623           28.37581           18.02775           28.21467
        1.744000           17.12982           28.39600           17.90172           28.10408
        1.748000           16.99032           28.43464           17.75852           28.01103
        1.752000           16.84971           28.49209           17.60044           27.93752
        1.756000           16.70999           28.56840           17.43003           27.88508
        1.760000           16.57315           28.66350           17.24994           27.85505
        1.764000           16.44106           28.77698           17.06293           27.84811
        1.768000           16.31558           28.90819           16.87175           27.86478
        1.772000           16.19832           29.05639           16.67906           27.90493
        1.776000           16.09092           29.22066           16.48735           27.96834
        1.780000           15.99474           29.39988           16.29903           28.05427
        1.784000           15.91103           29.59284           16.11626           28.16203
        1.788000           15.84091           29.79836           15.94096           28.29045
        1.792000           15.78526           30.01512           15.77482           28.43835
        1.796000           15.74493           30.24158           15.61948           28.60454
        1.800000           15.72056           30.47650           15.47614           28.78746
        1.804000           15.71266           30.71848           15.34597           28.98591
        1.808000           15.72165           30.96598           15.22984           29.19822
        1.812000           15.74778           31.21765           15.12840           29.42300
        1.816000           15.79123           31.47206           15.04241           29.65893
        1.820000           15.85199           31.72783           14.97214           29.90464
        1.824000           15.93004           31.98358           14.91807           30.15874
        1.828000           16.02520           32.23786           14.88030           30.41999
        1.832000           16.13723           32.48940           14.85904           30.68712
        1.836000           16.26571           32.73689           14.85426           30.95886
        1.840000           16.41013           32.97895           14.86604           31.23416
        1.844000           16.56996           33.21450           14.89414           31.51194
        1.848000           16.74446           33.44231           14.93856           31.79112
        1.852000           16.93283           33.66125           14.99899           32.07076
        1.856000           17.13419           33.87025           15.07529           32.34993
        1.860000           17.34749           34.06849           15.16715           32.62756
        1.864000           17.57174           34.25510           15.27427           32.90306
        1.868000           17.80573           34.42929           15.39629           33.17544
        1.872000           18.04829           34.59058           15.53295           33.44415
        1.876000           18.29818           34.73843           15.68389           33.70834
        1.880000           18.55415           34.87252           15.84872           33.96734
        1.884000           18.81489           34.99262           16.02717           34.22044
        1.888000           19.07924           35.09872           16.21888           34.46706
        1.892000           19.34589           35.19082           16.42365           34.70660
        1.896000           19.61371           35.26903           16.64103           34.93826
        1.900000           19.88153           35.33358           16.87081           35.16149
        1.904000           20.14828           35.38493           17.11276           35.37550
        1.908000           20.41283           35.42336           17.36645           35.57932
        1.912000           20.67431           35.44938           17.63168           35.77224
        1.916000           20.93168           35.46349           17.90789           35.95339
        1.920000           21.18419           35.46639           18.19450           36.12148
        1.924000           21.43085           35.45873           18.49099           36.27547
        1.928000           21.67102           35.44125           18.79633           36.41430
        1.932000           21.90399           35.41471           19.10963           36.53680
        1.936000           22.12906           35.38001           19.42954           36.64182
        1.940000           22.34575           35.33797           19.75450           36.72818
        1.944000           22.55356           35.28959           20.08278           36.79504
        1.948000           22.75216           35.23588           20.41229           36.84155
        1.952000           22.94122           35.17786           20.74083           36.86739
        1.956000           23.12059           35.11654           21.06587           36.87215
        1.960000           23.29016           35.05299           21.38496           36.85612
        1.964000           23.45001           34.98830           21.69527           36.81993
        1.968000           23.60028           34.92347           21.99421           36.76461
        1.972000           23.74114           34.85953           22.27919           36.69158
        1.976000           23.87307           34.79755           22.54783           36.60283
        1.980000           23.99653           34.73834           22.79810           36.50085
        1.984000           24.11205           34.68278           23.02827           36.38834
        1.988000           24.22022           34.63174           23.23714           36.26847
        1.992000           24.32186           34.58585           23.42398           36.14421
        1.996000           24.41763           34.54574           23.58859           36.01930
        2.000000           24.50854           34.51186           23.73151           35.89663
        2.004000           24.59529           34.48463           23.85358           35.77991
        2.008000           24.67878           34.46432           23.95639           35.67167
        2.012000           24.75987           34.45112           24.04181           35.57486
        2.016000           24.83946           34.44509           24.11213           35.49157
        2.020000           24.91833           34.44630           24.16991           35.42341
        2.024000           24.99729           34.45461           24.21780           35.37196
        2.028000           25.07702           34.46991           24.25871           35.33800
        2.032000           25.15827           34.49196           24.29553           35.32167
        2.036000           25.24171           34.52057           24.33072           35.32315
        2.040000           25.32790           34.55536           24.36707           35.34184
        2.044000           25.41743           34.59605           24.40676           35.37707
        2.048000           25.51070           34.64227           24.45204           35.42775
        2.052000           25.60825           34.69368           24.50462           35.49242
        2.056000           25.71039           34.74984           24.56626           35.56984
        2.060000           25.81758           34.81041           24.63798           35.65830
        2.064000           25.92998           34.87502           24.72087           35.75618
        2.068000           26.04794           34.94324           24.81589           35.86182
        2.072000           26.17166           35.01485           24.92331           35.97347
        2.076000           26.30137           35.08957           25.04321           36.08966
        2.080000           26.43725           35.16707           25.17585           36.20872
        2.084000           26.57966           35.24718           25.32086           36.32929
        2.088000           26.72872           35.32969           25.47792           36.45011
        2.092000           26.88482           35.41443           25.64651           36.57003
        2.096000           27.04848           35.50124           25.82590           36.68807
        2.100000           27.22005           35.58982           26.01556           36.80371
        2.104000           27.40010           35.67994           26.21454           36.91642
        2.108000           27.58940           35.77124           26.42236           37.02593
        2.112000           27.78851           35.86324           26.63844           37.13183
        2.116000           27.99816           35.95522           26.86229           37.23446
        2.120000           28.21915           36.04646           27.09361           37.33393
        2.124000           28.45211           36.13585           27.33238           37.43041
        2.128000           28.69775           36.22235           27.57871           37.52425
        2.132000           28.95642           36.30452           27.83307           37.61554
        2.136000           29.22859           36.38081           28.09588           37.70423
        2.140000           29.51439           36.44947           28.36801           37.79031
        2.144000           29.81365           36.50883           28.65042           37.87330
        2.148000           30.12594           36.55695           28.94386           37.95259
        2.152000           30.45074           36.59185           29.24932           38.02705
        2.156000           30.78681           36.61174           29.56763           38.09557
        2.160000           31.13311           36.61480           29.89956           38.15639
        2.164000           31.48796           36.59933           30.24563           38.20778
        2.168000           31.84944           36.56390           30.60583           38.24734
        2.172000           32.21546           36.50726           30.98005           38.27307
        2.176000           32.58356           36.42846           31.36751           38.28248
        2.180000           32.95141           36.32687           31.76757           38.27315
        2.184000           33.31623           36.20229           32.17853           38.24251
        2.188000           33.67537           36.05476           32.59821           38.18837
        2.192000           34.02618           35.88480           33.02440           38.10875
        2.196000           34.36596           35.69330           33.45418           38.00181
        2.200000           34.69230           35.48146           33.88419           37.86626
        2.204000           35.00291           35.25076           34.31128           37.70144
        2.208000           35.29568           35.00324           34.73143           37.50690
        2.212000           35.56888           34.74085           35.14094           37.28307
        2.216000           35.82103           34.46594           35.53603           37.03092
        2.220000           36.05094           34.18096           35.91312           36.75210
        2.224000           36.25791           33.88839           36.26878           36.44862
        2.228000           36.44138           33.59090           36.60023           36.12313
        2.232000           36.60122           33.29094           36.90469           35.77885
        2.236000           36.73758           32.99102           37.18028           35.41898
        2.240000           36.85088           32.69350           37.42575           35.04731
        2.244000           36.94177           32.40064           37.64011           34.66729
        2.248000           37.01108           32.11450           37.82332           34.28259
        2.252000           37.05985           31.83706           37.97544           33.89667
        2.256000           37.08927           31.57003           38.09731           33.51259
        2.260000           37.10053           31.31507           38.18983           33.13324
        2.264000           37.09499           31.07364           38.25450           32.76111
        2.268000           37.07409           30.84709           38.29233           32.39828
        2.272000           37.03927           30.63664           38.30491           32.04678
        2.276000           36.99197           30.44339           38.29357           31.70803
        2.280000           36.93390           30.26835           38.25948           31.38347
        2.284000           36.86671           30.11249           38.20392           31.07461
        2.288000           36.79206           29.97655           38.12797           30.78279
        2.292000           36.71188           29.86127           38.03244           30.50925
        2.296000           36.62796           29.76716           37.91825           30.25557
        2.300000           36.54237           29.69465           37.78668           30.02343
        2.304000           36.45718           29.64403           37.63897           29.81471
        2.308000           36.37446           29.61530           37.47659           29.63113
        2.312000           36.29641           29.60826           37.30128           29.47460
        2.316000           36.22519           29.62255           37.11517           29.34720
        2.320000           36.16297           29.65749           36.92069           29.25051
        2.324000           36.11175           29.71219           36.72088           29.18619
        2.328000           36.07364           29.78559           36.51869           29.15541
        2.332000           36.05038           29.87626           36.31775           29.15909
        2.336000           36.04369           29.98273           36.12164           29.19772
        2.340000           36.05503           30.10326           35.93430           29.27116
        2.344000           36.08564           30.23605           35.75916           29.37896
        2.348000           36.13650           30.37911           35.60024           29.52002
        2.352000           36.20836           30.53052           35.46124           29.69303
        2.356000           36.30174           30.68827           35.34531           29.89593
        2.360000           36.41695           30.85051           35.25563           30.12658
        2.364000           36.55400           31.01527           35.19531           30.38236
        2.368000           36.71291           31.18075           35.16654           30.66033
        2.372000           36.89329           31.34535           35.17167           30.95738
        2.376000           37.09484           31.50754           35.21228           31.27058
        2.380000           37.31695           31.66590           35.29007           31.59615
        2.384000           37.55935           31.81919           35.40600           31.93104
        2.388000           37.82134           31.96642           35.56059           32.27174
        2.392000           38.10241           32.10656           35.75456           32.61490
        2.396000           38.40219           32.23880           35.98782           32.95713
        2.400000           38.72019           32.36233           36.26030           33.29534
        2.404000           39.05619           32.47642           36.57164           33.62638
        2.408000           39.41011           32.58037           36.92118           33.94726
        2.412000           39.78175           32.67342           37.30828           34.25513
        2.416000           40.17113           32.75475           37.73181           34.54720
        2.420000           40.57856           32.82333           38.19087           34.82095
        2.424000           41.00382           32.87815           38.68424           35.07386
        2.428000           41.44732           32.91792           39.21088           35.30344
        2.432000           41.90917           32.94115           39.76951           35.50745
        2.436000           42.38946           32.94622           40.35862           35.68348
        2.440000           42.88782           32.93124           40.97713           35.82935
        2.444000           43.40421           32.89418           41.62339           35.94254
        2.448000           43.93817           32.83274           42.29576           36.02079
        2.452000           44.48895           32.74457           42.99267           36.06165
        2.456000           45.05524           32.62720           43.71184           36.06249
        2.460000           45.63581           32.47807           44.45125           36.02108
        2.464000           46.22877           32.29464           45.20814           35.93460
        2.468000           46.83173           32.07447           45.97968           35.80109
        2.472000           47.44226           31.81520           46.76266           35.61793
        2.476000           48.05724           31.51474           47.55333           35.38330
        2.480000           48.67313           31.17122           48.34766           35.09547
        2.484000           49.28623           30.78324           49.14145           34.75340
        2.488000           49.89260           30.34965           49.92997           34.35596
        2.492000           50.48776           29.86996           50.70870           33.90303
        2.496000           51.06755           29.34387           51.47291           33.39478
        2.500000           51.62729           28.77188           52.21780           32.83205
        2.504000           52.16268           28.15488           52.93905           32.21578
        2.508000           52.66910           27.49424           53.63219           31.54823
        2.512000           53.14233           26.79179           54.29326           30.83088
        2.516000           53.57829           26.05005           54.91859           30.06626
        2.520000           53.97306           25.27152           55.50488           29.25683
        2.524000           54.32312           24.45942           56.04860           28.40492
        2.528000           54.62506           23.61722           56.54728           27.51330
        2.532000           54.87588           22.74870           56.99733           26.58458
        2.536000           55.07286           21.85800           57.39665           25.62159
        2.540000           55.21395           20.94925           57.74212           24.62692
        2.544000           55.29692           20.02707           58.03078           23.60375
        2.548000           55.32034           19.09620           58.25969           22.55522
        2.552000           55.28300           18.16157           58.42591           21.48504
        2.556000           55.18435           17.22818           58.52670           20.39742
        2.560000           55.02424           16.30128           58.55915           19.29700
        2.564000           54.80260           15.38587           58.52072           18.18864
        2.568000           54.52027           14.48729           58.40995           17.07819
        2.572000           54.17854           13.61068           58.22467           15.97187
        2.576000           53.77897           12.76121           57.96445           14.87627
        2.580000           53.32400           11.94382           57.62886           13.79841
        2.584000           52.81606           11.16320           57.21933           12.74518
        2.588000           52.25855           10.42398           56.73706           11.72369
        2.592000           51.65488           9.730344           56.18506           10.74104
        2.596000           51.00933           9.086251           55.56676           9.803807
        2.600000           50.32627           8.495098           54.88648           8.918234
        2.604000           49.61057           7.960010           54.14944           8.090038
        2.608000           48.86731           7.483353           53.36110           7.324043
        2.612000           48.10197           7.067123           52.52822           6.624519
        2.616000           47.32000           6.712701           51.65724           5.994864
        2.620000           46.52713           6.420817           50.75513           5.437607
        2.624000           45.72894           6.191583           49.82876           4.954460
        2.628000           44.93111           6.024536           48.88560           4.546247
        2.632000           44.13895           5.918592           47.93219           4.212974
        2.636000           43.35771           5.872030           46.97573           3.953912
        2.640000           42.59226           5.882806           46.02210           3.767664
        2.644000           41.84707           5.948284           45.07779           3.652186
        2.648000           41.12638           6.065414           44.14845           3.604899
        2.652000           40.43377           6.230988           43.23887           3.622751
        2.656000           39.77243           6.441361           42.35411           3.702339
        2.660000           39.14523           6.692845           41.49797           3.839972
        2.664000           38.55446           6.981546           40.67419           4.031732
        2.668000           38.00195           7.303589           39.88586           4.273551
        2.672000           37.48925           7.654973           39.13577           4.561286
        2.676000           37.01730           8.031893           38.42560           4.890842
        2.680000           36.58681           8.430442           37.75745           5.258050
        2.684000           36.19810           8.846906           37.13256           5.658831
        2.688000           35.85128           9.277650           36.55194           6.089212
        2.692000           35.54611           9.719191           36.01614           6.545304
        2.696000           35.28211           10.16810           35.52569           7.023273
        2.700000           35.05851           10.62124           35.08043           7.519629
        2.704000           34.87443           11.07547           34.68039           8.030778
        2.708000           34.72869           11.52785           34.32524           8.553375
        2.712000           34.62002           11.97562           34.01456           9.084139
        2.716000           34.54689           12.41606           33.74752           9.619876
        2.720000           34.50746           12.84677           33.52323           10.15769
        2.724000           34.50001           13.26538           33.34082           10.69458
        2.728000           34.52238           13.66984           33.19883           11.22777
        2.732000           34.57235           14.05823           33.09611           11.75453
        2.736000           34.64740           14.42883           33.03102           12.27226
        2.740000           34.74512           14.78029           33.00175           12.77848
        2.744000           34.86279           15.11152           33.00641           13.27096
        2.748000           34.99756           15.42175           33.04292           13.74751
        2.752000           35.14669           15.71048           33.10902           14.20613
        2.756000           35.30743           15.97765           33.20204           14.64509
        2.760000           35.47695           16.22352           33.31933           15.06287
        2.764000           35.65258           16.44872           33.45805           15.45840
        2.768000           35.83197           16.65417           33.61524           15.83071
        2.772000           36.01267           16.84110           33.78778           16.17942
        2.776000           36.19283           17.01103           33.97259           16.50443
        2.780000           36.37062           17.16562           34.16670           16.80595
        2.784000           36.54465           17.30678           34.36692           17.08486
        2.788000           36.71384           17.43647           34.57056           17.34227
        2.792000           36.87736           17.55672           34.77502           17.57963
        2.796000           37.03477           17.66962           34.97799           17.79903
        2.800000           37.18586           17.77714           35.17754           18.00255
        2.804000           37.33073           17.88128           35.37231           18.19251
        2.808000           37.46975           17.98382           35.56092           18.37158
        2.812000           37.60346           18.08651           35.74303           18.54241
        2.816000           37.73270           18.19096           35.91834           18.70759
        2.820000           37.85835           18.29857           36.08710           18.86963
        2.824000           37.98140           18.41067           36.25019           19.03094
        2.828000           38.10316           18.52833           36.40817           19.19361
        2.832000           38.22489           18.65253           36.56280           19.35956
        2.836000           38.34796           18.78417           36.71531           19.53041
        2.840000           38.47385           18.92381           36.86738           19.70731
        2.844000           38.60406           19.07203           37.02089           19.89132
        2.848000           38.74018           19.22921           37.17762           20.08308
        2.852000           38.88391           19.39551           37.33924           20.28304
        2.856000           39.03694           19.57104           37.50747           20.49158
        2.860000           39.20101           19.75570           37.68404           20.70865
        2.864000           39.37797           19.94918           37.87052           20.93428
        2.868000           39.56966           20.15098           38.06852           21.16832
        2.872000           39.77792           20.36042           38.27958           21.41052
        2.876000           40.00464           20.57656           38.50551           21.66073
        2.880000           40.25169           20.79825           38.74794           21.91856
        2.884000           40.52085           21.02408           39.00856           22.18344
        2.888000           40.81367           21.25239           39.28928           22.45491
        2.892000           41.13196           21.48124           39.59203           22.73204
        2.896000           41.47690           21.70850           39.91904           23.01381
        2.900000           41.84995           21.93182           40.27238           23.29892
        2.904000           42.25182           22.14863           40.65427           23.58574
        2.908000           42.68360           22.35624           41.06695           23.87212
        2.912000           43.14553           22.55165           41.51226           24.15582
        2.916000           43.63794           22.73192           41.99252           24.43371
        2.920000           44.16068           22.89384           42.50927           24.70275
        2.924000           44.71347           23.03431           43.06389           24.95926
        2.928000           45.29558           23.15005           43.65774           25.19911
        2.932000           45.90582           23.23779           44.29110           25.41802
        2.936000           46.54306           23.29431           44.96463           25.61139
        2.940000           47.20532           23.31635           45.67744           25.77399
        2.944000           47.89079           23.30081           46.42874           25.90104
        2.948000           48.59695           23.24459           47.21705           25.98708
        2.952000           49.32103           23.14477           48.03951           26.02705
        2.956000           50.05987           22.99849           48.89340           26.01568
        2.960000           50.80980           22.80326           49.77449           25.94817
        2.964000           51.56696           22.55679           50.67827           25.81981
        2.968000           52.32718           22.25701           51.59928           25.62655
        2.972000           53.08561           21.90236           52.53123           25.36474
        2.976000           53.83704           21.49175           53.46761           25.03159
        2.980000           54.57638           21.02459           54.40074           24.62506
        2.984000           55.29793           20.50082           55.32338           24.14401
        2.988000           55.99590           19.92124           56.22705           23.58851
        2.992000           56.66460           19.28717           57.10394           22.95932
        2.996000           57.29817           18.60083           57.94607           22.25859
        3.000000           57.89102           17.86515           58.74539           21.48941
        3.004000           58.43797           17.08383           59.49497           20.65583
        3.008000           58.93384           16.26138           60.18707           19.76333
        3.012000           59.37451           15.40280           60.81593           18.81744
        3.016000           59.75620           14.51385           61.37634           17.82522
        3.020000           60.07590           13.60072           61.86356           16.79397
        3.024000           60.33144           12.67009           62.27374           15.73165
        3.028000           60.52150           11.72883           62.60465           14.64651
        3.032000           60.64563           10.78401           62.85442           13.54723
        3.036000           60.70453           9.842512           63.02311           12.44228
        3.040000           60.69960           8.911281           63.11080           11.34029
        3.044000           60.63320           7.996884           63.11942           10.24969
        3.048000           60.50854           7.105529           63.05174           9.178568
        3.052000           60.32979           6.242808           62.91126           8.134520
        3.056000           60.10154           5.413769           62.70242           7.124755
        3.060000           59.82885           4.622493           62.43105           6.155384
        3.064000           59.51764           3.872487           62.10255           5.232058
        3.068000           59.17384           3.166213           61.72394           4.359500
        3.072000           58.80358           2.505329           61.30201           3.541432
        3.076000           58.41317           1.890647           60.84455           2.780716
        3.080000           58.00850           1.321878           60.35894           2.078987
        3.084000           57.59552           0.798112           59.85217           1.437094
        3.088000           57.17970           0.317585           59.33271           0.854866
        3.092000           56.76603          -0.122140           58.80704           0.331169
        3.096000           56.35894          -0.524088           58.28235          -0.135980
        3.100000           55.96247          -0.891805           57.76535          -0.549440
        3.104000           55.57977          -1.229252           57.26161          -0.912885
        3.108000           55.21310          -1.540660           56.77694          -1.230609
        3.112000           54.86454          -1.830364           56.31565          -1.507538
        3.116000           54.53522          -2.102967           55.88188          -1.749074
        3.120000           54.22543          -2.362797           55.47848          -1.961084
        3.124000           53.93489          -2.614354           55.10794          -2.149704
        3.128000           53.66277          -2.861788           54.77115          -2.321297
        3.132000           53.40747          -3.108975           54.46901          -2.482208
        3.136000           53.16707          -3.359481           54.20055          -2.638787
        3.140000           52.93876          -3.616416           53.96415          -2.797198
        3.144000           52.71975          -3.882523           53.75785          -2.963204
        3.148000           52.50657          -4.159905           53.57802          -3.142226
        3.152000           52.29550          -4.450057           53.42075          -3.339079
        3.156000           52.08263          -4.753892           53.28138          -3.557808
        3.160000           51.86392          -5.071695           53.15411          -3.801723
        3.164000           51.63537          -5.402955           53.03348          -4.073188
        3.168000           51.39292          -5.746506           52.91288          -4.373510
        3.172000           51.13283          -6.100481           52.78618          -4.703022
        3.176000           50.85169          -6.462433           52.64661          -5.060863
        3.180000           50.54644          -6.829219           52.48800          -5.445104
        3.184000           50.21449          -7.197112           52.30455          -5.852683
        3.188000           49.85402          -7.561999           52.09082          -6.279550
        3.192000           49.46389          -7.919418           51.84226          -6.720782
        3.196000           49.04360          -8.264690           51.55515          -7.170696
        3.200000           48.59362          -8.593062           51.22702          -7.622975
        3.204000           48.11502          -8.899750           50.85620          -8.070934
        3.208000           47.60983          -9.180334           50.44242          -8.507732
        3.212000           47.08070          -9.430480           49.98646          -8.926552
        3.216000           46.53108          -9.646564           49.49039          -9.320883
        3.220000           45.96481          -9.825414           48.95699          -9.684567
        3.224000           45.38631          -9.964556           48.39032          -10.01215
        3.228000           44.80037          -10.06212           47.79525          -10.29893
        3.232000           44.21195          -10.11715           47.17709          -10.54104
        3.236000           43.62601          -10.12915           46.54159          -10.73553
        3.240000           43.04737          -10.09880           45.89470          -10.88052
        3.244000           42.48095          -10.02713           45.24267          -10.97495
        3.248000           41.93112          -9.915940           44.59173          -11.01879
        3.252000           41.40211          -9.767573           43.94782          -11.01278
        3.256000           40.89769          -9.584991           43.31647          -10.95854
        3.260000           40.42079          -9.371339           42.70277          -10.85837
        3.264000           39.97428          -9.130252           42.11162          -10.71504
        3.268000           39.56025          -8.865504           41.54699          -10.53205
        3.272000           39.18025          -8.581094           41.01258          -10.31300
        3.276000           38.83543          -8.281060           40.51146          -10.06209
        3.280000           38.52622          -7.969438           40.04599          -9.783461
        3.284000           38.25260          -7.650118           39.61794          -9.481604
        3.288000           38.01405          -7.327002           39.22859          -9.160935
        3.292000           37.80965          -7.003670           38.87877          -8.825976
        3.296000           37.63801          -6.683502           38.56834          -8.481078
        3.300000           37.49734          -6.369656           38.29738          -8.130576
        3.304000           37.38562          -6.064887           38.06471          -7.778591
        3.308000           37.30044          -5.771484           37.86919          -7.429010
        3.312000           37.23915          -5.491482           37.70897          -7.085515
        3.316000           37.19914          -5.226398           37.58213          -6.751358
        3.320000           37.17747          -4.977347           37.48611          -6.429612
        3.324000           37.17134          -4.744943           37.41795          -6.122883
        3.328000           37.17791          -4.529515           37.37483          -5.833201
        3.332000           37.19452          -4.330635           37.35338          -5.562274
        3.336000           37.21862          -4.147845           37.35034          -5.311237
        3.340000           37.24802          -3.980187           37.36213          -5.080735
        3.344000           37.28060          -3.826277           37.38546          -4.870828
        3.348000           37.31478          -3.684655           37.41719          -4.681129
        3.352000           37.34941          -3.553583           37.45406          -4.510672
        3.356000           37.38344          -3.431183           37.49341          -4.358087
        3.360000           37.41645          -3.315642           37.53296          -4.221601
        3.364000           37.44845          -3.205073           37.57083          -4.099152
        3.368000           37.47971          -3.097803           37.60524          -3.988476
        3.372000           37.51094          -2.992184           37.63547          -3.887079
        3.376000           37.54298          -2.886910           37.66114          -3.792550
        3.380000           37.57717          -2.781018           37.68215          -3.702503
        3.384000           37.61488          -2.673750           37.69913          -3.614735
        3.388000           37.65761          -2.564735           37.71300          -3.527292
        3.392000           37.70692          -2.454020           37.72500          -3.438501
        3.396000           37.76435          -2.341889           37.73677          -3.347137
        3.400000           37.83125          -2.229076           37.74991          -3.252305
        3.404000           37.90888          -2.116520           37.76617          -3.153582
        3.408000           37.99829          -2.005427           37.78750          -3.050905
        3.412000           38.10014          -1.897179           37.81548          -2.944609
        3.416000           38.21504          -1.793338           37.85163          -2.835316
        3.420000           38.34319          -1.695375           37.89721          -2.723956
        3.424000           38.48452          -1.604873           37.95345          -2.611588
        3.428000           38.63876          -1.523362           38.02103          -2.499459
        3.432000           38.80543          -1.452274           38.10068          -2.388847
        3.436000           38.98383          -1.392855           38.19251          -2.280997
        3.440000           39.17318          -1.346285           38.29667          -2.177133
        3.444000           39.37258          -1.313570           38.41347          -2.078402
        3.448000           39.58113          -1.295548           38.54244          -1.985831
        3.452000           39.79792          -1.293016           38.68359          -1.900394
        3.456000           40.02205          -1.306604           38.83679          -1.822947
        3.460000           40.25259          -1.336955           39.00184          -1.754377
        3.464000           40.48871          -1.384690           39.17878          -1.695516
        3.468000           40.72946          -1.450353           39.36752          -1.647254
        3.472000           40.97403          -1.534625           39.56804          -1.610635
        3.476000           41.22145          -1.638112           39.78006          -1.586747
        3.480000           41.47076          -1.761544           40.00396          -1.576919
        3.484000           41.72068          -1.905630           40.23915          -1.582583
        3.488000           41.97015          -2.071119           40.48547          -1.605374
        3.492000           42.21762          -2.258725           40.74233          -1.647063
        3.496000           42.46161          -2.469020           41.00887          -1.709523
        3.500000           42.70012          -2.702587           41.28404          -1.794720
        3.504000           42.93129          -2.959740           41.56608          -1.904581
        3.508000           43.15302          -3.240785           41.85330          -2.041071
        3.512000           43.36304          -3.545598           42.14333          -2.205944
        3.516000           43.55885          -3.873867           42.43378          -2.400797
        3.520000           43.73805          -4.225081           42.72128          -2.626963
        3.524000           43.89824          -4.598331           43.00261          -2.885396
        3.528000           44.03671          -4.992333           43.27407          -3.176615
        3.532000           44.15117          -5.405644           43.53186          -3.500713
        3.536000           44.23932          -5.836292           43.77170          -3.857160
        3.540000           44.29885          -6.281964           43.98951          -4.244802
        3.544000           44.32785          -6.740181           44.18108          -4.661885
        3.548000           44.32450          -7.207894           44.34236          -5.105861
        3.552000           44.28751          -7.681960           44.46981          -5.573650
        3.556000           44.21588          -8.158805           44.55969          -6.061428
        3.560000           44.10923          -8.634719           44.60931          -6.564739
        3.564000           43.96733          -9.105833           44.61653          -7.078649
        3.568000           43.79095          -9.568244           44.57994          -7.597761
        3.572000           43.58109          -10.01802           44.49862          -8.116343
        3.576000           43.33954          -10.45155           44.37344          -8.628751
        3.580000           43.06865          -10.86526           44.20557          -9.129246
        3.584000           42.77117          -11.25605           43.99715          -9.612336
        3.588000           42.45039          -11.62135           43.75149          -10.07312
        3.592000           42.11009          -11.95903           43.47244          -10.50711
        3.596000           41.75420          -12.26761           43.16484          -10.91074
        3.600000           41.38667          -12.54639           42.83357          -11.28131
        3.604000           41.01165          -12.79513           42.48432          -11.61701
        3.608000           40.63318          -13.01446           42.12250          -11.91701
        3.612000           40.25508          -13.20548           41.75388          -12.18149
        3.616000           39.88078          -13.37000           41.38339          -12.41160
        3.620000           39.51326          -13.51024           41.01636          -12.60928
        3.624000           39.15523          -13.62887           40.65688          -12.77738
        3.628000           38.80859          -13.72891           40.30871          -12.91916
        3.632000           38.47479          -13.81357           39.97496          -13.03858
        3.636000           38.15473          -13.88615           39.65756          -13.13985
        3.640000           37.84847          -13.95009           39.35811          -13.22740
        3.644000           37.55577          -14.00854           39.07679          -13.30576
        3.648000           37.27551          -14.06469           38.81330          -13.37934
        3.652000           37.00624          -14.12119           38.56687          -13.45232
        3.656000           36.74597          -14.18058           38.33523          -13.52856
        3.660000           36.49221          -14.24468           38.11585          -13.61136
        3.664000           36.24234          -14.31504           37.90574          -13.70354
        3.668000           35.99328          -14.39243           37.70142          -13.80702
        3.672000           35.74192          -14.47705           37.49865          -13.92332
        3.676000           35.48526          -14.56855           37.29366          -14.05287
        3.680000           35.22038          -14.66584           37.08232          -14.19544
        3.684000           34.94452          -14.76726           36.86066          -14.34995
        3.688000           34.65525          -14.87062           36.62504          -14.51446
        3.692000           34.35079          -14.97328           36.37204          -14.68650
        3.696000           34.02980          -15.07223           36.09902          -14.86290
        3.700000           33.69156          -15.16420           35.80403          -15.04002
        3.704000           33.33599          -15.24575           35.48579          -15.21387
        3.708000           32.96367          -15.31359           35.14328          -15.38030
        3.712000           32.57574          -15.36450           34.77732          -15.53509
        3.716000           32.17406          -15.39548           34.38833          -15.67415
        3.720000           31.76086          -15.40395           33.97831          -15.79358
        3.724000           31.33879          -15.38783           33.54947          -15.89001
        3.728000           30.91096          -15.34538           33.10484          -15.96034
        3.732000           30.48042          -15.27553           32.64753          -16.00223
        3.736000           30.05053          -15.17766           32.18114          -16.01379
        3.740000           29.62457          -15.05175           31.70953          -15.99374
        3.744000           29.20577          -14.89815           31.23642          -15.94164
        3.748000           28.79711          -14.71777           30.76570          -15.85737
        3.752000           28.40151          -14.51196           30.30092          -15.74157
        3.756000           28.02135          -14.28219           29.84557          -15.59520
        3.760000           27.65898          -14.03039           29.40282          -15.41980
        3.764000           27.31630          -13.75865           28.97544          -15.21709
        3.768000           26.99489          -13.46926           28.56585          -14.98926
        3.772000           26.69600          -13.16449           28.17624          -14.73858
        3.776000           26.42069          -12.84680           27.80821          -14.46760
        3.780000           26.16947          -12.51863           27.46317          -14.17878
        3.784000           25.94272          -12.18228           27.14218          -13.87475
        3.788000           25.74055          -11.84016           26.84598          -13.55811
        3.792000           25.56274          -11.49458           26.57467          -13.23141
        3.796000           25.40895          -11.14757           26.32836          -12.89709
        3.800000           25.27848          -10.80126           26.10698          -12.55751
        3.804000           25.17060          -10.45747           25.90995          -12.21484
        3.808000           25.08439          -10.11794           25.73663          -11.87121
        3.812000           25.01867          -9.784243           25.58633          -11.52841
        3.816000           24.97233          -9.457744           25.45793          -11.18822
        3.820000           24.94411          -9.139726           25.35044          -10.85212
        3.824000           24.93266          -8.831130           25.26276          -10.52141
        3.828000           24.93664          -8.532887           25.19360          -10.19721
        3.832000           24.95471          -8.245706           25.14175          -9.880550
        3.836000           24.98553          -7.970123           25.10620          -9.572219
        3.840000           25.02774          -7.706665           25.08544          -9.272921
        3.844000           25.08001          -7.455651           25.07855          -8.983208
        3.848000           25.14102          -7.217296           25.08435          -8.703511
        3.852000           25.20957          -6.991725           25.10157          -8.434320
        3.856000           25.28434          -6.778990           25.12944          -8.175912
        3.860000           25.36405          -6.579131           25.16671          -7.928622
        3.864000           25.44743          -6.391951           25.21236          -7.692744
        3.868000           25.53334          -6.217218           25.26523          -7.468431
        3.872000           25.62038          -6.054615           25.32432          -7.255877
        3.876000           25.70741          -5.903637           25.38827          -7.055145
        3.880000           25.79318          -5.763627           25.45610          -6.866180
        3.884000           25.87655          -5.633803           25.52624          -6.688807
        3.888000           25.95647          -5.513307           25.59760          -6.522731
        3.892000           26.03201          -5.400904           25.66885          -6.367392
        3.896000           26.10235          -5.295417           25.73881          -6.222111
        3.900000           26.16691          -5.195442           25.80618          -6.086000
        3.904000           26.22522          -5.099531           25.87027          -5.957945
        3.908000           26.27712          -5.006093           25.92989          -5.836776
        3.912000           26.32265          -4.913505           25.98452          -5.721011
        3.916000           26.36220          -4.820259           26.03395          -5.609272
        3.920000           26.39628          -4.724741           26.07780          -5.499972
        3.924000           26.42568          -4.625505           26.11605          -5.391544
        3.928000           26.45155          -4.521315           26.14932          -5.282519
        3.932000           26.47511          -4.410874           26.17798          -5.171427
        3.936000           26.49784          -4.293335           26.20308          -5.056912
        3.940000           26.52138          -4.167857           26.22549          -4.937788
        3.944000           26.54753          -4.034019           26.24634          -4.812984
        3.948000           26.57814          -3.891573           26.26702          -4.681620
        3.952000           26.61515          -3.740585           26.28922          -4.543027
        3.956000           26.66050          -3.581443           26.31432          -4.396760
        3.960000           26.71610          -3.414765           26.34398          -4.242530
        3.964000           26.78391          -3.241554           26.38045          -4.080319
        3.968000           26.86556          -3.063056           26.42510          -3.910465
        3.972000           26.96274          -2.880788           26.48003          -3.733467
        3.976000           27.07685          -2.696580           26.54696          -3.550182
        3.980000           27.20903          -2.512460           26.62766          -3.361669
        3.984000           27.36034          -2.330617           26.72408          -3.169384
        3.988000           27.53131          -2.153510           26.83725          -2.974974
        3.992000           27.72236          -1.983712           26.96881          -2.780443
        3.996000           27.93338          -1.823834           27.11995          -2.587965
        4.000000           28.16407          -1.676607           27.29112          -2.400073
# 
# 10/28/2023 at 15:31 yambo @ unimi-XPS-8930 [start]
# 10/28/2023 at 15:31                        [end]
#  
# Timing   [Min/Max/Average]: 12s/12s/12s
#
# .-Input file  yambo.in
# | optics                           # [R] Linear Response optical properties
# | bss                              # [R] BSE solver
# | bse                              # [R][BSE] Bethe Salpeter Equation.
# | tddft                            # [R][K] Use TDDFT kernel
# | ElecTemp= 0.025861         eV    # Electronic Temperature
# | BoseTemp= 0.025861         eV    # Bosonic Temperature
# | FFTGvecs=  603             RL    # [FFT] Plane-waves
# | BS_nCPU_LinAlg_INV= 1            # [PARALLEL] CPUs for Linear Algebra (if -1 it is automatically set)
# | BS_nCPU_LinAlg_DIAGO= 1          # [PARALLEL] CPUs for Linear Algebra (if -1 it is automatically set)
# | X_Threads= 1                     # [OPENMP/X] Number of threads for response functions
# | DIP_Threads= 1                   # [OPENMP/X] Number of threads for dipoles
# | K_Threads= 1                     # [OPENMP/BSK] Number of threads for response functions
# | BSKmod= "ALDA"                   # [BSE] IP/Hartree/HF/ALDA/SEX/BSfxc
# | BSEmod= "resonant"               # [BSE] resonant/retarded/coupling
# | BSSmod= "d"                      # [BSS] (h)aydock/(d)iagonalization/(s)lepc/(i)nversion/(t)ddft`
# | DipComputed= "R V P Spin"        # [DIP] [default R P V; extra P2 Spin Orb]
# | BSENGexx= 1157             RL    # [BSK] Exchange components
# | % BSEQptR
# |  1 | 2 |                             # [BSK] Transferred momenta range
# | %
# | % BSEBands
# |   2 |  6 |                           # [BSK] Bands range
# | %
# | % BEnRange
# | -2.000000 | 4.000000 |         eV    # [BSS] Energy range
# | %
# | % BDmRange
# |  0.100000 | 0.100000 |         eV    # [BSS] Damping range
# | %
# | BEnSteps= 1501                   # [BSS] Energy steps
# | % BLongDir
# |  0.000000 | 1.000000 | 0.000000 |        # [BSS] [cc] Electric Field versor
# | %
# | BSEprop= " jdos magn"            # [BSS] Can be any among abs/jdos/kerr/asymm/anHAll/magn/dich/photolum/esrt
# | BSEdips= "none"                  # [BSS] Can be "trace/none" or "xy/xz/yz" to define off-diagonal rotation plane
# | #WRbsWF                        # [BSS] Write to disk excitonic the WFs
