#                                                                     
# :   :::   :::     ::::    ::::  :::::::::   ::::::::                
# :+:   :+: :+: :+:   +:+:+: :+:+:+ :+:    :+: :+:    :+              
#  +:+ +:+ +:+   +:+  +:+ +:+:+ +:+ +:+    +:+ +:+    +:+             
#   +#++: +#++:++#++: +#+  +:+  +#+ +#++:++#+  +#+    +:+             
#    +#+  +#+     +#+ +#+       +#+ +#+    +#+ +#+    +#+             
#    #+#  #+#     #+# #+#       #+# #+#    #+# #+#    #+#             
#    ###  ###     ### ###       ### #########   ########              
#                                                                     
#                                                                     
# Version 5.2.0 Revision 22885 Hash (prev commit) 41fc9d87d4          
#                Branch is phys-dichroism                             
#         MPI+OpenMP+SLK+SLEPC+HDF5_MPI_IO Build                      
#                http://www.yambo-code.org                            
#
# Joint Density of states @ Q(1):   0.00000000     0.999999975E-5   0.00000000    [q->0 direction]
#
# [GEN] GF Energies                               : Perdew, Burke & Ernzerhof(X)+Perdew, Burke & Ernzerhof(C)
# [GEN] Green`s Function                          : Resonant
#
# [GEN] Gauge                                     : Length
# [GEN] [r,Vnl] included                          : yes
#
# DIP band range                                  :   2   6
# DIP band range limits                           :   6   2
# DIP e/h energy range                            :  -1.00000000     -1.00000000    [eV]
# RL vectors in the sum                           :   603
# [r,Vnl] included                                : yes
# Bands ordered                                   : yes
# Direct v evaluation                             : no
# Approach used                                   : G-space v
# Dipoles computed                                : R V P
# Wavefunctions                                   : Perdew, Burke & Ernzerhof(X)+Perdew, Burke & Ernzerhof(C)
#
#
# [K] Identifier                                  :   8810
# [K] Dimension                                   :   694
# [K] Bands                                       :   2   6
# [K] Exchange res                                : yes
# [K] Correlation res                             : no
# [K] Kernel`s coupling                           : no
# [K] Exchange cpl                                : no
# [K] Correlation cpl                             : no
# [K] W interaction is bare                       : no
# [K] ALDA kernel in R-space                      : yes
# [K] RL vectors exchange                         :  1157
# [K] E/h energy range                            :  -1.00000000     -1.00000000    [eV]
# [K] Coupling range                              :   100.000000      100.000000    [o/o]
# [X] Response Kind                               : BAR
#
#
#    E[1] [eV]          Im(jdos)           Re(jdos)           Im(jdos_o)         Re(jdos_o)
#
       -2.000000           0.231422           9.744818           0.230669           9.729330
       -1.996000           0.231915           9.754062           0.231159           9.738568
       -1.992000           0.232410           9.763333           0.231652           9.747820
       -1.988000           0.232907           9.772622           0.232146           9.757072
       -1.984000           0.233405           9.781944           0.232642           9.766364
       -1.980000           0.233905           9.791270           0.233139           9.775661
       -1.976000           0.234407           9.800612           0.233640           9.784941
       -1.972000           0.234911           9.809985           0.234141           9.794300
       -1.968000           0.235416           9.819375           0.234644           9.803667
       -1.964000           0.235924           9.828794           0.235148           9.813041
       -1.960000           0.236432           9.838223           0.235655           9.822455
       -1.956000           0.236943           9.847663           0.236164           9.831862
       -1.952000           0.237456           9.857154           0.236674           9.841308
       -1.948000           0.237971           9.866645           0.237185           9.850765
       -1.944000           0.238487           9.876151           0.237699           9.860271
       -1.940000           0.239006           9.885704           0.238216           9.869781
       -1.936000           0.239526           9.895254           0.238734           9.879292
       -1.932000           0.240048           9.904823           0.239252           9.888841
       -1.928000           0.240572           9.914425           0.239774           9.898374
       -1.924000           0.241098           9.924029           0.240298           9.907980
       -1.920000           0.241626           9.933676           0.240823           9.917588
       -1.916000           0.242155           9.943336           0.241350           9.927214
       -1.912000           0.242687           9.953026           0.241879           9.936888
       -1.908000           0.243221           9.962708           0.242410           9.946518
       -1.904000           0.243756           9.972436           0.242943           9.956211
       -1.900000           0.244294           9.982181           0.243478           9.965940
       -1.896000           0.244833           9.991953           0.244014           9.975680
       -1.892000           0.245375           10.00174           0.244554           9.985409
       -1.888000           0.245918           10.01155           0.245094           9.995198
       -1.884000           0.246463           10.02138           0.245637           10.00502
       -1.880000           0.247011           10.03123           0.246182           10.01480
       -1.876000           0.247561           10.04110           0.246729           10.02467
       -1.872000           0.248112           10.05100           0.247278           10.03453
       -1.868000           0.248666           10.06092           0.247828           10.04438
       -1.864000           0.249221           10.07086           0.248382           10.05432
       -1.860000           0.249779           10.08082           0.248937           10.06424
       -1.856000           0.250339           10.09081           0.249493           10.07419
       -1.852000           0.250901           10.10082           0.250053           10.08420
       -1.848000           0.251465           10.11084           0.250614           10.09416
       -1.844000           0.252031           10.12090           0.251178           10.10418
       -1.840000           0.252599           10.13098           0.251743           10.11425
       -1.836000           0.253169           10.14109           0.252309           10.12428
       -1.832000           0.253743           10.15119           0.252880           10.13438
       -1.828000           0.254317           10.16134           0.253452           10.14449
       -1.824000           0.254894           10.17150           0.254026           10.15461
       -1.820000           0.255473           10.18169           0.254601           10.16475
       -1.816000           0.256055           10.19191           0.255180           10.17491
       -1.812000           0.256638           10.20214           0.255762           10.18513
       -1.808000           0.257224           10.21241           0.256344           10.19537
       -1.804000           0.257812           10.22267           0.256929           10.20562
       -1.800000           0.258402           10.23299           0.257516           10.21588
       -1.796000           0.258995           10.24331           0.258106           10.22618
       -1.792000           0.259590           10.25367           0.258698           10.23650
       -1.788000           0.260186           10.26405           0.259291           10.24683
       -1.784000           0.260786           10.27445           0.259888           10.25720
       -1.780000           0.261387           10.28487           0.260486           10.26760
       -1.776000           0.261992           10.29531           0.261088           10.27799
       -1.772000           0.262598           10.30578           0.261691           10.28843
       -1.768000           0.263206           10.31627           0.262297           10.29889
       -1.764000           0.263817           10.32678           0.262905           10.30941
       -1.760000           0.264431           10.33735           0.263515           10.31989
       -1.756000           0.265047           10.34792           0.264128           10.33043
       -1.752000           0.265665           10.35851           0.264743           10.34098
       -1.748000           0.266286           10.36912           0.265360           10.35154
       -1.744000           0.266909           10.37977           0.265980           10.36219
       -1.740000           0.267534           10.39045           0.266603           10.37284
       -1.736000           0.268163           10.40114           0.267228           10.38345
       -1.732000           0.268793           10.41185           0.267855           10.39414
       -1.728000           0.269426           10.42261           0.268484           10.40485
       -1.724000           0.270061           10.43336           0.269116           10.41556
       -1.720000           0.270700           10.44416           0.269752           10.42631
       -1.716000           0.271340           10.45497           0.270389           10.43709
       -1.712000           0.271983           10.46582           0.271028           10.44792
       -1.708000           0.272629           10.47670           0.271671           10.45872
       -1.704000           0.273277           10.48761           0.272315           10.46963
       -1.700000           0.273928           10.49850           0.272962           10.48049
       -1.696000           0.274581           10.50946           0.273613           10.49140
       -1.692000           0.275238           10.52043           0.274266           10.50235
       -1.688000           0.275896           10.53144           0.274921           10.51331
       -1.684000           0.276558           10.54246           0.275580           10.52427
       -1.680000           0.277222           10.55353           0.276240           10.53531
       -1.676000           0.277888           10.56459           0.276903           10.54636
       -1.672000           0.278557           10.57571           0.277568           10.55742
       -1.668000           0.279230           10.58682           0.278237           10.56851
       -1.664000           0.279904           10.59799           0.278909           10.57963
       -1.660000           0.280582           10.60917           0.279584           10.59077
       -1.656000           0.281262           10.62039           0.280259           10.60194
       -1.652000           0.281946           10.63164           0.280940           10.61315
       -1.648000           0.282632           10.64291           0.281622           10.62438
       -1.644000           0.283320           10.65419           0.282307           10.63563
       -1.640000           0.284012           10.66552           0.282996           10.64691
       -1.636000           0.284706           10.67686           0.283686           10.65823
       -1.632000           0.285404           10.68826           0.284380           10.66957
       -1.628000           0.286104           10.69965           0.285076           10.68096
       -1.624000           0.286807           10.71108           0.285776           10.69233
       -1.620000           0.287513           10.72255           0.286479           10.70376
       -1.616000           0.288222           10.73404           0.287183           10.71519
       -1.612000           0.288934           10.74557           0.287891           10.72666
       -1.608000           0.289649           10.75711           0.288603           10.73817
       -1.604000           0.290367           10.76867           0.289317           10.74970
       -1.600000           0.291088           10.78030           0.290034           10.76128
       -1.596000           0.291811           10.79193           0.290755           10.77284
       -1.592000           0.292539           10.80359           0.291477           10.78449
       -1.588000           0.293269           10.81527           0.292204           10.79612
       -1.584000           0.294003           10.82699           0.292932           10.80780
       -1.580000           0.294739           10.83874           0.293665           10.81950
       -1.576000           0.295479           10.85052           0.294401           10.83124
       -1.572000           0.296221           10.86232           0.295139           10.84304
       -1.568000           0.296966           10.87418           0.295880           10.85481
       -1.564000           0.297715           10.88604           0.296625           10.86659
       -1.560000           0.298467           10.89792           0.297373           10.87845
       -1.556000           0.299223           10.90986           0.298125           10.89037
       -1.552000           0.299981           10.92182           0.298880           10.90226
       -1.548000           0.300743           10.93379           0.299637           10.91420
       -1.544000           0.301508           10.94580           0.300398           10.92618
       -1.540000           0.302276           10.95786           0.301163           10.93823
       -1.536000           0.303048           10.96995           0.301929           10.95023
       -1.532000           0.303823           10.98206           0.302700           10.96229
       -1.528000           0.304602           10.99418           0.303475           10.97438
       -1.524000           0.305384           11.00636           0.304253           10.98650
       -1.520000           0.306169           11.01856           0.305035           10.99868
       -1.516000           0.306958           11.03081           0.305819           11.01083
       -1.512000           0.307749           11.04306           0.306606           11.02306
       -1.508000           0.308545           11.05536           0.307398           11.03534
       -1.504000           0.309344           11.06768           0.308192           11.04760
       -1.500000           0.310147           11.08005           0.308990           11.05992
       -1.496000           0.310953           11.09244           0.309792           11.07229
       -1.492000           0.311763           11.10485           0.310598           11.08463
       -1.488000           0.312576           11.11732           0.311407           11.09707
       -1.484000           0.313394           11.12980           0.312219           11.10950
       -1.480000           0.314214           11.14235           0.313036           11.12200
       -1.476000           0.315038           11.15490           0.313854           11.13447
       -1.472000           0.315867           11.16748           0.314678           11.14701
       -1.468000           0.316698           11.18010           0.315505           11.15958
       -1.464000           0.317534           11.19276           0.316336           11.17222
       -1.460000           0.318373           11.20545           0.317171           11.18480
       -1.456000           0.319216           11.21816           0.318009           11.19751
       -1.452000           0.320063           11.23090           0.318851           11.21025
       -1.448000           0.320913           11.24370           0.319697           11.22298
       -1.444000           0.321767           11.25652           0.320546           11.23575
       -1.440000           0.322626           11.26936           0.321401           11.24855
       -1.436000           0.323488           11.28226           0.322258           11.26138
       -1.432000           0.324355           11.29519           0.323119           11.27427
       -1.428000           0.325225           11.30815           0.323984           11.28718
       -1.424000           0.326099           11.32113           0.324854           11.30008
       -1.420000           0.326978           11.33415           0.325727           11.31306
       -1.416000           0.327859           11.34722           0.326605           11.32607
       -1.412000           0.328746           11.36033           0.327487           11.33915
       -1.408000           0.329637           11.37346           0.328371           11.35223
       -1.404000           0.330531           11.38662           0.329262           11.36537
       -1.400000           0.331429           11.39983           0.330155           11.37849
       -1.396000           0.332333           11.41308           0.331053           11.39169
       -1.392000           0.333240           11.42637           0.331954           11.40491
       -1.388000           0.334152           11.43966           0.332861           11.41817
       -1.384000           0.335067           11.45301           0.333771           11.43152
       -1.380000           0.335986           11.46639           0.334687           11.44479
       -1.376000           0.336911           11.47981           0.335604           11.45819
       -1.372000           0.337840           11.49327           0.336529           11.47162
       -1.368000           0.338773           11.50676           0.337458           11.48499
       -1.364000           0.339710           11.52030           0.338388           11.49850
       -1.360000           0.340653           11.53388           0.339325           11.51203
       -1.356000           0.341599           11.54748           0.340267           11.52562
       -1.352000           0.342549           11.56112           0.341212           11.53916
       -1.348000           0.343506           11.57481           0.342162           11.55279
       -1.344000           0.344466           11.58852           0.343116           11.56648
       -1.340000           0.345431           11.60228           0.344076           11.58019
       -1.336000           0.346399           11.61609           0.345039           11.59393
       -1.332000           0.347374           11.62992           0.346008           11.60769
       -1.328000           0.348353           11.64379           0.346979           11.62148
       -1.324000           0.349336           11.65770           0.347958           11.63537
       -1.320000           0.350324           11.67166           0.348942           11.64928
       -1.316000           0.351318           11.68566           0.349928           11.66321
       -1.312000           0.352315           11.69968           0.350921           11.67721
       -1.308000           0.353319           11.71376           0.351917           11.69122
       -1.304000           0.354326           11.72787           0.352919           11.70528
       -1.300000           0.355339           11.74201           0.353927           11.71939
       -1.296000           0.356357           11.75621           0.354939           11.73350
       -1.292000           0.357380           11.77045           0.355957           11.74766
       -1.288000           0.358407           11.78471           0.356977           11.76187
       -1.284000           0.359440           11.79904           0.358004           11.77612
       -1.280000           0.360479           11.81339           0.359036           11.79041
       -1.276000           0.361522           11.82779           0.360074           11.80480
       -1.272000           0.362571           11.84221           0.361116           11.81916
       -1.268000           0.363624           11.85670           0.362163           11.83356
       -1.264000           0.364683           11.87123           0.363216           11.84804
       -1.260000           0.365748           11.88580           0.364274           11.86252
       -1.256000           0.366818           11.90040           0.365337           11.87713
       -1.252000           0.367893           11.91507           0.366407           11.89168
       -1.248000           0.368973           11.92975           0.367480           11.90634
       -1.244000           0.370060           11.94447           0.368561           11.92101
       -1.240000           0.371152           11.95924           0.369645           11.93573
       -1.236000           0.372249           11.97406           0.370736           11.95048
       -1.232000           0.373352           11.98893           0.371833           11.96529
       -1.228000           0.374460           12.00384           0.372934           11.98015
       -1.224000           0.375575           12.01879           0.374042           11.99501
       -1.220000           0.376695           12.03378           0.375155           12.00998
       -1.216000           0.377821           12.04883           0.376275           12.02495
       -1.212000           0.378952           12.06391           0.377400           12.03994
       -1.208000           0.380089           12.07905           0.378530           12.05505
       -1.204000           0.381233           12.09421           0.379667           12.07013
       -1.200000           0.382383           12.10944           0.380811           12.08528
       -1.196000           0.383538           12.12471           0.381959           12.10051
       -1.192000           0.384700           12.14003           0.383113           12.11580
       -1.188000           0.385868           12.15538           0.384272           12.13109
       -1.184000           0.387041           12.17080           0.385438           12.14639
       -1.180000           0.388222           12.18626           0.386612           12.16181
       -1.176000           0.389409           12.20176           0.387791           12.17718
       -1.172000           0.390601           12.21734           0.388976           12.19272
       -1.168000           0.391799           12.23288           0.390169           12.20823
       -1.164000           0.393005           12.24854           0.391366           12.22382
       -1.160000           0.394217           12.26423           0.392571           12.23943
       -1.156000           0.395435           12.27995           0.393782           12.25510
       -1.152000           0.396660           12.29576           0.394999           12.27082
       -1.148000           0.397892           12.31160           0.396224           12.28655
       -1.144000           0.399130           12.32747           0.397455           12.30243
       -1.140000           0.400375           12.34339           0.398691           12.31829
       -1.136000           0.401627           12.35936           0.399935           12.33420
       -1.132000           0.402886           12.37541           0.401186           12.35014
       -1.128000           0.404151           12.39151           0.402443           12.36614
       -1.124000           0.405424           12.40765           0.403707           12.38225
       -1.120000           0.406703           12.42383           0.404980           12.39836
       -1.116000           0.407990           12.44005           0.406257           12.41453
       -1.112000           0.409284           12.45633           0.407542           12.43077
       -1.108000           0.410585           12.47269           0.408836           12.44702
       -1.104000           0.411893           12.48908           0.410135           12.46332
       -1.100000           0.413208           12.50550           0.411443           12.47970
       -1.096000           0.414531           12.52199           0.412758           12.49612
       -1.092000           0.415861           12.53854           0.414079           12.51260
       -1.088000           0.417199           12.55513           0.415408           12.52912
       -1.084000           0.418543           12.57180           0.416746           12.54571
       -1.080000           0.419897           12.58849           0.418090           12.56234
       -1.076000           0.421257           12.60524           0.419441           12.57902
       -1.072000           0.422626           12.62206           0.420801           12.59579
       -1.068000           0.424002           12.63893           0.422168           12.61259
       -1.064000           0.425386           12.65587           0.423542           12.62940
       -1.060000           0.426777           12.67285           0.424926           12.64634
       -1.056000           0.428178           12.68985           0.426315           12.66328
       -1.052000           0.429586           12.70697           0.427715           12.68027
       -1.048000           0.431001           12.72409           0.429122           12.69735
       -1.044000           0.432426           12.74128           0.430538           12.71451
       -1.040000           0.433858           12.75856           0.431960           12.73166
       -1.036000           0.435299           12.77587           0.433392           12.74889
       -1.032000           0.436748           12.79324           0.434833           12.76619
       -1.028000           0.438207           12.81066           0.436280           12.78358
       -1.024000           0.439673           12.82814           0.437738           12.80093
       -1.020000           0.441148           12.84570           0.439202           12.81840
       -1.016000           0.442632           12.86330           0.440676           12.83596
       -1.012000           0.444124           12.88095           0.442159           12.85352
       -1.008000           0.445625           12.89867           0.443650           12.87118
       -1.004000           0.447136           12.91645           0.445151           12.88890
       -1.000000           0.448655           12.93429           0.446660           12.90665
       -0.996000           0.450184           12.95218           0.448179           12.92444
       -0.992000           0.451723           12.97017           0.449706           12.94236
       -0.988000           0.453270           12.98818           0.451243           12.96025
       -0.984000           0.454825           13.00628           0.452789           12.97830
       -0.980000           0.456392           13.02441           0.454344           12.99637
       -0.976000           0.457967           13.04261           0.455909           13.01445
       -0.972000           0.459552           13.06089           0.457485           13.03266
       -0.968000           0.461147           13.07922           0.459067           13.05090
       -0.964000           0.462751           13.09762           0.460663           13.06927
       -0.960000           0.464366           13.11606           0.462264           13.08759
       -0.956000           0.465990           13.13459           0.463878           13.10604
       -0.952000           0.467625           13.15319           0.465501           13.12452
       -0.948000           0.469269           13.17183           0.467135           13.14313
       -0.944000           0.470925           13.19053           0.468778           13.16172
       -0.940000           0.472590           13.20934           0.470432           13.18043
       -0.936000           0.474266           13.22817           0.472097           13.19918
       -0.932000           0.475952           13.24707           0.473772           13.21805
       -0.928000           0.477650           13.26608           0.475458           13.23696
       -0.924000           0.479357           13.28512           0.477152           13.25591
       -0.920000           0.481076           13.30424           0.478860           13.27492
       -0.916000           0.482805           13.32343           0.480577           13.29399
       -0.912000           0.484545           13.34268           0.482304           13.31315
       -0.908000           0.486298           13.36201           0.484046           13.33242
       -0.904000           0.488061           13.38140           0.485794           13.35174
       -0.900000           0.489836           13.40086           0.487556           13.37108
       -0.896000           0.491621           13.42037           0.489332           13.39054
       -0.892000           0.493418           13.43999           0.491115           13.41001
       -0.888000           0.495228           13.45968           0.492913           13.42963
       -0.884000           0.497048           13.47941           0.494720           13.44931
       -0.880000           0.498882           13.49923           0.496540           13.46898
       -0.876000           0.500727           13.51916           0.498371           13.48880
       -0.872000           0.502584           13.53908           0.500218           13.50866
       -0.868000           0.504453           13.55913           0.502073           13.52863
       -0.864000           0.506336           13.57924           0.503942           13.54864
       -0.860000           0.508231           13.59942           0.505820           13.56876
       -0.856000           0.510138           13.61967           0.507716           13.58887
       -0.852000           0.512058           13.64002           0.509622           13.60914
       -0.848000           0.513991           13.66043           0.511540           13.62943
       -0.844000           0.515937           13.68092           0.513473           13.64988
       -0.840000           0.517895           13.70149           0.515418           13.67032
       -0.836000           0.519868           13.72214           0.517376           13.69084
       -0.832000           0.521854           13.74286           0.519348           13.71146
       -0.828000           0.523854           13.76367           0.521331           13.73219
       -0.824000           0.525868           13.78452           0.523330           13.75292
       -0.820000           0.527896           13.80549           0.525343           13.77384
       -0.816000           0.529936           13.82652           0.527367           13.79473
       -0.812000           0.531991           13.84765           0.529409           13.81578
       -0.808000           0.534061           13.86884           0.531462           13.83687
       -0.804000           0.536145           13.89014           0.533533           13.85803
       -0.800000           0.538244           13.91148           0.535616           13.87927
       -0.796000           0.540357           13.93291           0.537712           13.90065
       -0.792000           0.542486           13.95447           0.539826           13.92207
       -0.788000           0.544629           13.97607           0.541953           13.94352
       -0.784000           0.546788           13.99778           0.544097           13.96517
       -0.780000           0.548962           14.01960           0.546252           13.98682
       -0.776000           0.551152           14.04145           0.548424           14.00862
       -0.772000           0.553357           14.06340           0.550614           14.03045
       -0.768000           0.555578           14.08544           0.552820           14.05241
       -0.764000           0.557816           14.10757           0.555040           14.07441
       -0.760000           0.560070           14.12981           0.557275           14.09655
       -0.756000           0.562339           14.15212           0.559528           14.11874
       -0.752000           0.564627           14.17452           0.561796           14.14102
       -0.748000           0.566929           14.19700           0.564083           14.16342
       -0.744000           0.569249           14.21958           0.566385           14.18590
       -0.740000           0.571588           14.24225           0.568704           14.20839
       -0.736000           0.573942           14.26500           0.571040           14.23108
       -0.732000           0.576316           14.28788           0.573395           14.25382
       -0.728000           0.578705           14.31082           0.575765           14.27664
       -0.724000           0.581113           14.33386           0.578155           14.29957
       -0.720000           0.583540           14.35700           0.580562           14.32258
       -0.716000           0.585983           14.38021           0.582989           14.34565
       -0.712000           0.588447           14.40359           0.585430           14.36893
       -0.708000           0.590929           14.42699           0.587893           14.39225
       -0.704000           0.593430           14.45054           0.590372           14.41566
       -0.700000           0.595950           14.47414           0.592873           14.43915
       -0.696000           0.598490           14.49789           0.595391           14.46277
       -0.692000           0.601048           14.52169           0.597932           14.48648
       -0.688000           0.603627           14.54563           0.600489           14.51031
       -0.684000           0.606227           14.56964           0.603065           14.53418
       -0.680000           0.608845           14.59379           0.605664           14.55814
       -0.676000           0.611485           14.61800           0.608283           14.58227
       -0.672000           0.614146           14.64236           0.610922           14.60650
       -0.668000           0.616828           14.66681           0.613582           14.63077
       -0.664000           0.619531           14.69133           0.616262           14.65524
       -0.660000           0.622255           14.71600           0.618964           14.67977
       -0.656000           0.625002           14.74077           0.621688           14.70440
       -0.652000           0.627770           14.76563           0.624432           14.72911
       -0.648000           0.630562           14.79059           0.627200           14.75389
       -0.644000           0.633374           14.81571           0.629988           14.77892
       -0.640000           0.636210           14.84090           0.632801           14.80396
       -0.636000           0.639069           14.86622           0.635637           14.82914
       -0.632000           0.641953           14.89161           0.638495           14.85444
       -0.628000           0.644859           14.91717           0.641376           14.87986
       -0.624000           0.647790           14.94279           0.644282           14.90532
       -0.620000           0.650744           14.96858           0.647212           14.93094
       -0.616000           0.653724           14.99445           0.650167           14.95674
       -0.612000           0.656729           15.02047           0.653143           14.98258
       -0.608000           0.659758           15.04655           0.656148           15.00859
       -0.604000           0.662814           15.07279           0.659174           15.03470
       -0.600000           0.665893           15.09915           0.662231           15.06089
       -0.596000           0.669000           15.12564           0.665310           15.08720
       -0.592000           0.672136           15.15222           0.668417           15.11370
       -0.588000           0.675294           15.17895           0.671548           15.14020
       -0.584000           0.678484           15.20580           0.674707           15.16694
       -0.580000           0.681699           15.23275           0.677895           15.19375
       -0.576000           0.684942           15.25988           0.681109           15.22070
       -0.572000           0.688215           15.28708           0.684351           15.24778
       -0.568000           0.691515           15.31443           0.687622           15.27496
       -0.564000           0.694842           15.34193           0.690922           15.30227
       -0.560000           0.698204           15.36954           0.694250           15.32974
       -0.556000           0.701590           15.39727           0.697609           15.35734
       -0.552000           0.705010           15.42516           0.700995           15.38509
       -0.548000           0.708459           15.45315           0.704412           15.41292
       -0.544000           0.711940           15.48131           0.707863           15.44083
       -0.540000           0.715451           15.50961           0.711341           15.46901
       -0.536000           0.718995           15.53802           0.714852           15.49728
       -0.532000           0.722572           15.56657           0.718393           15.52568
       -0.528000           0.726180           15.59526           0.721968           15.55418
       -0.524000           0.729823           15.62411           0.725575           15.58290
       -0.520000           0.733498           15.65310           0.729218           15.61167
       -0.516000           0.737207           15.68221           0.732892           15.64063
       -0.512000           0.740951           15.71149           0.736600           15.66974
       -0.508000           0.744730           15.74089           0.740342           15.69897
       -0.504000           0.748546           15.77047           0.744121           15.72838
       -0.500000           0.752398           15.80017           0.747936           15.75789
       -0.496000           0.756284           15.83003           0.751784           15.78760
       -0.492000           0.760209           15.86008           0.755671           15.81742
       -0.488000           0.764170           15.89023           0.759593           15.84747
       -0.484000           0.768171           15.92053           0.763555           15.87759
       -0.480000           0.772211           15.95103           0.767553           15.90783
       -0.476000           0.776289           15.98166           0.771593           15.93831
       -0.472000           0.780407           16.01245           0.775669           15.96894
       -0.468000           0.784566           16.04340           0.779786           15.99969
       -0.464000           0.788764           16.07454           0.783945           16.03064
       -0.460000           0.793006           16.10580           0.788141           16.06177
       -0.456000           0.797290           16.13724           0.792380           16.09303
       -0.452000           0.801615           16.16886           0.796662           16.12443
       -0.448000           0.805984           16.20066           0.800988           16.15602
       -0.444000           0.810399           16.23261           0.805354           16.18776
       -0.440000           0.814858           16.26474           0.809768           16.21965
       -0.436000           0.819361           16.29701           0.814224           16.25174
       -0.432000           0.823910           16.32949           0.818727           16.28410
       -0.428000           0.828507           16.36214           0.823274           16.31659
       -0.424000           0.833153           16.39495           0.827872           16.34912
       -0.420000           0.837846           16.42798           0.832513           16.38196
       -0.416000           0.842587           16.46116           0.837208           16.41494
       -0.412000           0.847379           16.49454           0.841946           16.44810
       -0.408000           0.852223           16.52810           0.846739           16.48143
       -0.404000           0.857117           16.56185           0.851578           16.51503
       -0.400000           0.862063           16.59580           0.856471           16.54865
       -0.396000           0.867062           16.62992           0.861414           16.58260
       -0.392000           0.872114           16.66427           0.866412           16.61674
       -0.388000           0.877224           16.69876           0.871465           16.65104
       -0.384000           0.882386           16.73348           0.876569           16.68551
       -0.380000           0.887607           16.76841           0.881731           16.72018
       -0.376000           0.892884           16.80352           0.886951           16.75507
       -0.372000           0.898222           16.83881           0.892226           16.79011
       -0.368000           0.903616           16.87438           0.897563           16.82549
       -0.364000           0.909074           16.91012           0.902956           16.86100
       -0.360000           0.914592           16.94605           0.908412           16.89671
       -0.356000           0.920172           16.98222           0.913926           16.93260
       -0.352000           0.925816           17.01862           0.919501           16.96872
       -0.348000           0.931526           17.05519           0.925140           17.00507
       -0.344000           0.937299           17.09200           0.930849           17.04166
       -0.340000           0.943140           17.12904           0.936620           17.07847
       -0.336000           0.949049           17.16632           0.942457           17.11548
       -0.332000           0.955027           17.20380           0.948365           17.15271
       -0.328000           0.961073           17.24150           0.954340           17.19015
       -0.324000           0.967195           17.27946           0.960386           17.22789
       -0.320000           0.973387           17.31767           0.966502           17.26579
       -0.316000           0.979653           17.35608           0.972690           17.30396
       -0.312000           0.985997           17.39474           0.978953           17.34233
       -0.308000           0.992416           17.43366           0.985297           17.38096
       -0.304000           0.998911           17.47281           0.991710           17.41987
       -0.300000           1.005491           17.51221           0.998206           17.45900
       -0.296000           1.012150           17.55188           1.004777           17.49836
       -0.292000           1.018888           17.59177           1.011433           17.53805
       -0.288000           1.025713           17.63194           1.018167           17.57786
       -0.284000           1.032625           17.67240           1.024988           17.61807
       -0.280000           1.039620           17.71308           1.031896           17.65845
       -0.276000           1.046708           17.75405           1.038888           17.69913
       -0.272000           1.053886           17.79529           1.045970           17.73998
       -0.268000           1.061153           17.83678           1.053143           17.78124
       -0.264000           1.068517           17.87860           1.060404           17.82273
       -0.260000           1.075977           17.92065           1.067766           17.86449
       -0.256000           1.083533           17.96301           1.075221           17.90652
       -0.252000           1.091189           18.00563           1.082770           17.94879
       -0.248000           1.098945           18.04853           1.090421           17.99148
       -0.244000           1.106806           18.09177           1.098170           18.03437
       -0.240000           1.114774           18.13532           1.106031           18.07752
       -0.236000           1.122850           18.17913           1.113989           18.12108
       -0.232000           1.131032           18.22326           1.122056           18.16483
       -0.228000           1.139330           18.26772           1.130235           18.20892
       -0.224000           1.147738           18.31248           1.138524           18.25337
       -0.220000           1.156269           18.35752           1.146925           18.29805
       -0.216000           1.164912           18.40294           1.155445           18.34314
       -0.212000           1.173681           18.44866           1.164086           18.38853
       -0.208000           1.182573           18.49468           1.172843           18.43420
       -0.204000           1.191590           18.54110           1.181726           18.48021
       -0.200000           1.200739           18.58783           1.190733           18.52661
       -0.196000           1.210020           18.63489           1.199872           18.57330
       -0.192000           1.219434           18.68232           1.209141           18.62031
       -0.188000           1.228986           18.73010           1.218549           18.66770
       -0.184000           1.238679           18.77826           1.228086           18.71544
       -0.180000           1.248515           18.82675           1.237772           18.76353
       -0.176000           1.258497           18.87560           1.247594           18.81201
       -0.172000           1.268632           18.92487           1.257572           18.86087
       -0.168000           1.278918           18.97445           1.267686           18.91006
       -0.164000           1.289365           19.02446           1.277961           18.95966
       -0.160000           1.299966           19.07487           1.288391           19.00960
       -0.156000           1.310737           19.12568           1.298983           19.05996
       -0.152000           1.321674           19.17684           1.309734           19.11072
       -0.148000           1.332780           19.22845           1.320656           19.16190
       -0.144000           1.344065           19.28045           1.331749           19.21345
       -0.140000           1.355528           19.33286           1.343016           19.26540
       -0.136000           1.367174           19.38571           1.354460           19.31779
       -0.132000           1.379010           19.43900           1.366090           19.37059
       -0.128000           1.391037           19.49273           1.377904           19.42389
       -0.124000           1.403265           19.54686           1.389913           19.47751
       -0.120000           1.415694           19.60151           1.402115           19.53172
       -0.116000           1.428325           19.65658           1.414523           19.58625
       -0.112000           1.441177           19.71210           1.427137           19.64130
       -0.108000           1.454239           19.76810           1.439960           19.69678
       -0.104000           1.467526           19.82459           1.452995           19.75278
       -0.100000           1.481042           19.88156           1.466258           19.80920
       -0.096000           1.494793           19.93902           1.479745           19.86609
       -0.092000           1.508780           19.99703           1.493464           19.92353
       -0.088000           1.523018           20.05548           1.507416           19.98145
       -0.084000           1.537506           20.11446           1.521631           20.03990
       -0.080000           1.552258           20.17397           1.536080           20.09882
       -0.076000           1.567269           20.23400           1.550795           20.15838
       -0.072000           1.582553           20.29461           1.565764           20.21830
       -0.068000           1.598117           20.35577           1.581017           20.27890
       -0.064000           1.613974           20.41747           1.596544           20.34003
       -0.060000           1.630121           20.47975           1.612356           20.40169
       -0.056000           1.646573           20.54257           1.628456           20.46383
       -0.052000           1.663343           20.60601           1.644869           20.52667
       -0.048000           1.680425           20.67005           1.661588           20.59013
       -0.044000           1.697840           20.73469           1.678618           20.65405
       -0.040000           1.715593           20.79999           1.695980           20.71868
       -0.036000           1.733695           20.86585           1.713678           20.78391
       -0.032000           1.752155           20.93239           1.731714           20.84969
       -0.028000           1.770987           20.99957           1.750113           20.91622
       -0.024000           1.790187           21.06741           1.768878           20.98336
       -0.020000           1.809789           21.13595           1.788021           21.05110
       -0.016000           1.829789           21.20515           1.807544           21.11960
       -0.012000           1.850199           21.27505           1.827465           21.18869
       -0.008000           1.871045           21.34568           1.847807           21.25858
       -0.004000           1.892323           21.41699           1.868571           21.32917
        0.000000           1.914054           21.48904           1.889760           21.40041
        0.004000           1.936250           21.56188           1.911397           21.47238
        0.008000           1.958927           21.63543           1.933497           21.54519
        0.012000           1.982107           21.70977           1.956078           21.61865
        0.016000           2.005791           21.78489           1.979147           21.69293
        0.020000           2.030009           21.86087           2.002719           21.76800
        0.024000           2.054763           21.93765           2.026815           21.84391
        0.028000           2.080091           22.01517           2.051468           21.92059
        0.032000           2.105998           22.09364           2.076653           21.99811
        0.036000           2.132505           22.17292           2.102426           22.07649
        0.040000           2.159630           22.25313           2.128788           22.15571
        0.044000           2.187401           22.33418           2.155760           22.23580
        0.048000           2.215835           22.41620           2.183368           22.31682
        0.052000           2.244953           22.49910           2.211637           22.39868
        0.056000           2.274781           22.58294           2.240582           22.48163
        0.060000           2.305351           22.66780           2.270224           22.56533
        0.064000           2.336675           22.75364           2.300590           22.65010
        0.068000           2.368788           22.84043           2.331714           22.73580
        0.072000           2.401716           22.92824           2.363606           22.82263
        0.076000           2.435498           23.01715           2.396310           22.91035
        0.080000           2.470153           23.10709           2.429845           22.99917
        0.084000           2.505720           23.19810           2.464244           23.08907
        0.088000           2.542228           23.29022           2.499532           23.18000
        0.092000           2.579714           23.38344           2.535757           23.27200
        0.096000           2.618226           23.47783           2.572947           23.36511
        0.100000           2.657781           23.57334           2.611133           23.45938
        0.104000           2.698447           23.67006           2.650359           23.55484
        0.108000           2.740253           23.76799           2.690668           23.65149
        0.112000           2.783231           23.86716           2.732093           23.74941
        0.116000           2.827446           23.96761           2.774670           23.84844
        0.120000           2.872956           24.06928           2.818471           23.94873
        0.124000           2.919789           24.17221           2.863531           24.05042
        0.128000           2.968025           24.27650           2.909895           24.15335
        0.132000           3.017705           24.38212           2.957624           24.25756
        0.136000           3.068894           24.48911           3.006783           24.36307
        0.140000           3.121650           24.59747           3.057402           24.47002
        0.144000           3.176046           24.70727           3.109568           24.57834
        0.148000           3.232161           24.81852           3.163347           24.68807
        0.152000           3.290071           24.93115           3.218800           24.79921
        0.156000           3.349829           25.04522           3.275999           24.91185
        0.160000           3.411545           25.16090           3.335003           25.02597
        0.164000           3.475284           25.27799           3.395924           25.14161
        0.168000           3.541163           25.39664           3.458829           25.25867
        0.172000           3.609276           25.51685           3.523812           25.37733
        0.176000           3.679694           25.63853           3.590969           25.49759
        0.180000           3.752562           25.76183           3.660396           25.61950
        0.184000           3.827973           25.88674           3.732196           25.74286
        0.188000           3.906054           26.01320           3.806497           25.86786
        0.192000           3.986939           26.14129           3.883373           25.99458
        0.196000           4.070747           26.27094           3.962981           26.12276
        0.200000           4.157612           26.40214           4.045420           26.25264
        0.204000           4.247701           26.53498           4.130876           26.38420
        0.208000           4.341174           26.66945           4.219476           26.51749
        0.212000           4.438165           26.80536           4.311316           26.65225
        0.216000           4.538883           26.94283           4.406631           26.78876
        0.220000           4.643490           27.08173           4.505552           26.92678
        0.224000           4.752189           27.22220           4.608243           27.06650
        0.228000           4.865163           27.36407           4.714919           27.20761
        0.232000           4.982637           27.50708           4.825767           27.35035
        0.236000           5.104818           27.65148           4.941010           27.49446
        0.240000           5.231941           27.79706           5.060840           27.64007
        0.244000           5.364251           27.94368           5.185470           27.78704
        0.248000           5.501991           28.09117           5.315175           27.93511
        0.252000           5.645431           28.23947           5.450188           28.08444
        0.256000           5.794806           28.38848           5.590753           28.23477
        0.260000           5.950435           28.53780           5.737166           28.38584
        0.264000           6.112537           28.68730           5.889685           28.53781
        0.268000           6.281454           28.83676           6.048573           28.69014
        0.272000           6.457449           28.98594           6.214207           28.84283
        0.276000           6.640813           29.13438           6.386769           28.99566
        0.280000           6.831816           29.28175           6.566686           29.14815
        0.284000           7.030766           29.42775           6.754230           29.30003
        0.288000           7.237875           29.57187           6.949643           29.45111
        0.292000           7.453429           29.71354           7.153307           29.60081
        0.296000           7.677619           29.85222           7.365454           29.74866
        0.300000           7.910681           29.98733           7.586436           29.89432
        0.304000           8.152699           30.11825           7.816467           30.03714
        0.308000           8.403818           30.24417           8.055764           30.17641
        0.312000           8.664055           30.36440           8.304566           30.31147
        0.316000           8.933378           30.47807           8.562990           30.44165
        0.320000           9.211637           30.58421           8.831092           30.56594
        0.324000           9.498626           30.68201           9.108945           30.68378
        0.328000           9.794027           30.77064           9.396437           30.79404
        0.332000           10.09732           30.84898           9.693394           30.89560
        0.336000           10.40788           30.91608           9.999534           30.98781
        0.340000           10.72507           30.97111           10.31440           31.06928
        0.344000           11.04790           31.01311           10.63739           31.13907
        0.348000           11.37525           31.04137           10.96770           31.19606
        0.352000           11.70601           31.05518           11.30443           31.23932
        0.356000           12.03868           31.05390           11.64649           31.26774
        0.360000           12.37185           31.03734           11.99259           31.28074
        0.364000           12.70374           31.00509           12.34109           31.27728
        0.368000           13.03291           30.95749           12.69034           31.25722
        0.372000           13.35728           30.89476           13.03851           31.22003
        0.376000           13.67541           30.81751           13.38369           31.16595
        0.380000           13.98543           30.72681           13.72386           31.09526
        0.384000           14.28590           30.62376           14.05690           31.00871
        0.388000           14.57533           30.50999           14.38101           30.90718
        0.392000           14.85254           30.38721           14.69425           30.79245
        0.396000           15.11677           30.25752           14.99509           30.66617
        0.400000           15.36743           30.12314           15.28229           30.53050
        0.404000           15.60440           29.98637           15.55487           30.38778
        0.408000           15.82805           29.84958           15.81248           30.24065
        0.412000           16.03898           29.71510           16.05512           30.09187
        0.416000           16.23845           29.58517           16.28335           29.94407
        0.420000           16.42785           29.46189           16.49819           29.79983
        0.424000           16.60923           29.34696           16.70125           29.66166
        0.428000           16.78475           29.24178           16.89454           29.53156
        0.432000           16.95696           29.14741           17.08036           29.41120
        0.436000           17.12834           29.06454           17.26128           29.30192
        0.440000           17.30180           28.99335           17.44038           29.20457
        0.444000           17.48013           28.93354           17.62048           29.11943
        0.448000           17.66613           28.88437           17.80484           29.04625
        0.452000           17.86239           28.84485           17.99633           28.98442
        0.456000           18.07152           28.81321           18.19783           28.93273
        0.460000           18.29581           28.78780           18.41200           28.88955
        0.464000           18.53729           28.76612           18.64150           28.85293
        0.468000           18.79779           28.74570           18.88844           28.82041
        0.472000           19.07883           28.72375           19.15477           28.78926
        0.476000           19.38159           28.69702           19.44211           28.75644
        0.480000           19.70675           28.66224           19.75171           28.71874
        0.484000           20.05476           28.61589           20.08419           28.67262
        0.488000           20.42558           28.55432           20.44016           28.61423
        0.492000           20.81867           28.47373           20.81949           28.53990
        0.496000           21.23321           28.37035           21.22152           28.44551
        0.500000           21.66769           28.24011           21.64537           28.32684
        0.504000           22.11999           28.07935           22.08933           28.17996
        0.508000           22.58759           27.88409           22.55125           28.00081
        0.512000           23.06747           27.65089           23.02838           27.78518
        0.516000           23.55554           27.37628           23.51704           27.52948
        0.520000           24.04771           27.05727           24.01333           27.22998
        0.524000           24.53894           26.69137           24.51234           26.88387
        0.528000           25.02354           26.27653           25.00865           26.48826
        0.532000           25.49574           25.81165           25.49611           26.04130
        0.536000           25.94896           25.29600           25.96833           25.54194
        0.540000           26.37641           24.73021           26.41817           24.98993
        0.544000           26.77145           24.11569           26.83840           24.38598
        0.548000           27.12687           23.45501           27.22154           23.73226
        0.552000           27.43651           22.75179           27.56033           23.03187
        0.556000           27.69394           22.01068           27.84783           22.28937
        0.560000           27.89341           21.23756           28.07776           21.51037
        0.564000           28.03044           20.43904           28.24448           20.70145
        0.568000           28.10129           19.62266           28.34357           19.87053
        0.572000           28.10342           18.79646           28.37172           19.02593
        0.576000           28.03559           17.96877           28.32725           18.17650
        0.580000           27.89802           17.14815           28.20969           17.33146
        0.584000           27.69206           16.34302           28.02015           16.49982
        0.588000           27.42017           15.56122           27.76113           15.69017
        0.592000           27.08657           14.81011           27.43646           14.91056
        0.596000           26.69588           14.09628           27.05110           14.16822
        0.600000           26.25364           13.42519           26.61080           13.46915
        0.604000           25.76600           12.80142           26.12211           12.81839
        0.608000           25.23969           12.22844           25.59190           12.21985
        0.612000           24.68114           11.70852           25.02728           11.67600
        0.616000           24.09711           11.24307           24.43517           11.18841
        0.620000           23.49403           10.83247           23.82260           10.75757
        0.624000           22.87803           10.47620           23.19588           10.38303
        0.628000           22.25476           10.17314           22.56100           10.06358
        0.632000           21.62913           9.921463           21.92340           9.797337
        0.636000           21.00584           9.718926           21.28774           9.581975
        0.640000           20.38902           9.562962           20.65843           9.414729
        0.644000           19.78186           9.450689           20.03892           9.292666
        0.648000           19.18737           9.379132           19.43221           9.212607
        0.652000           18.60790           9.345253           18.84083           9.171433
        0.656000           18.04532           9.345997           18.26660           9.165878
        0.660000           17.50114           9.378401           17.71116           9.192947
        0.664000           16.97637           9.439558           17.17563           9.249558
        0.668000           16.47174           9.526766           16.66067           9.332932
        0.672000           15.98779           9.637397           16.16683           9.440361
        0.676000           15.52470           9.769073           15.69429           9.569413
        0.680000           15.08257           9.919533           15.24313           9.717649
        0.684000           14.66114           10.08668           14.81313           9.883036
        0.688000           14.26020           10.26869           14.40407           10.06360
        0.692000           13.87938           10.46380           14.01547           10.25764
        0.696000           13.51822           10.67045           13.64689           10.46343
        0.700000           13.17626           10.88727           13.29794           10.67955
        0.704000           12.85286           11.11295           12.96779           10.90479
        0.708000           12.54741           11.34638           12.65605           11.13791
        0.712000           12.25941           11.58658           12.36197           11.37793
        0.716000           11.98817           11.83261           12.08497           11.62395
        0.720000           11.73321           12.08371           11.82448           11.87506
        0.724000           11.49375           12.33915           11.57981           12.13059
        0.728000           11.26935           12.59836           11.35042           12.38995
        0.732000           11.05941           12.86074           11.13570           12.65257
        0.736000           10.86335           13.12587           10.93511           12.91795
        0.740000           10.68074           13.39335           10.74816           13.18578
        0.744000           10.51102           13.66279           10.57428           13.45543
        0.748000           10.35379           13.93390           10.41306           13.72688
        0.752000           10.20858           14.20639           10.26404           13.99963
        0.756000           10.07499           14.48009           10.12677           14.27369
        0.760000           9.952612           14.75480           10.00085           14.54876
        0.764000           9.841147           15.03037           9.885977           14.82457
        0.768000           9.740225           15.30665           9.781825           15.10116
        0.772000           9.649589           15.58353           9.688030           15.37830
        0.776000           9.568958           15.86095           9.604376           15.65595
        0.780000           9.498086           16.13887           9.530572           15.93403
        0.784000           9.436769           16.41716           9.466409           16.21258
        0.788000           9.384788           16.69587           9.411713           16.49145
        0.792000           9.342021           16.97495           9.366256           16.77072
        0.796000           9.308321           17.25439           9.329951           17.05021
        0.800000           9.283511           17.53417           9.302609           17.33006
        0.804000           9.267594           17.81433           9.284223           17.61031
        0.808000           9.260453           18.09481           9.274673           17.89078
        0.812000           9.262021           18.37570           9.273940           18.17168
        0.816000           9.272334           18.65699           9.281930           18.45289
        0.820000           9.291380           18.93868           9.298702           18.73449
        0.824000           9.319174           19.22080           9.324308           19.01650
        0.828000           9.355780           19.50337           9.358691           19.29887
        0.832000           9.401253           19.78638           9.402015           19.58166
        0.836000           9.455728           20.06985           9.454363           19.86488
        0.840000           9.519300           20.35383           9.515841           20.14858
        0.844000           9.592124           20.63820           9.586546           20.43266
        0.848000           9.674384           20.92306           9.666744           20.71720
        0.852000           9.766288           21.20834           9.756581           21.00209
        0.856000           9.868043           21.49398           9.856273           21.28732
        0.860000           9.979925           21.78001           9.966084           21.57285
        0.864000           10.10219           22.06628           10.08626           21.85864
        0.868000           10.23517           22.35273           10.21718           22.14463
        0.872000           10.37920           22.63926           10.35909           22.43055
        0.876000           10.53464           22.92576           10.51243           22.71641
        0.880000           10.70190           23.21201           10.67754           23.00219
        0.884000           10.88136           23.49788           10.85488           23.28743
        0.888000           11.07351           23.78305           11.04487           23.57184
        0.892000           11.27886           24.06729           11.24801           23.85549
        0.896000           11.49790           24.35035           11.46482           24.13783
        0.900000           11.73115           24.63177           11.69581           24.41857
        0.904000           11.97926           24.91117           11.94160           24.69711
        0.908000           12.24280           25.18811           12.20282           24.97332
        0.912000           12.52236           25.46190           12.47997           25.24646
        0.916000           12.81867           25.73197           12.77380           25.51575
        0.920000           13.13234           25.99758           13.08490           25.78053
        0.924000           13.46404           26.25793           13.41404           26.04006
        0.928000           13.81454           26.51196           13.76187           26.29334
        0.932000           14.18442           26.75877           14.12907           26.53941
        0.936000           14.57448           26.99711           14.51636           26.77705
        0.940000           14.98536           27.22563           14.92440           27.00480
        0.944000           15.41762           27.44278           15.35375           27.22127
        0.948000           15.87185           27.64705           15.80502           27.42484
        0.952000           16.34859           27.83643           16.27871           27.61369
        0.956000           16.84820           28.00907           16.77517           27.78580
        0.960000           17.37099           28.16266           17.29469           27.93894
        0.964000           17.91701           28.29478           17.83753           28.07060
        0.968000           18.48610           28.40288           18.40327           28.17830
        0.972000           19.07802           28.48404           18.99189           28.25922
        0.976000           19.69219           28.53532           19.60261           28.31040
        0.980000           20.32741           28.55353           20.23445           28.32862
        0.984000           20.98255           28.53531           20.88613           28.31045
        0.988000           21.65556           28.47724           21.55568           28.25254
        0.992000           22.34433           28.37588           22.24097           28.15135
        0.996000           23.04577           28.22761           22.93904           28.00356
        1.000000           23.75646           28.02918           23.64632           27.80562
        1.004000           24.47231           27.77740           24.35880           27.55442
        1.008000           25.18820           27.46939           25.07164           27.24701
        1.012000           25.89878           27.10275           25.77914           26.88100
        1.016000           26.59805           26.67561           26.47540           26.45452
        1.020000           27.27917           26.18697           27.15344           25.96652
        1.024000           27.93486           25.63665           27.80641           25.41690
        1.028000           28.55755           25.02555           28.42643           24.80627
        1.032000           29.13962           24.35574           29.00587           24.13688
        1.036000           29.67320           23.63045           29.53700           23.41173
        1.040000           30.15108           22.85417           30.01223           22.63548
        1.044000           30.56598           22.03291           30.42463           21.81388
        1.048000           30.91202           21.17356           30.76792           20.95399
        1.052000           31.18404           20.28431           31.03703           20.06395
        1.056000           31.37819           19.37417           31.22817           19.15273
        1.060000           31.49211           18.45270           31.33851           18.22992
        1.064000           31.52489           17.52985           31.36742           17.30550
        1.068000           31.47723           16.61570           31.31549           16.38963
        1.072000           31.35154           15.71981           31.18486           15.49189
        1.076000           31.15163           14.85138           30.97962           14.62158
        1.080000           30.88273           14.01867           30.70442           13.78700
        1.084000           30.55077           13.22886           30.36576           12.99549
        1.088000           30.16306           12.48799           29.97048           12.25318
        1.092000           29.72692           11.80083           29.52614           11.56484
        1.096000           29.25082           11.17063           29.04103           10.93389
        1.100000           28.74249           10.59957           28.52299           10.36271
        1.104000           28.20995           10.08855           27.98010           9.852083
        1.108000           27.66073           9.637263           27.41990           9.402044
        1.112000           27.10220           9.244547           26.84953           9.011383
        1.116000           26.54067           8.908288           26.27577           8.678123
        1.120000           25.98226           8.625774           25.70443           8.399716
        1.124000           25.43198           8.393745           25.14083           8.172973
        1.128000           24.89451           8.208486           24.58975           7.994283
        1.132000           24.37374           8.066050           24.05485           7.859842
        1.136000           23.87258           7.962261           23.53947           7.765567
        1.140000           23.39362           7.892879           23.04638           7.707393
        1.144000           22.93893           7.853652           22.57760           7.681141
        1.148000           22.50984           7.840345           22.13466           7.682612
        1.152000           22.10707           7.848807           21.71857           7.707852
        1.156000           21.73129           7.875013           21.33006           7.752961
        1.160000           21.38219           7.915093           20.96953           7.813962
        1.164000           21.05959           7.965333           20.63659           7.887317
        1.168000           20.76256           8.022263           20.33086           7.969562
        1.172000           20.48995           8.082542           20.05161           8.057191
        1.176000           20.24036           8.143163           19.79777           8.147173
        1.180000           20.01197           8.201300           19.56797           8.236500
        1.184000           19.80284           8.254460           19.36050           8.322453
        1.188000           19.61063           8.300438           19.17362           8.402376
        1.192000           19.43282           8.337388           19.00509           8.474198
        1.196000           19.26675           8.363856           18.85252           8.535806
        1.200000           19.10956           8.378730           18.71337           8.585503
        1.204000           18.95839           8.381396           18.58486           8.622074
        1.208000           18.81019           8.371630           18.46403           8.644431
        1.212000           18.66205           8.349691           18.34786           8.652238
        1.216000           18.51123           8.316283           18.23327           8.645325
        1.220000           18.35496           8.272581           18.11726           8.624031
        1.224000           18.19099           8.220093           17.99687           8.589405
        1.228000           18.01719           8.160763           17.86923           8.542711
        1.232000           17.83187           8.096786           17.73193           8.485603
        1.236000           17.63381           8.030596           17.58287           8.420423
        1.240000           17.42225           7.964754           17.42021           8.349506
        1.244000           17.19686           7.901866           17.24290           8.275601
        1.248000           16.95776           7.844507           17.04984           8.201566
        1.252000           16.70553           7.795134           16.84104           8.130219
        1.256000           16.44115           7.755984           16.61673           8.064519
        1.260000           16.16592           7.729052           16.37765           8.006928
        1.264000           15.88142           7.716020           16.12494           7.960015
        1.268000           15.58939           7.718241           15.86002           7.925813
        1.272000           15.29176           7.736727           15.58489           7.906246
        1.276000           14.99043           7.772124           15.30119           7.902470
        1.280000           14.68728           7.824762           15.01131           7.915665
        1.284000           14.38432           7.894718           14.71721           7.946397
        1.288000           14.08319           7.981725           14.42100           7.994971
        1.292000           13.78555           8.085400           14.12461           8.061372
        1.296000           13.49288           8.205059           13.82995           8.145267
        1.300000           13.20645           8.339941           13.53869           8.246098
        1.304000           12.92742           8.489186           13.25250           8.363275
        1.308000           12.65668           8.651869           12.97241           8.495888
        1.312000           12.39502           8.826986           12.69976           8.642953
        1.316000           12.14310           9.013542           12.43543           8.803516
        1.320000           11.90133           9.210588           12.18018           8.976538
        1.324000           11.67001           9.417149           11.93456           9.161057
        1.328000           11.44950           9.632298           11.69921           9.355928
        1.332000           11.23981           9.855188           11.47417           9.560325
        1.336000           11.04108           10.08501           11.25986           9.773240
        1.340000           10.85324           10.32097           11.05638           9.993837
        1.344000           10.67626           10.56244           10.86364           10.22125
        1.348000           10.51003           10.80871           10.68180           10.45468
        1.352000           10.35439           11.05927           10.51065           10.69358
        1.356000           10.20913           11.31356           10.35018           10.93723
        1.360000           10.07410           11.57111           10.20012           11.18507
        1.364000           9.949139           11.83151           10.06035           11.43656
        1.368000           9.833996           12.09439           9.930710           11.69128
        1.372000           9.728486           12.35941           9.810993           11.94882
        1.376000           9.632421           12.62633           9.700972           12.20878
        1.380000           9.545616           12.89481           9.600432           12.47087
        1.384000           9.467874           13.16469           9.509276           12.73478
        1.388000           9.399063           13.43577           9.427272           13.00023
        1.392000           9.338992           13.70783           9.354213           13.26714
        1.396000           9.287562           13.98078           9.289999           13.53511
        1.400000           9.244639           14.25443           9.234462           13.80417
        1.404000           9.210127           14.52875           9.187512           14.07400
        1.408000           9.183957           14.80356           9.148953           14.34460
        1.412000           9.166026           15.07876           9.118752           14.61578
        1.416000           9.156365           15.35437           9.096892           14.88748
        1.420000           9.154891           15.63022           9.083248           15.15960
        1.424000           9.161629           15.90629           9.077785           15.43205
        1.428000           9.176577           16.18246           9.080573           15.70482
        1.432000           9.199826           16.45871           9.091505           15.97765
        1.436000           9.231361           16.73493           9.110717           16.25064
        1.440000           9.271359           17.01106           9.138219           16.52373
        1.444000           9.319847           17.28700           9.174071           16.79671
        1.448000           9.376999           17.56270           9.218409           17.06956
        1.452000           9.442940           17.83801           9.271309           17.34217
        1.456000           9.517869           18.11279           9.332933           17.61443
        1.460000           9.601983           18.38694           9.403442           17.88630
        1.464000           9.695455           18.66027           9.483034           18.15749
        1.468000           9.798544           18.93259           9.571910           18.42801
        1.472000           9.911534           19.20372           9.670307           18.69755
        1.476000           10.03467           19.47339           9.778439           18.96596
        1.480000           10.16829           19.74128           9.896606           19.23307
        1.484000           10.31266           20.00711           10.02511           19.49846
        1.488000           10.46813           20.27052           10.16429           19.76202
        1.492000           10.63508           20.53102           10.31440           20.02319
        1.496000           10.81379           20.78823           10.47582           20.28166
        1.500000           11.00471           21.04148           10.64892           20.53694
        1.504000           11.20815           21.29024           10.83407           20.78861
        1.508000           11.42450           21.53387           11.03165           21.03595
        1.512000           11.65404           21.77148           11.24199           21.27840
        1.516000           11.89716           22.00228           11.46546           21.51516
        1.520000           12.15416           22.22527           11.70239           21.74542
        1.524000           12.42523           22.43939           11.95310           21.96827
        1.528000           12.71065           22.64353           12.21802           22.18263
        1.532000           13.01043           22.83638           12.49728           22.38733
        1.536000           13.32467           23.01648           12.79095           22.58130
        1.540000           13.65323           23.18240           13.09930           22.76288
        1.544000           13.99586           23.33243           13.42210           22.93069
        1.548000           14.35218           23.46489           13.75935           23.08336
        1.552000           14.72156           23.57787           14.11068           23.21872
        1.556000           15.10318           23.66960           14.47554           23.33513
        1.560000           15.49592           23.73796           14.85329           23.43076
        1.564000           15.89834           23.78100           15.24282           23.50336
        1.568000           16.30872           23.79674           15.64295           23.55096
        1.572000           16.72505           23.78325           16.05199           23.57146
        1.576000           17.14485           23.73874           16.46806           23.56275
        1.580000           17.56526           23.66155           16.88876           23.52289
        1.584000           17.98319           23.55036           17.31133           23.44986
        1.588000           18.39487           23.40415           17.73261           23.34247
        1.592000           18.79656           23.22228           18.14897           23.19918
        1.596000           19.18409           23.00469           18.55651           23.01905
        1.600000           19.55304           22.75185           18.95092           22.80190
        1.604000           19.89892           22.46497           19.32764           22.54791
        1.608000           20.21730           22.14583           19.68192           22.25781
        1.612000           20.50373           21.79698           20.00897           21.93352
        1.616000           20.75418           21.42182           20.30410           21.57735
        1.620000           20.96500           21.02416           20.56287           21.19262
        1.624000           21.13304           20.60872           20.78110           20.78314
        1.628000           21.25601           20.18062           20.95543           20.35384
        1.632000           21.33211           19.74533           21.08309           19.90997
        1.636000           21.36059           19.30869           21.16190           19.45726
        1.640000           21.34157           18.87646           21.19120           19.00187
        1.644000           21.27610           18.45444           21.17072           18.54997
        1.648000           21.16591           18.04813           21.10129           18.10779
        1.652000           21.01377           17.66256           20.98497           17.68100
        1.656000           20.82291           17.30228           20.82453           17.27518
        1.660000           20.59730           16.97122           20.62324           16.89501
        1.664000           20.34117           16.67250           20.38531           16.54461
        1.668000           20.05894           16.40858           20.11502           16.22742
        1.672000           19.75531           16.18122           19.81727           15.94582
        1.676000           19.43488           15.99135           19.49680           15.70175
        1.680000           19.10217           15.83937           19.15850           15.49612
        1.684000           18.76141           15.72504           18.80692           15.32932
        1.688000           18.41649           15.64761           18.44642           15.20100
        1.692000           18.07116           15.60600           18.08114           15.11046
        1.696000           17.72852           15.59868           17.71471           15.05639
        1.700000           17.39157           15.62396           17.35041           15.03731
        1.704000           17.06270           15.68000           16.99126           15.05127
        1.708000           16.74404           15.76473           16.63951           15.09660
        1.712000           16.43734           15.87618           16.29736           15.17097
        1.716000           16.14404           16.01233           15.96648           15.27247
        1.720000           15.86530           16.17109           15.64824           15.39896
        1.724000           15.60199           16.35057           15.34378           15.54839
        1.728000           15.35495           16.54892           15.05401           15.71879
        1.732000           15.12449           16.76442           14.77939           15.90842
        1.736000           14.91104           16.99537           14.52040           16.11540
        1.740000           14.71482           17.24026           14.27728           16.33826
        1.744000           14.53596           17.49763           14.05020           16.57540
        1.748000           14.37445           17.76617           13.83915           16.82535
        1.752000           14.23023           18.04470           13.64396           17.08702
        1.756000           14.10329           18.33209           13.46467           17.35928
        1.760000           13.99350           18.62729           13.30111           17.64093
        1.764000           13.90066           18.92938           13.15286           17.93108
        1.768000           13.82467           19.23745           13.01988           18.22905
        1.772000           13.76544           19.55068           12.90182           18.53392
        1.776000           13.72268           19.86840           12.79845           18.84505
        1.780000           13.69632           20.18983           12.70939           19.16188
        1.784000           13.68625           20.51432           12.63468           19.48403
        1.788000           13.69235           20.84125           12.57399           19.81074
        1.792000           13.71447           21.16998           12.52703           20.14202
        1.796000           13.75255           21.49987           12.49374           20.47698
        1.800000           13.80653           21.83042           12.47381           20.81578
        1.804000           13.87631           22.16097           12.46735           21.15776
        1.808000           13.96181           22.49092           12.47395           21.50295
        1.812000           14.06297           22.81969           12.49391           21.85096
        1.816000           14.17978           23.14665           12.52691           22.20168
        1.820000           14.31205           23.47115           12.57312           22.55483
        1.824000           14.45979           23.79250           12.63253           22.91039
        1.828000           14.62279           24.11013           12.70518           23.26804
        1.832000           14.80094           24.42319           12.79117           23.62764
        1.836000           14.99403           24.73103           12.89066           23.98899
        1.840000           15.20178           25.03291           13.00388           24.35216
        1.844000           15.42391           25.32820           13.13105           24.71672
        1.848000           15.65996           25.61605           13.27229           25.08252
        1.852000           15.90952           25.89572           13.42805           25.44934
        1.856000           16.17210           26.16666           13.59861           25.81706
        1.860000           16.44702           26.42822           13.78436           26.18545
        1.864000           16.73365           26.67986           13.98561           26.55422
        1.868000           17.03125           26.92118           14.20297           26.92306
        1.872000           17.33896           27.15170           14.43679           27.29114
        1.876000           17.65607           27.37125           14.68766           27.65890
        1.880000           17.98170           27.57988           14.95621           28.02525
        1.884000           18.31505           27.77751           15.24274           28.39009
        1.888000           18.65553           27.96445           15.54823           28.75240
        1.892000           19.00244           28.14099           15.87321           29.11183
        1.896000           19.35540           28.30755           16.21830           29.46720
        1.900000           19.71405           28.46481           16.58421           29.81816
        1.904000           20.07840           28.61327           16.97166           30.16336
        1.908000           20.44850           28.75356           17.38140           30.50198
        1.912000           20.82483           28.88621           17.81422           30.83260
        1.916000           21.20798           29.01164           18.27060           31.15394
        1.920000           21.59869           29.13018           18.75132           31.46439
        1.924000           21.99804           29.24181           19.25700           31.76224
        1.928000           22.40724           29.34639           19.78809           32.04567
        1.932000           22.82745           29.44338           20.34503           32.31265
        1.936000           23.26013           29.53187           20.92815           32.56075
        1.940000           23.70644           29.61073           21.53764           32.78776
        1.944000           24.16758           29.67832           22.17347           32.99094
        1.948000           24.64452           29.73272           22.83517           33.16744
        1.952000           25.13795           29.77156           23.52206           33.31427
        1.956000           25.64848           29.79231           24.23372           33.42799
        1.960000           26.17619           29.79204           24.96846           33.50585
        1.964000           26.72058           29.76765           25.72453           33.54390
        1.968000           27.28097           29.71579           26.50001           33.53894
        1.972000           27.85569           29.63319           27.29191           33.48765
        1.976000           28.44293           29.51639           28.09703           33.38647
        1.980000           29.04014           29.36219           28.91186           33.23237
        1.984000           29.64387           29.16755           29.73165           33.02259
        1.988000           30.25047           28.92964           30.55128           32.75469
        1.992000           30.85543           28.64625           31.36544           32.42671
        1.996000           31.45379           28.31558           32.16827           32.03734
        2.000000           32.04041           27.93656           32.95303           31.58618
        2.004000           32.60917           27.50886           33.71325           31.07346
        2.008000           33.15448           27.03286           34.44199           30.50028
        2.012000           33.67019           26.51007           35.13245           29.86870
        2.016000           34.15026           25.94266           35.77781           29.18197
        2.020000           34.58904           25.33397           36.37175           28.44415
        2.024000           34.98120           24.68791           36.90844           27.66003
        2.028000           35.32187           24.00936           37.38216           26.83557
        2.032000           35.60690           23.30400           37.78880           25.97727
        2.036000           35.83308           22.57803           38.12429           25.09217
        2.040000           35.99775           21.83818           38.38593           24.18802
        2.044000           36.09942           21.09134           38.57191           23.27283
        2.048000           36.13766           20.34473           38.68166           22.35467
        2.052000           36.11282           19.60562           38.71510           21.44162
        2.056000           36.02642           18.88104           38.67387           20.54206
        2.060000           35.88076           18.17782           38.56020           19.66369
        2.064000           35.67927           17.50230           38.37753           18.81420
        2.068000           35.42606           16.86018           38.13005           18.00027
        2.072000           35.12594           16.25659           37.82323           17.22820
        2.076000           34.78437           15.69585           37.46208           16.50361
        2.080000           34.40710           15.18137           37.05415           15.83082
        2.084000           34.00038           14.71573           36.60575           15.21361
        2.088000           33.57059           14.30058           36.12385           14.65457
        2.092000           33.12375           13.93656           35.61592           14.15516
        2.096000           32.66629           13.62359           35.08925           13.71608
        2.100000           32.20394           13.36067           34.55096           13.33689
        2.104000           31.74224           13.14615           34.00728           13.01631
        2.108000           31.28620           12.97773           33.46497           12.75238
        2.112000           30.84024           12.85248           32.92916           12.54232
        2.116000           30.40830           12.76717           32.40532           12.38286
        2.120000           29.99372           12.71822           31.89771           12.27025
        2.124000           29.59901           12.70176           31.41026           12.20041
        2.128000           29.22629           12.71384           30.94567           12.16901
        2.132000           28.87697           12.75046           30.50676           12.17164
        2.136000           28.55194           12.80766           30.09491           12.20367
        2.140000           28.25135           12.88159           29.71164           12.26071
        2.144000           27.97504           12.96858           29.35730           12.33835
        2.148000           27.72227           13.06518           29.03176           12.43233
        2.152000           27.49194           13.16829           28.73444           12.53865
        2.156000           27.28254           13.27505           28.46462           12.65352
        2.160000           27.09225           13.38315           28.22059           12.77371
        2.164000           26.91893           13.49051           28.00067           12.89596
        2.168000           26.76040           13.59565           27.80257           13.01780
        2.172000           26.61432           13.69744           27.62371           13.13710
        2.176000           26.47826           13.79535           27.46185           13.25210
        2.180000           26.34981           13.88924           27.31408           13.36174
        2.184000           26.22688           13.97941           27.17739           13.46540
        2.188000           26.10733           14.06664           27.04926           13.56301
        2.192000           25.98958           14.15201           26.92727           13.65507
        2.196000           25.87218           14.23698           26.80881           13.74248
        2.200000           25.75425           14.32318           26.69231           13.82665
        2.204000           25.63516           14.41243           26.57611           13.90912
        2.208000           25.51483           14.50661           26.45915           13.99194
        2.212000           25.39361           14.60758           26.34095           14.07720
        2.216000           25.27227           14.71702           26.22116           14.16695
        2.220000           25.15202           14.83649           26.10103           14.26316
        2.224000           25.03437           14.96723           25.98071           14.36784
        2.228000           24.92100           15.11018           25.86211           14.48242
        2.232000           24.81399           15.26593           25.74693           14.60819
        2.236000           24.71539           15.43466           25.63704           14.74597
        2.240000           24.62754           15.61615           25.53479           14.89618
        2.244000           24.55244           15.80984           25.44239           15.05866
        2.248000           24.49217           16.01475           25.36216           15.23298
        2.252000           24.44877           16.22958           25.29601           15.41829
        2.256000           24.42410           16.45268           25.24690           15.61315
        2.260000           24.41953           16.68212           25.21578           15.81587
        2.264000           24.43656           16.91571           25.20473           16.02455
        2.268000           24.47620           17.15105           25.21520           16.23675
        2.272000           24.53923           17.38557           25.24793           16.44999
        2.276000           24.62604           17.61654           25.30395           16.66149
        2.280000           24.73677           17.84106           25.38345           16.86833
        2.284000           24.87116           18.05617           25.48665           17.06748
        2.288000           25.02862           18.25887           25.61263           17.25594
        2.292000           25.20803           18.44613           25.76085           17.43039
        2.296000           25.40804           18.61496           25.92992           17.58791
        2.300000           25.62674           18.76243           26.11829           17.72529
        2.304000           25.86185           18.88573           26.32336           17.83967
        2.308000           26.11059           18.98232           26.54290           17.92840
        2.312000           26.36967           19.04984           26.77323           17.98896
        2.316000           26.63550           19.08640           27.01094           18.01931
        2.320000           26.90394           19.09046           27.25197           18.01793
        2.324000           27.17069           19.06109           27.49192           17.98365
        2.328000           27.43090           18.99792           27.72615           17.91616
        2.332000           27.67974           18.90139           27.94938           17.81568
        2.336000           27.91207           18.77265           28.15688           17.68335
        2.340000           28.12308           18.61365           28.34353           17.52099
        2.344000           28.30803           18.42723           28.50477           17.33142
        2.348000           28.46264           18.21699           28.63621           17.11820
        2.352000           28.58308           17.98734           28.73407           16.88558
        2.356000           28.66630           17.74330           28.79497           16.63866
        2.360000           28.71012           17.49042           28.81705           16.38289
        2.364000           28.71317           17.23457           28.79867           16.12407
        2.368000           28.67512           16.98182           28.73970           15.86829
        2.372000           28.59682           16.73817           28.64065           15.62148
        2.376000           28.47966           16.50945           28.50294           15.38947
        2.380000           28.32648           16.30103           28.32971           15.17758
        2.384000           28.14033           16.11766           28.12365           14.99054
        2.388000           27.92544           15.96352           27.88879           14.83253
        2.392000           27.68615           15.84197           27.62990           14.70686
        2.396000           27.42712           15.75563           27.35120           14.61615
        2.400000           27.15345           15.70622           27.05786           14.56210
        2.404000           26.86984           15.69476           26.75481           14.54572
        2.408000           26.58134           15.72155           26.44663           14.56735
        2.412000           26.29239           15.78627           26.13799           14.62657
        2.416000           26.00731           15.88797           25.83318           14.72248
        2.420000           25.73010           16.02535           25.53599           14.85372
        2.424000           25.46427           16.19663           25.25013           15.01854
        2.428000           25.21313           16.39981           24.97860           15.21502
        2.432000           24.97933           16.63267           24.72425           15.44073
        2.436000           24.76547           16.89282           24.48943           15.69345
        2.440000           24.57348           17.17777           24.27615           15.97058
        2.444000           24.40519           17.48501           24.08616           16.26973
        2.448000           24.26208           17.81197           23.92102           16.58822
        2.452000           24.14531           18.15621           23.78173           16.92368
        2.456000           24.05593           18.51515           23.66920           17.27339
        2.460000           23.99464           18.88632           23.58421           17.63505
        2.464000           23.96213           19.26731           23.52728           18.00622
        2.468000           23.95873           19.65564           23.49895           18.38437
        2.472000           23.98481           20.04898           23.49932           18.76722
        2.476000           24.04061           20.44497           23.52858           19.15242
        2.480000           24.12603           20.84120           23.58661           19.53752
        2.484000           24.24104           21.23531           23.67338           19.92017
        2.488000           24.38541           21.62490           23.78851           20.29803
        2.492000           24.55885           22.00751           23.93147           20.66864
        2.496000           24.76074           22.38076           24.10198           21.02968
        2.500000           24.99034           22.74214           24.29898           21.37859
        2.504000           25.24690           23.08911           24.52172           21.71288
        2.508000           25.52916           23.41915           24.76871           22.03014
        2.512000           25.83574           23.72969           25.03862           22.32776
        2.516000           26.16489           24.01818           25.32955           22.60320
        2.520000           26.51465           24.28218           25.63954           22.85421
        2.524000           26.88265           24.51931           25.96592           23.07832
        2.528000           27.26609           24.72727           26.30614           23.27325
        2.532000           27.66191           24.90415           26.65670           23.43738
        2.536000           28.06652           25.04810           27.01403           23.56875
        2.540000           28.47610           25.15792           27.37418           23.66634
        2.544000           28.88635           25.23264           27.73284           23.72925
        2.548000           29.29275           25.27199           28.08504           23.75726
        2.552000           29.69064           25.27620           28.42655           23.75090
        2.556000           30.07517           25.24644           28.75180           23.71137
        2.560000           30.44150           25.18442           29.05622           23.64064
        2.564000           30.78503           25.09279           29.33494           23.54138
        2.568000           31.10151           24.97490           29.58346           23.41728
        2.572000           31.38716           24.83487           29.79804           23.27262
        2.576000           31.63868           24.67747           29.97539           23.11250
        2.580000           31.85383           24.50805           30.11294           22.94247
        2.584000           32.03116           24.33220           30.20926           22.76852
        2.588000           32.17007           24.15586           30.26353           22.59681
        2.592000           32.27106           23.98483           30.27646           22.43375
        2.596000           32.33556           23.82480           30.24903           22.28522
        2.600000           32.36588           23.68113           30.18377           22.15706
        2.604000           32.36506           23.55842           30.08423           22.05448
        2.608000           32.33699           23.46084           29.95346           21.98212
        2.612000           32.28564           23.39163           29.79616           21.94362
        2.616000           32.21573           23.35330           29.61714           21.94230
        2.620000           32.13195           23.34754           29.42145           21.98020
        2.624000           32.03887           23.37523           29.21362           22.05898
        2.628000           31.94097           23.43657           28.99910           22.17939
        2.632000           31.84252           23.53102           28.78237           22.34146
        2.636000           31.74732           23.65753           28.56778           22.54488
        2.640000           31.65879           23.81469           28.35972           22.78858
        2.644000           31.57991           24.00071           28.16199           23.07137
        2.648000           31.51307           24.21348           27.97785           23.39144
        2.652000           31.46027           24.45097           27.81036           23.74715
        2.656000           31.42309           24.71105           27.66220           24.13654
        2.660000           31.40247           24.99155           27.53555           24.55755
        2.664000           31.39928           25.29058           27.43258           25.00797
        2.668000           31.41390           25.60633           27.35490           25.48611
        2.672000           31.44652           25.93728           27.30383           25.98948
        2.676000           31.49714           26.28218           27.28092           26.51656
        2.680000           31.56565           26.63998           27.28698           27.06533
        2.684000           31.65182           27.00992           27.32293           27.63412
        2.688000           31.75563           27.39146           27.38973           28.22117
        2.692000           31.87701           27.78433           27.48798           28.82498
        2.696000           32.01603           28.18836           27.61841           29.44398
        2.700000           32.17287           28.60374           27.78176           30.07705
        2.704000           32.34793           29.03058           27.97854           30.72267
        2.708000           32.54176           29.46916           28.20939           31.37963
        2.712000           32.75521           29.91967           28.47504           32.04662
        2.716000           32.98933           30.38232           28.77610           32.72262
        2.720000           33.24535           30.85743           29.11341           33.40642
        2.724000           33.52467           31.34505           29.48752           34.09690
        2.728000           33.82892           31.84506           29.89962           34.79282
        2.732000           34.15993           32.35730           30.35023           35.49307
        2.736000           34.51955           32.88130           30.84051           36.19635
        2.740000           34.90990           33.41640           31.37135           36.90134
        2.744000           35.33315           33.96177           31.94401           37.60678
        2.748000           35.79148           34.51626           32.55952           38.31103
        2.752000           36.28711           35.07835           33.21904           39.01254
        2.756000           36.82217           35.64642           33.92375           39.70970
        2.760000           37.39885           36.21841           34.67505           40.40004
        2.764000           38.01938           36.79204           35.47426           41.08210
        2.768000           38.68569           37.36486           36.32261           41.75326
        2.772000           39.39967           37.93389           37.22148           42.41081
        2.776000           40.16300           38.49599           38.17190           43.05232
        2.780000           40.97723           39.04780           39.17511           43.67428
        2.784000           41.84362           39.58556           40.23196           44.27358
        2.788000           42.76335           40.10536           41.34361           44.84638
        2.792000           43.73713           40.60297           42.51079           45.38871
        2.796000           44.76528           41.07394           43.73342           45.89640
        2.800000           45.84802           41.51358           45.01205           46.36456
        2.804000           46.98476           41.91697           46.34624           46.78844
        2.808000           48.17477           42.27903           47.73487           47.16273
        2.812000           49.41678           42.59474           49.17695           47.48203
        2.816000           50.70874           42.85881           50.67052           47.74068
        2.820000           52.04818           43.06603           52.21292           47.93308
        2.824000           53.43203           43.21130           53.80097           48.05333
        2.828000           54.85636           43.28959           55.43011           48.09586
        2.832000           56.31701           43.29633           57.09580           48.05541
        2.836000           57.80896           43.22728           58.79199           47.92670
        2.840000           59.32650           43.07850           60.51245           47.70567
        2.844000           60.86360           42.84680           62.24948           47.38802
        2.848000           62.41363           42.52981           63.99511           46.97097
        2.852000           63.96981           42.12567           65.74123           46.45276
        2.856000           65.52503           41.63325           67.47920           45.83237
        2.860000           67.07249           41.05264           69.19937           45.10992
        2.864000           68.60509           40.38451           70.89387           44.28709
        2.868000           70.11607           39.63025           72.55363           43.36622
        2.872000           71.59904           38.79208           74.17069           42.35109
        2.876000           73.04829           37.87286           75.73781           41.24623
        2.880000           74.45837           36.87570           77.24870           40.05677
        2.884000           75.82475           35.80403           78.69813           38.78861
        2.888000           77.14342           34.66163           80.08131           37.44759
        2.892000           78.41054           33.45221           81.39507           36.04021
        2.896000           79.62302           32.17949           82.63611           34.57228
        2.900000           80.77807           30.84669           83.80354           33.04903
        2.904000           81.87306           29.45718           84.89543           31.47598
        2.908000           82.90549           28.01417           85.91114           29.85787
        2.912000           83.87295           26.52055           86.84914           28.19905
        2.916000           84.77258           24.97945           87.70937           26.50339
        2.920000           85.60163           23.39402           88.49001           24.77477
        2.924000           86.35731           21.76722           89.19105           23.01655
        2.928000           87.03642           20.10278           89.81084           21.23224
        2.932000           87.63624           18.40466           90.34775           19.42563
        2.936000           88.15341           16.67721           90.80075           17.60065
        2.940000           88.58536           14.92552           91.16783           15.76175
        2.944000           88.92957           13.15446           91.44851           13.91308
        2.948000           89.18402           11.37005           91.64055           12.05968
        2.952000           89.34669           9.578387           91.74427           10.20685
        2.956000           89.41689           7.785975           91.75815           8.360050
        2.960000           89.39398           5.999488           91.68332           6.524955
        2.964000           89.27771           4.225960           91.51926           4.707644
        2.968000           89.06918           2.472022           91.26707           2.913692
        2.972000           88.76943           0.744863           90.92853           1.149295
        2.976000           88.38094          -0.948637           90.50533          -0.579623
        2.980000           87.90600          -2.601638           90.00054          -2.267189
        2.984000           87.34816          -4.207477           89.41705          -3.907736
        2.988000           86.71152          -5.759632           88.75806          -5.495509
        2.992000           86.00043          -7.252350           88.02785          -7.025539
        2.996000           85.22031          -8.679772           87.23109          -8.492924
        3.000000           84.37675          -10.03667           86.37234          -9.892715
        3.004000           83.47626          -11.31835           85.45737          -11.22075
        3.008000           82.52604          -12.52057           84.49223          -12.47307
        3.012000           81.53278          -13.64005           83.48228          -13.64653
        3.016000           80.50446          -14.67400           82.43481          -14.73807
        3.020000           79.44897          -15.62031           81.35651          -15.74518
        3.024000           78.37472          -16.47785           80.25489          -16.66617
        3.028000           77.29001          -17.24623           79.13715          -17.49969
        3.032000           76.20334          -17.92587           78.01141          -18.24541
        3.036000           75.12305          -18.51843           76.88484          -18.90363
        3.040000           74.05746          -19.02616           75.76599          -19.47516
        3.044000           73.01466          -19.45233           74.66277          -19.96224
        3.048000           72.00221          -19.80117           73.58355          -20.36769
        3.052000           71.02740          -20.07771           72.53559          -20.69534
        3.056000           70.09672          -20.28780           71.52550          -20.94962
        3.060000           69.21609          -20.43810           70.56145          -21.13642
        3.064000           68.39049          -20.53572           69.64831          -21.26215
        3.068000           67.62407          -20.58870           68.79205          -21.33370
        3.072000           66.92008          -20.60518           67.99730          -21.35885
        3.076000           66.28085          -20.59376           67.26768          -21.34628
        3.080000           65.70724          -20.56320           66.60529          -21.30434
        3.084000           65.19945          -20.52251           66.01242          -21.24203
        3.088000           64.75650          -20.48047           65.48856          -21.16890
        3.092000           64.37634          -20.44579           65.03401          -21.09396
        3.096000           64.05560          -20.42686           64.64645          -21.02658
        3.100000           63.79006          -20.43170           64.32333          -20.97573
        3.104000           63.57439          -20.46768           64.05985          -20.95013
        3.108000           63.40235          -20.54153           63.85061          -20.95786
        3.112000           63.26664          -20.65907           63.69013          -21.00661
        3.116000           63.15911          -20.82522           63.56968          -21.10311
        3.120000           63.07125          -21.04355           63.48130          -21.25292
        3.124000           62.99369          -21.31666           63.41571          -21.46046
        3.128000           62.91661          -21.64574           63.36239          -21.72892
        3.132000           62.83017          -22.03020           63.31058          -22.05987
        3.136000           62.72466          -22.46830           63.24949          -22.45323
        3.140000           62.59047          -22.95656           63.16788          -22.90728
        3.144000           62.41886          -23.49004           63.05542          -23.41814
        3.148000           62.20149          -24.06258           62.90106          -23.98097
        3.152000           61.93127          -24.66651           62.69627          -24.58848
        3.156000           61.60263          -25.29321           62.43245          -25.23197
        3.160000           61.21123          -25.93314           62.10350          -25.90192
        3.164000           60.75418          -26.57627           61.70416          -26.58767
        3.168000           60.23075          -27.21222           61.23172          -27.27732
        3.172000           59.64142          -27.83087           60.68506          -27.95971
        3.176000           58.98876          -28.42225           60.06537          -28.62291
        3.180000           58.27626          -28.97695           59.37529          -29.25633
        3.184000           57.50912          -29.48665           58.61917          -29.84891
        3.188000           56.69374          -29.94388           57.80328          -30.39187
        3.192000           55.83723          -30.34258           56.93459          -30.87719
        3.196000           54.94731          -30.67765           56.02172          -31.29838
        3.200000           54.03235          -30.94566           55.07285          -31.65023
        3.204000           53.10050          -31.14419           54.09759          -31.92947
        3.208000           52.16028          -31.27225           53.10502          -32.13366
        3.212000           51.21969          -31.32977           52.10387          -32.26224
        3.216000           50.28642          -31.31806           51.10309          -32.31570
        3.220000           49.36758          -31.23906           50.11081          -32.29554
        3.224000           48.46987          -31.09542           49.13402          -32.20436
        3.228000           47.59903          -30.89064           48.17998          -32.04540
        3.232000           46.76036          -30.62847           47.25431          -31.82231
        3.236000           45.95867          -30.31315           46.36204          -31.53909
        3.240000           45.19743          -29.94901           45.50824          -31.20056
        3.244000           44.48020          -29.54064           44.69602          -30.81115
        3.248000           43.80955          -29.09270           43.92874          -30.37525
        3.252000           43.18774          -28.60973           43.20901          -29.89816
        3.256000           42.61632          -28.09627           42.53896          -29.38381
        3.260000           42.09647          -27.55679           41.91962          -28.83702
        3.264000           41.62920          -26.99555           41.35282          -28.26189
        3.268000           41.21502          -26.41685           40.83874          -27.66265
        3.272000           40.85402          -25.82461           40.37839          -27.04341
        3.276000           40.54623          -25.22285           39.97175          -26.40763
        3.280000           40.29143          -24.61528           39.61909          -25.75936
        3.284000           40.08894          -24.00549           39.32008          -25.10179
        3.288000           39.93819          -23.39686           39.07497          -24.43835
        3.292000           39.83827          -22.79288           38.88286          -23.77238
        3.296000           39.78807          -22.19665           38.74362          -23.10698
        3.300000           39.78649          -21.61120           38.65663          -22.44520
        3.304000           39.83204          -21.03952           38.62111          -21.79026
        3.308000           39.92329          -20.48418           38.63629          -21.14471
        3.312000           40.05867          -19.94792           38.70137          -20.51165
        3.316000           40.23623          -19.43317           38.81509          -19.89388
        3.320000           40.45429          -18.94214           38.97655          -19.29437
        3.324000           40.71071          -18.47695           39.18422          -18.71559
        3.328000           41.00355          -18.03943           39.43662          -18.16038
        3.332000           41.33069          -17.63134           39.73214          -17.63123
        3.336000           41.69011          -17.25415           40.06895          -17.13038
        3.340000           42.07967          -16.90930           40.44497          -16.66042
        3.344000           42.49716          -16.59792           40.85817          -16.22332
        3.348000           42.94063          -16.32108           41.30637          -15.82111
        3.352000           43.40808          -16.07960           41.78721          -15.45550
        3.356000           43.89760          -15.87434           42.29847          -15.12777
        3.360000           44.40733          -15.70593           42.83732          -14.83935
        3.364000           44.93548          -15.57516           43.40190          -14.59124
        3.368000           45.48028          -15.48255           43.98990          -14.38433
        3.372000           46.04041          -15.42882           44.59935          -14.21941
        3.376000           46.61410          -15.41455           45.22811          -14.09703
        3.380000           47.19994          -15.44049           45.87431          -14.01783
        3.384000           47.79630          -15.50748           46.53669          -13.98249
        3.388000           48.40162          -15.61625           47.21355          -13.99182
        3.392000           49.01439          -15.76782           47.90351          -14.04674
        3.396000           49.63282          -15.96322           48.60527          -14.14851
        3.400000           50.25529          -16.20356           49.31750          -14.29847
        3.404000           50.87971          -16.48993           50.03786          -14.49825
        3.408000           51.50381          -16.82367           50.76496          -14.74975
        3.412000           52.12526          -17.20592           51.49631          -15.05491
        3.416000           52.74128          -17.63791           52.22938          -15.41570
        3.420000           53.34906          -18.12079           52.96094          -15.83434
        3.424000           53.94537          -18.65555           53.68726          -16.31268
        3.428000           54.52639          -19.24308           54.40445          -16.85251
        3.432000           55.08848          -19.88399           55.10769          -17.45528
        3.436000           55.62714          -20.57851           55.79222          -18.12198
        3.440000           56.13813          -21.32676           56.45220          -18.85332
        3.444000           56.61675          -22.12822           57.08254          -19.64921
        3.448000           57.05777          -22.98185           57.67667          -20.50924
        3.452000           57.45594          -23.88621           58.22822          -21.43209
        3.456000           57.80631          -24.83914           58.73125          -22.41579
        3.460000           58.10341          -25.83761           59.17879          -23.45742
        3.464000           58.34232          -26.87839           59.56482          -24.55355
        3.468000           58.51791          -27.95703           59.88331          -25.69963
        3.472000           58.62565          -29.06845           60.12814          -26.89047
        3.476000           58.66135          -30.20712           60.29401          -28.11941
        3.480000           58.62173          -31.36663           60.37648          -29.37988
        3.484000           58.50396          -32.53989           60.37148          -30.66394
        3.488000           58.30591          -33.71983           60.27601          -31.96353
        3.492000           58.02676          -34.89875           60.08829          -33.26979
        3.496000           57.66611          -36.06873           59.80699          -34.57357
        3.500000           57.22511          -37.22200           59.43283          -35.86576
        3.504000           56.70545          -38.35082           58.96693          -37.13696
        3.508000           56.10957          -39.44772           58.41190          -38.37874
        3.512000           55.44131          -40.50567           57.77057          -39.58221
        3.516000           54.70507          -41.51784           57.04876          -40.73922
        3.520000           53.90592          -42.47846           56.25113          -41.84238
        3.524000           53.04968          -43.38198           55.38420          -42.88514
        3.528000           52.14275          -44.22378           54.45473          -43.86163
        3.532000           51.19156          -45.00017           53.47081          -44.76697
        3.536000           50.20362          -45.70822           52.44004          -45.59710
        3.540000           49.18608          -46.34585           51.37094          -46.34929
        3.544000           48.14635          -46.91188           50.27222          -47.02179
        3.548000           47.09200          -47.40619           49.15203          -47.61408
        3.552000           46.02992          -47.82944           48.01884          -48.12632
        3.556000           44.96709          -48.18306           46.88052          -48.55982
        3.560000           43.91016          -48.46943           45.74477          -48.91695
        3.564000           42.86492          -48.69141           44.61853          -49.20060
        3.568000           41.83699          -48.85247           43.50826          -49.41439
        3.572000           40.83133          -48.95678           42.41959          -49.56290
        3.576000           39.85193          -49.00866           41.35752          -49.65085
        3.580000           38.90238          -49.01276           40.32619          -49.68292
        3.584000           37.98557          -48.97409           39.32907          -49.66508
        3.588000           37.10369          -48.89764           38.36924          -49.60191
        3.592000           36.25837          -48.78838           37.44839          -49.49954
        3.596000           35.45059          -48.65144           36.56824          -49.36295
        3.600000           34.68050          -48.49163           35.72917          -49.19770
        3.604000           33.94810          -48.31358           34.93179          -49.00923
        3.608000           33.25258          -48.12197           34.17559          -48.80202
        3.612000           32.59278          -47.92091           33.45960          -48.58099
        3.616000           31.96706          -47.71447           32.78275          -48.35061
        3.620000           31.37336          -47.50614           32.14312          -48.11484
        3.624000           30.80923          -47.29912           31.53867          -47.87785
        3.628000           30.27208          -47.09633           30.96679          -47.64259
        3.632000           29.75885          -46.89984           30.42483          -47.41267
        3.636000           29.26648          -46.71167           29.90979          -47.18974
        3.640000           28.79164          -46.53300           29.41821          -46.97691
        3.644000           28.33100          -46.36459           28.94678          -46.77482
        3.648000           27.88125          -46.20670           28.49178          -46.58520
        3.652000           27.43933          -46.05901           28.04999          -46.40799
        3.656000           27.00222          -45.92078           27.61768          -46.24333
        3.660000           26.56728          -45.79067           27.19172          -46.09083
        3.664000           26.13222          -45.66715           26.76908          -45.94882
        3.668000           25.69504          -45.54806           26.34679          -45.81600
        3.672000           25.25446          -45.43144           25.92277          -45.69056
        3.676000           24.80942          -45.31485           25.49533          -45.57006
        3.680000           24.35953          -45.19591           25.06288          -45.45215
        3.684000           23.90490          -45.07240           24.62492          -45.33390
        3.688000           23.44581          -44.94205           24.18096          -45.21303
        3.692000           22.98322          -44.80294           23.73138          -45.08715
        3.696000           22.51834          -44.65347           23.27697          -44.95369
        3.700000           22.05252          -44.49212           22.81863          -44.81100
        3.704000           21.58744          -44.31795           22.35792          -44.65717
        3.708000           21.12475          -44.13025           21.89649          -44.49102
        3.712000           20.66618          -43.92864           21.43600          -44.31154
        3.716000           20.21341          -43.71311           20.97832          -44.11793
        3.720000           19.76814          -43.48384           20.52532          -43.91053
        3.724000           19.33187          -43.24139           20.07879          -43.68906
        3.728000           18.90601          -42.98634           19.64045          -43.45396
        3.732000           18.49172          -42.71951           19.21174          -43.20573
        3.736000           18.09009          -42.44193           18.79398          -42.94515
        3.740000           17.70198          -42.15466           18.38850          -42.67327
        3.744000           17.32814          -41.85871           17.99623          -42.39131
        3.748000           16.96912          -41.55536           17.61800          -42.10020
        3.752000           16.62540          -41.24572           17.25456          -41.80118
        3.756000           16.29718          -40.93091           16.90627          -41.49525
        3.760000           15.98468          -40.61200           16.57359          -41.18397
        3.764000           15.68796          -40.29020           16.25669          -40.86836
        3.768000           15.40704          -39.96657           15.95580          -40.54951
        3.772000           15.14178          -39.64204           15.67086          -40.22869
        3.776000           14.89209          -39.31774           15.40173          -39.90682
        3.780000           14.65764          -38.99470           15.14832          -39.58526
        3.784000           14.43817          -38.67362           14.91037          -39.26490
        3.788000           14.23337          -38.35567           14.68762          -38.94680
        3.792000           14.04284          -38.04157           14.47964          -38.63161
        3.796000           13.86617          -37.73230           14.28613          -38.32095
        3.800000           13.70281          -37.42857           14.10647          -38.01498
        3.804000           13.55223          -37.13135           13.94015          -37.71520
        3.808000           13.41381          -36.84134           13.78658          -37.42235
        3.812000           13.28688          -36.55938           13.64503          -37.13694
        3.816000           13.17070          -36.28620           13.51477          -36.85995
        3.820000           13.06442          -36.02250           13.39496          -36.59241
        3.824000           12.96712          -35.76897           13.28456          -36.33460
        3.828000           12.87776          -35.52617           13.18271          -36.08747
        3.832000           12.79526          -35.29461           13.08810          -35.85131
        3.836000           12.71846          -35.07476           12.99966          -35.62699
        3.840000           12.64605          -34.86689           12.91601          -35.41446
        3.844000           12.57670          -34.67121           12.83585          -35.21395
        3.848000           12.50901          -34.48767           12.75773          -35.02564
        3.852000           12.44153          -34.31612           12.68017          -34.84922
        3.856000           12.37284          -34.15616           12.60175          -34.68446
        3.860000           12.30154          -34.00724           12.52102          -34.53062
        3.864000           12.22627          -33.86857           12.43663          -34.38720
        3.868000           12.14583          -33.73912           12.34732          -34.25300
        3.872000           12.05909          -33.61782           12.25201          -34.12687
        3.876000           11.96521          -33.50321           12.14978          -34.00757
        3.880000           11.86351          -33.39388           12.03995          -33.89369
        3.884000           11.75356          -33.28831           11.92206          -33.78345
        3.888000           11.63516          -33.18494           11.79589          -33.67553
        3.892000           11.50837          -33.08222           11.66156          -33.56833
        3.896000           11.37353          -32.97856           11.51929          -33.46046
        3.900000           11.23118          -32.87267           11.36966          -33.35022
        3.904000           11.08206          -32.76328           11.21334          -33.23651
        3.908000           10.92706          -32.64932           11.05129          -33.11845
        3.912000           10.76716          -32.52988           10.88443          -32.99486
        3.916000           10.60348          -32.40435           10.71382          -32.86520
        3.920000           10.43714          -32.27211           10.54063          -32.72905
        3.924000           10.26924          -32.13298           10.36591          -32.58610
        3.928000           10.10088          -31.98684           10.19075          -32.43611
        3.932000           9.933120          -31.83369           10.01621          -32.27907
        3.936000           9.766870          -31.67366           9.843197          -32.11531
        3.940000           9.603046          -31.50707           9.672561          -31.94499
        3.944000           9.442406          -31.33430           9.505113          -31.76865
        3.948000           9.285651          -31.15573           9.341454          -31.58643
        3.952000           9.133360          -30.97185           9.182205          -31.39890
        3.956000           8.986040          -30.78322           9.027853          -31.20660
        3.960000           8.844086          -30.59023           8.878750          -31.01003
        3.964000           8.707820          -30.39351           8.735265          -30.80967
        3.968000           8.577542          -30.19349           8.597606          -30.60604
        3.972000           8.453437          -29.99071           8.465969          -30.39951
        3.976000           8.335663          -29.78574           8.340499          -30.19068
        3.980000           8.224333          -29.57885           8.221299          -29.97999
        3.984000           8.119504          -29.37061           8.108407          -29.76772
        3.988000           8.021226          -29.16141           8.001867          -29.55433
        3.992000           7.929526          -28.95164           7.901676          -29.34023
        3.996000           7.844398          -28.74169           7.807828          -29.12569
        4.000000           7.765851          -28.53188           7.720296          -28.91128
# 
# 10/28/2023 at 15:30 yambo @ unimi-XPS-8930 [start]
# 10/28/2023 at 15:30                        [end]
#  
# Timing   [Min/Max/Average]: 11s/11s/11s
#
# .-Input file  yambo.in
# | optics                           # [R] Linear Response optical properties
# | bss                              # [R] BSE solver
# | bse                              # [R][BSE] Bethe Salpeter Equation.
# | tddft                            # [R][K] Use TDDFT kernel
# | ElecTemp= 0.025861         eV    # Electronic Temperature
# | BoseTemp= 0.025861         eV    # Bosonic Temperature
# | FFTGvecs=  603             RL    # [FFT] Plane-waves
# | BS_nCPU_LinAlg_INV= 1            # [PARALLEL] CPUs for Linear Algebra (if -1 it is automatically set)
# | BS_nCPU_LinAlg_DIAGO= 1          # [PARALLEL] CPUs for Linear Algebra (if -1 it is automatically set)
# | X_Threads= 1                     # [OPENMP/X] Number of threads for response functions
# | DIP_Threads= 1                   # [OPENMP/X] Number of threads for dipoles
# | K_Threads= 1                     # [OPENMP/BSK] Number of threads for response functions
# | BSKmod= "ALDA"                   # [BSE] IP/Hartree/HF/ALDA/SEX/BSfxc
# | BSEmod= "resonant"               # [BSE] resonant/retarded/coupling
# | BSSmod= "d"                      # [BSS] (h)aydock/(d)iagonalization/(s)lepc/(i)nversion/(t)ddft`
# | DipComputed= "R V P"             # [DIP] [default R P V; extra P2 Spin Orb]
# | BSENGexx= 1157             RL    # [BSK] Exchange components
# | BSENGfxc= 1157             RL    # [BSK] Fxc components
# | % BSEQptR
# |  1 | 2 |                             # [BSK] Transferred momenta range
# | %
# | % BSEBands
# |   2 |  6 |                           # [BSK] Bands range
# | %
# | % BEnRange
# | -2.000000 | 4.000000 |         eV    # [BSS] Energy range
# | %
# | % BDmRange
# |  0.100000 | 0.100000 |         eV    # [BSS] Damping range
# | %
# | BEnSteps= 1501                   # [BSS] Energy steps
# | % BLongDir
# |  0.000000 | 1.000000 | 0.000000 |        # [BSS] [cc] Electric Field versor
# | %
# | BSEprop= " abs jdos"             # [BSS] Can be any among abs/jdos/kerr/asymm/anHAll/magn/dich/photolum/esrt
# | BSEdips= "none"                  # [BSS] Can be "trace/none" or "xy/xz/yz" to define off-diagonal rotation plane
# | #WRbsWF                        # [BSS] Write to disk excitonic the WFs
