#                                                                     
#                                                                     
# Y88b    /   e           e    e      888~~\    ,88~-_                
#  Y88b  /   d8b         d8b  d8b     888   |  d888   \               
#   Y88b/   /Y88b       d888bdY88b    888 _/  88888    |              
#    Y8Y   /  Y88b     / Y88Y Y888b   888  \  88888    |              
#     Y   /____Y88b   /   YY   Y888b  888   |  Y888   /               
#    /   /      Y88b /          Y888b 888__/    `88_-~                
#                                                                     
#                                                                     
# Version 5.2.0 Revision 22885 Hash (prev commit) 41fc9d87d4          
#                Branch is phys-dichroism                             
#         MPI+OpenMP+SLK+SLEPC+HDF5_MPI_IO Build                      
#               http://www.yambo-code.org                             
#
# Joint Density of states @ Q(1):   0.00000000     0.999999975E-5   0.00000000    [q->0 direction]
#
# [GEN] GF Energies                               : Perdew, Burke & Ernzerhof(X)+Perdew, Burke & Ernzerhof(C)
# [GEN] Green`s Function                          : Resonant
#
# [GEN] Gauge                                     : Length
# [GEN] [r,Vnl] included                          : yes
#
# DIP band range                                  :   2   6
# DIP band range limits                           :   6   2
# DIP e/h energy range                            :  -1.00000000     -1.00000000    [eV]
# RL vectors in the sum                           :   603
# [r,Vnl] included                                : yes
# Bands ordered                                   : no
# Direct v evaluation                             : no
# Approach used                                   : G-space v
# Dipoles computed                                : R V P Spin
# Wavefunctions                                   : Perdew, Burke & Ernzerhof(X)+Perdew, Burke & Ernzerhof(C)
#
#
# [K] Identifier                                  :   6181
# [K] Dimension                                   :   894
# [K] Bands                                       :   2   6
# [K] Exchange res                                : yes
# [K] Correlation res                             : no
# [K] Kernel`s coupling                           : no
# [K] Exchange cpl                                : no
# [K] Correlation cpl                             : no
# [K] W interaction is bare                       : no
# [K] ALDA kernel in R-space                      : yes
# [K] RL vectors exchange                         :  1157
# [K] E/h energy range                            :  -1.00000000     -1.00000000    [eV]
# [K] Coupling range                              :   100.000000      100.000000    [o/o]
# [X] Response Kind                               : BAR
#
#
#    E[1] [eV]          Im(jdos)           Re(jdos)           Im(jdos_o)         Re(jdos_o)
#
       -2.000000           0.231027           10.96261           0.212081           10.82560
       -1.996000           0.231607           10.97183           0.212439           10.83406
       -1.992000           0.232193           10.98104           0.212798           10.84256
       -1.988000           0.232784           10.99029           0.213158           10.85108
       -1.984000           0.233380           10.99958           0.213519           10.85960
       -1.980000           0.233982           11.00888           0.213880           10.86813
       -1.976000           0.234589           11.01821           0.214242           10.87671
       -1.972000           0.235202           11.02755           0.214606           10.88524
       -1.968000           0.235821           11.03690           0.214971           10.89384
       -1.964000           0.236446           11.04630           0.215336           10.90244
       -1.960000           0.237076           11.05573           0.215703           10.91104
       -1.956000           0.237714           11.06515           0.216070           10.91969
       -1.952000           0.238357           11.07463           0.216439           10.92831
       -1.948000           0.239007           11.08414           0.216808           10.93699
       -1.944000           0.239663           11.09364           0.217178           10.94567
       -1.940000           0.240327           11.10318           0.217551           10.95433
       -1.936000           0.240997           11.11274           0.217923           10.96305
       -1.932000           0.241675           11.12234           0.218296           10.97177
       -1.928000           0.242360           11.13195           0.218671           10.98045
       -1.924000           0.243052           11.14160           0.219048           10.98923
       -1.920000           0.243752           11.15127           0.219424           10.99802
       -1.916000           0.244460           11.16095           0.219801           11.00675
       -1.912000           0.245176           11.17067           0.220180           11.01557
       -1.908000           0.245900           11.18041           0.220560           11.02436
       -1.904000           0.246633           11.19019           0.220941           11.03316
       -1.900000           0.247375           11.20001           0.221323           11.04199
       -1.896000           0.248125           11.20985           0.221706           11.05085
       -1.892000           0.248885           11.21970           0.222090           11.05976
       -1.888000           0.249654           11.22958           0.222475           11.06860
       -1.884000           0.250432           11.23951           0.222862           11.07751
       -1.880000           0.251221           11.24945           0.223248           11.08641
       -1.876000           0.252020           11.25943           0.223637           11.09536
       -1.872000           0.252829           11.26943           0.224026           11.10432
       -1.868000           0.253650           11.27947           0.224416           11.11327
       -1.864000           0.254481           11.28952           0.224808           11.12225
       -1.860000           0.255323           11.29963           0.225201           11.13117
       -1.856000           0.256178           11.30976           0.225595           11.14024
       -1.852000           0.257045           11.31990           0.225990           11.14927
       -1.848000           0.257923           11.33010           0.226386           11.15832
       -1.844000           0.258815           11.34032           0.226783           11.16736
       -1.840000           0.259720           11.35057           0.227182           11.17642
       -1.836000           0.260638           11.36085           0.227580           11.18551
       -1.832000           0.261570           11.37116           0.227981           11.19461
       -1.828000           0.262518           11.38152           0.228383           11.20376
       -1.824000           0.263479           11.39190           0.228786           11.21288
       -1.820000           0.264456           11.40232           0.229189           11.22201
       -1.816000           0.265449           11.41276           0.229595           11.23121
       -1.812000           0.266458           11.42327           0.230001           11.24038
       -1.808000           0.267484           11.43378           0.230408           11.24954
       -1.804000           0.268528           11.44437           0.230817           11.25879
       -1.800000           0.269589           11.45497           0.231226           11.26799
       -1.796000           0.270669           11.46560           0.231638           11.27729
       -1.792000           0.271768           11.47628           0.232049           11.28652
       -1.788000           0.272887           11.48700           0.232462           11.29579
       -1.784000           0.274027           11.49774           0.232877           11.30510
       -1.780000           0.275187           11.50852           0.233293           11.31441
       -1.776000           0.276369           11.51935           0.233709           11.32376
       -1.772000           0.277575           11.53020           0.234128           11.33307
       -1.768000           0.278803           11.54112           0.234547           11.34244
       -1.764000           0.280057           11.55209           0.234967           11.35184
       -1.760000           0.281335           11.56309           0.235389           11.36119
       -1.756000           0.282640           11.57413           0.235812           11.37066
       -1.752000           0.283971           11.58522           0.236237           11.38010
       -1.748000           0.285331           11.59633           0.236661           11.38955
       -1.744000           0.286720           11.60751           0.237089           11.39898
       -1.740000           0.288139           11.61871           0.237516           11.40848
       -1.736000           0.289590           11.62995           0.237944           11.41795
       -1.732000           0.291073           11.64128           0.238375           11.42745
       -1.728000           0.292590           11.65263           0.238807           11.43699
       -1.724000           0.294143           11.66403           0.239239           11.44657
       -1.720000           0.295732           11.67547           0.239673           11.45611
       -1.716000           0.297359           11.68699           0.240108           11.46574
       -1.712000           0.299026           11.69853           0.240546           11.47533
       -1.708000           0.300735           11.71014           0.240983           11.48497
       -1.704000           0.302485           11.72180           0.241423           11.49458
       -1.700000           0.304283           11.73350           0.241864           11.50422
       -1.696000           0.306125           11.74525           0.242305           11.51391
       -1.692000           0.308017           11.75706           0.242748           11.52357
       -1.688000           0.309959           11.76892           0.243193           11.53335
       -1.684000           0.311955           11.78085           0.243638           11.54302
       -1.680000           0.314005           11.79282           0.244086           11.55278
       -1.676000           0.316114           11.80485           0.244533           11.56255
       -1.672000           0.318282           11.81693           0.244983           11.57230
       -1.668000           0.320514           11.82911           0.245434           11.58210
       -1.664000           0.322812           11.84132           0.245886           11.59189
       -1.660000           0.325179           11.85358           0.246340           11.60175
       -1.656000           0.327618           11.86591           0.246796           11.61162
       -1.652000           0.330131           11.87830           0.247252           11.62150
       -1.648000           0.332725           11.89077           0.247709           11.63138
       -1.644000           0.335400           11.90328           0.248168           11.64130
       -1.640000           0.338164           11.91586           0.248628           11.65121
       -1.636000           0.341018           11.92848           0.249091           11.66112
       -1.632000           0.343967           11.94122           0.249554           11.67105
       -1.628000           0.347016           11.95399           0.250019           11.68107
       -1.624000           0.350171           11.96682           0.250485           11.69104
       -1.620000           0.353435           11.97973           0.250953           11.70107
       -1.616000           0.356817           11.99272           0.251422           11.71118
       -1.612000           0.360320           12.00571           0.251892           11.72122
       -1.608000           0.363949           12.01883           0.252364           11.73127
       -1.604000           0.367714           12.03199           0.252837           11.74136
       -1.600000           0.371621           12.04523           0.253312           11.75147
       -1.596000           0.375677           12.05850           0.253787           11.76160
       -1.592000           0.379889           12.07184           0.254266           11.77175
       -1.588000           0.384267           12.08527           0.254744           11.78195
       -1.584000           0.388817           12.09873           0.255224           11.79214
       -1.580000           0.393552           12.11225           0.255706           11.80232
       -1.576000           0.398478           12.12584           0.256190           11.81255
       -1.572000           0.403609           12.13945           0.256674           11.82278
       -1.568000           0.408952           12.15313           0.257160           11.83302
       -1.564000           0.414522           12.16686           0.257648           11.84335
       -1.560000           0.420327           12.18062           0.258137           11.85365
       -1.556000           0.426385           12.19438           0.258629           11.86397
       -1.552000           0.432704           12.20822           0.259121           11.87432
       -1.548000           0.439302           12.22201           0.259615           11.88466
       -1.544000           0.446191           12.23587           0.260111           11.89503
       -1.540000           0.453387           12.24969           0.260607           11.90548
       -1.536000           0.460908           12.26348           0.261106           11.91584
       -1.532000           0.468767           12.27726           0.261605           11.92634
       -1.528000           0.476981           12.29098           0.262108           11.93675
       -1.524000           0.485572           12.30467           0.262610           11.94723
       -1.520000           0.494553           12.31826           0.263115           11.95778
       -1.516000           0.503944           12.33173           0.263622           11.96825
       -1.512000           0.513763           12.34508           0.264129           11.97879
       -1.508000           0.524027           12.35829           0.264640           11.98939
       -1.504000           0.534755           12.37129           0.265150           11.99994
       -1.500000           0.545962           12.38406           0.265662           12.01055
       -1.496000           0.557665           12.39658           0.266177           12.02116
       -1.492000           0.569878           12.40877           0.266693           12.03183
       -1.488000           0.582613           12.42063           0.267211           12.04247
       -1.484000           0.595880           12.43205           0.267729           12.05317
       -1.480000           0.609682           12.44301           0.268249           12.06385
       -1.476000           0.624022           12.45345           0.268773           12.07460
       -1.472000           0.638896           12.46330           0.269296           12.08536
       -1.468000           0.654294           12.47249           0.269822           12.09611
       -1.464000           0.670197           12.48090           0.270349           12.10688
       -1.460000           0.686577           12.48849           0.270879           12.11770
       -1.456000           0.703396           12.49515           0.271410           12.12859
       -1.452000           0.720606           12.50082           0.271942           12.13943
       -1.448000           0.738142           12.50541           0.272477           12.15030
       -1.444000           0.755925           12.50881           0.273012           12.16116
       -1.440000           0.773864           12.51093           0.273550           12.17208
       -1.436000           0.791842           12.51169           0.274088           12.18301
       -1.432000           0.809740           12.51107           0.274631           12.19396
       -1.428000           0.827406           12.50895           0.275172           12.20496
       -1.424000           0.844677           12.50533           0.275717           12.21594
       -1.420000           0.861382           12.50016           0.276264           12.22703
       -1.416000           0.877335           12.49346           0.276812           12.23802
       -1.412000           0.892331           12.48524           0.277361           12.24910
       -1.408000           0.906175           12.47558           0.277913           12.26024
       -1.404000           0.918669           12.46457           0.278467           12.27131
       -1.400000           0.929629           12.45234           0.279022           12.28247
       -1.396000           0.938871           12.43905           0.279579           12.29357
       -1.392000           0.946251           12.42487           0.280138           12.30477
       -1.388000           0.951643           12.41004           0.280698           12.31597
       -1.384000           0.954958           12.39474           0.281260           12.32722
       -1.380000           0.956143           12.37928           0.281824           12.33849
       -1.376000           0.955187           12.36393           0.282391           12.34975
       -1.372000           0.952113           12.34889           0.282959           12.36101
       -1.368000           0.947000           12.33444           0.283530           12.37232
       -1.364000           0.939950           12.32076           0.284101           12.38363
       -1.360000           0.931098           12.30813           0.284674           12.39504
       -1.356000           0.920609           12.29669           0.285250           12.40643
       -1.352000           0.908655           12.28655           0.285827           12.41777
       -1.348000           0.895443           12.27786           0.286407           12.42922
       -1.344000           0.881162           12.27071           0.286988           12.44072
       -1.340000           0.866015           12.26513           0.287570           12.45221
       -1.336000           0.850196           12.26111           0.288157           12.46368
       -1.332000           0.833889           12.25869           0.288744           12.47521
       -1.328000           0.817260           12.25781           0.289333           12.48675
       -1.324000           0.800469           12.25842           0.289922           12.49831
       -1.320000           0.783647           12.26047           0.290516           12.50985
       -1.316000           0.766920           12.26388           0.291112           12.52153
       -1.312000           0.750390           12.26856           0.291709           12.53315
       -1.308000           0.734146           12.27444           0.292308           12.54476
       -1.304000           0.718255           12.28141           0.292908           12.55650
       -1.300000           0.702777           12.28939           0.293510           12.56819
       -1.296000           0.687759           12.29830           0.294117           12.57995
       -1.292000           0.673231           12.30807           0.294723           12.59174
       -1.288000           0.659217           12.31859           0.295333           12.60349
       -1.284000           0.645734           12.32981           0.295944           12.61529
       -1.280000           0.632786           12.34161           0.296557           12.62713
       -1.276000           0.620376           12.35399           0.297174           12.63902
       -1.272000           0.608504           12.36683           0.297789           12.65090
       -1.268000           0.597159           12.38013           0.298409           12.66279
       -1.264000           0.586330           12.39377           0.299031           12.67472
       -1.260000           0.576005           12.40779           0.299655           12.68667
       -1.256000           0.566173           12.42210           0.300281           12.69864
       -1.252000           0.556810           12.43666           0.300910           12.71062
       -1.248000           0.547906           12.45141           0.301539           12.72267
       -1.244000           0.539440           12.46639           0.302172           12.73473
       -1.240000           0.531393           12.48150           0.302807           12.74681
       -1.236000           0.523751           12.49678           0.303443           12.75892
       -1.232000           0.516492           12.51219           0.304081           12.77108
       -1.228000           0.509600           12.52769           0.304723           12.78322
       -1.224000           0.503059           12.54326           0.305366           12.79541
       -1.220000           0.496850           12.55892           0.306011           12.80766
       -1.216000           0.490958           12.57463           0.306661           12.81987
       -1.212000           0.485368           12.59037           0.307310           12.83213
       -1.208000           0.480063           12.60618           0.307963           12.84439
       -1.204000           0.475032           12.62201           0.308617           12.85670
       -1.200000           0.470258           12.63784           0.309275           12.86909
       -1.196000           0.465729           12.65370           0.309933           12.88142
       -1.192000           0.461434           12.66956           0.310595           12.89383
       -1.188000           0.457360           12.68542           0.311260           12.90621
       -1.184000           0.453494           12.70129           0.311926           12.91863
       -1.180000           0.449830           12.71714           0.312595           12.93112
       -1.176000           0.446355           12.73298           0.313265           12.94361
       -1.172000           0.443059           12.74883           0.313939           12.95619
       -1.168000           0.439935           12.76466           0.314615           12.96873
       -1.164000           0.436972           12.78045           0.315294           12.98130
       -1.160000           0.434163           12.79626           0.315973           12.99393
       -1.156000           0.431502           12.81203           0.316657           13.00655
       -1.152000           0.428981           12.82782           0.317342           13.01918
       -1.148000           0.426591           12.84357           0.318030           13.03184
       -1.144000           0.424329           12.85931           0.318719           13.04458
       -1.140000           0.422186           12.87502           0.319412           13.05737
       -1.136000           0.420158           12.89072           0.320109           13.07003
       -1.132000           0.418239           12.90640           0.320805           13.08291
       -1.128000           0.416425           12.92206           0.321506           13.09574
       -1.124000           0.414709           12.93769           0.322208           13.10862
       -1.120000           0.413089           12.95333           0.322915           13.12145
       -1.116000           0.411558           12.96894           0.323622           13.13437
       -1.112000           0.410114           12.98452           0.324333           13.14733
       -1.108000           0.408753           13.00012           0.325046           13.16027
       -1.104000           0.407469           13.01568           0.325761           13.17324
       -1.100000           0.406263           13.03124           0.326480           13.18630
       -1.096000           0.405127           13.04677           0.327201           13.19932
       -1.092000           0.404059           13.06231           0.327923           13.21241
       -1.088000           0.403060           13.07783           0.328650           13.22553
       -1.084000           0.402123           13.09333           0.329380           13.23864
       -1.080000           0.401245           13.10883           0.330111           13.25179
       -1.076000           0.400427           13.12432           0.330845           13.26506
       -1.072000           0.399664           13.13979           0.331581           13.27824
       -1.068000           0.398954           13.15528           0.332321           13.29151
       -1.064000           0.398297           13.17075           0.333064           13.30477
       -1.060000           0.397688           13.18624           0.333808           13.31807
       -1.056000           0.397128           13.20167           0.334557           13.33145
       -1.052000           0.396612           13.21714           0.335307           13.34483
       -1.048000           0.396141           13.23259           0.336061           13.35823
       -1.044000           0.395710           13.24804           0.336816           13.37164
       -1.040000           0.395320           13.26350           0.337576           13.38510
       -1.036000           0.394971           13.27896           0.338338           13.39865
       -1.032000           0.394660           13.29439           0.339102           13.41213
       -1.028000           0.394384           13.30987           0.339870           13.42573
       -1.024000           0.394144           13.32530           0.340641           13.43931
       -1.020000           0.393937           13.34078           0.341415           13.45291
       -1.016000           0.393763           13.35623           0.342191           13.46651
       -1.012000           0.393621           13.37169           0.342970           13.48021
       -1.008000           0.393509           13.38716           0.343753           13.49400
       -1.004000           0.393426           13.40263           0.344537           13.50769
       -1.000000           0.393373           13.41812           0.345326           13.52145
       -0.996000           0.393347           13.43362           0.346116           13.53524
       -0.992000           0.393347           13.44911           0.346911           13.54909
       -0.988000           0.393373           13.46461           0.347708           13.56293
       -0.984000           0.393425           13.48012           0.348508           13.57684
       -0.980000           0.393502           13.49564           0.349312           13.59078
       -0.976000           0.393601           13.51117           0.350119           13.60473
       -0.972000           0.393723           13.52673           0.350927           13.61879
       -0.968000           0.393868           13.54227           0.351741           13.63278
       -0.964000           0.394034           13.55786           0.352557           13.64680
       -0.960000           0.394221           13.57345           0.353376           13.66089
       -0.956000           0.394430           13.58905           0.354197           13.67505
       -0.952000           0.394656           13.60463           0.355022           13.68922
       -0.948000           0.394903           13.62026           0.355851           13.70340
       -0.944000           0.395169           13.63591           0.356683           13.71762
       -0.940000           0.395452           13.65155           0.357518           13.73187
       -0.936000           0.395755           13.66721           0.358357           13.74617
       -0.932000           0.396074           13.68291           0.359198           13.76049
       -0.928000           0.396410           13.69861           0.360044           13.77485
       -0.924000           0.396762           13.71433           0.360890           13.78922
       -0.920000           0.397131           13.73007           0.361743           13.80366
       -0.916000           0.397515           13.74584           0.362599           13.81814
       -0.912000           0.397915           13.76160           0.363456           13.83265
       -0.908000           0.398331           13.77738           0.364318           13.84713
       -0.904000           0.398760           13.79321           0.365184           13.86173
       -0.900000           0.399206           13.80906           0.366051           13.87630
       -0.896000           0.399663           13.82492           0.366923           13.89094
       -0.892000           0.400134           13.84079           0.367799           13.90558
       -0.888000           0.400620           13.85668           0.368678           13.92028
       -0.884000           0.401118           13.87262           0.369561           13.93501
       -0.880000           0.401630           13.88855           0.370447           13.94980
       -0.876000           0.402154           13.90452           0.371337           13.96465
       -0.872000           0.402691           13.92051           0.372229           13.97945
       -0.868000           0.403240           13.93652           0.373126           13.99433
       -0.864000           0.403801           13.95255           0.374027           14.00921
       -0.860000           0.404374           13.96861           0.374931           14.02420
       -0.856000           0.404958           13.98469           0.375839           14.03917
       -0.852000           0.405554           14.00081           0.376750           14.05416
       -0.848000           0.406161           14.01695           0.377665           14.06925
       -0.844000           0.406779           14.03310           0.378584           14.08430
       -0.840000           0.407408           14.04931           0.379507           14.09945
       -0.836000           0.408047           14.06555           0.380434           14.11463
       -0.832000           0.408697           14.08176           0.381363           14.12982
       -0.828000           0.409358           14.09807           0.382298           14.14510
       -0.824000           0.410028           14.11438           0.383236           14.16034
       -0.820000           0.410710           14.13066           0.384177           14.17567
       -0.816000           0.411401           14.14703           0.385124           14.19101
       -0.812000           0.412101           14.16342           0.386073           14.20643
       -0.808000           0.412811           14.17985           0.387026           14.22186
       -0.804000           0.413531           14.19626           0.387985           14.23733
       -0.800000           0.414260           14.21278           0.388946           14.25285
       -0.796000           0.414997           14.22929           0.389911           14.26836
       -0.792000           0.415747           14.24582           0.390881           14.28395
       -0.788000           0.416503           14.26235           0.391854           14.29957
       -0.784000           0.417270           14.27897           0.392833           14.31523
       -0.780000           0.418044           14.29559           0.393812           14.33091
       -0.776000           0.418829           14.31228           0.394801           14.34669
       -0.772000           0.419621           14.32895           0.395789           14.36245
       -0.768000           0.420423           14.34567           0.396785           14.37827
       -0.764000           0.421233           14.36244           0.397785           14.39410
       -0.760000           0.422052           14.37922           0.398786           14.41004
       -0.756000           0.422878           14.39609           0.399793           14.42599
       -0.752000           0.423713           14.41296           0.400805           14.44192
       -0.748000           0.424557           14.42982           0.401821           14.45793
       -0.744000           0.425409           14.44675           0.402841           14.47399
       -0.740000           0.426269           14.46372           0.403866           14.49010
       -0.736000           0.427138           14.48071           0.404896           14.50619
       -0.732000           0.428015           14.49776           0.405928           14.52245
       -0.728000           0.428898           14.51485           0.406966           14.53861
       -0.724000           0.429791           14.53191           0.408010           14.55495
       -0.720000           0.430692           14.54906           0.409057           14.57123
       -0.716000           0.431601           14.56626           0.410108           14.58757
       -0.712000           0.432516           14.58346           0.411164           14.60394
       -0.708000           0.433440           14.60074           0.412224           14.62038
       -0.704000           0.434373           14.61802           0.413289           14.63684
       -0.700000           0.435312           14.63533           0.414361           14.65342
       -0.696000           0.436260           14.65272           0.415434           14.66990
       -0.692000           0.437215           14.67009           0.416515           14.68649
       -0.688000           0.438178           14.68756           0.417600           14.70315
       -0.684000           0.439148           14.70504           0.418689           14.71978
       -0.680000           0.440127           14.72253           0.419783           14.73657
       -0.676000           0.441113           14.74013           0.420881           14.75338
       -0.672000           0.442106           14.75770           0.421986           14.77021
       -0.668000           0.443107           14.77536           0.423093           14.78700
       -0.664000           0.444115           14.79305           0.424206           14.80391
       -0.660000           0.445132           14.81075           0.425327           14.82088
       -0.656000           0.446155           14.82851           0.426450           14.83781
       -0.652000           0.447187           14.84632           0.427579           14.85490
       -0.648000           0.448225           14.86418           0.428713           14.87202
       -0.644000           0.449271           14.88205           0.429851           14.88909
       -0.640000           0.450325           14.90000           0.430993           14.90629
       -0.636000           0.451386           14.91795           0.432147           14.92348
       -0.632000           0.452455           14.93597           0.433300           14.94073
       -0.628000           0.453532           14.95405           0.434461           14.95809
       -0.624000           0.454615           14.97213           0.435626           14.97542
       -0.620000           0.455706           14.99027           0.436797           14.99290
       -0.616000           0.456805           15.00844           0.437972           15.01033
       -0.612000           0.457912           15.02669           0.439155           15.02772
       -0.608000           0.459025           15.04498           0.440339           15.04533
       -0.604000           0.460146           15.06328           0.441533           15.06289
       -0.600000           0.461275           15.08164           0.442730           15.08056
       -0.596000           0.462412           15.10006           0.443933           15.09826
       -0.592000           0.463555           15.11852           0.445143           15.11600
       -0.588000           0.464707           15.13701           0.446358           15.13370
       -0.584000           0.465866           15.15555           0.447579           15.15160
       -0.580000           0.467032           15.17417           0.448807           15.16950
       -0.576000           0.468206           15.19280           0.450036           15.18740
       -0.572000           0.469387           15.21148           0.451275           15.20534
       -0.568000           0.470577           15.23022           0.452518           15.22338
       -0.564000           0.471775           15.24902           0.453770           15.24148
       -0.560000           0.472979           15.26782           0.455024           15.25961
       -0.556000           0.474191           15.28674           0.456286           15.27779
       -0.552000           0.475412           15.30564           0.457554           15.29600
       -0.548000           0.476639           15.32463           0.458827           15.31431
       -0.544000           0.477874           15.34365           0.460106           15.33259
       -0.540000           0.479118           15.36272           0.461393           15.35098
       -0.536000           0.480368           15.38186           0.462685           15.36939
       -0.532000           0.481628           15.40103           0.463985           15.38797
       -0.528000           0.482894           15.42024           0.465289           15.40642
       -0.524000           0.484169           15.43952           0.466600           15.42500
       -0.520000           0.485451           15.45885           0.467917           15.44358
       -0.516000           0.486742           15.47820           0.469242           15.46236
       -0.512000           0.488039           15.49766           0.470572           15.48111
       -0.508000           0.489346           15.51711           0.471909           15.49987
       -0.504000           0.490661           15.53664           0.473253           15.51872
       -0.500000           0.491984           15.55626           0.474602           15.53764
       -0.496000           0.493314           15.57590           0.475960           15.55659
       -0.492000           0.494653           15.59559           0.477324           15.57558
       -0.488000           0.496000           15.61531           0.478694           15.59463
       -0.484000           0.497355           15.63513           0.480072           15.61377
       -0.480000           0.498719           15.65494           0.481457           15.63292
       -0.476000           0.500091           15.67488           0.482848           15.65217
       -0.472000           0.501470           15.69485           0.484247           15.67148
       -0.468000           0.502859           15.71487           0.485652           15.69082
       -0.464000           0.504255           15.73491           0.487062           15.71021
       -0.460000           0.505660           15.75502           0.488482           15.72960
       -0.456000           0.507074           15.77524           0.489909           15.74913
       -0.452000           0.508496           15.79547           0.491343           15.76873
       -0.448000           0.509928           15.81578           0.492784           15.78831
       -0.444000           0.511368           15.83612           0.494234           15.80806
       -0.440000           0.512817           15.85652           0.495688           15.82783
       -0.436000           0.514274           15.87699           0.497152           15.84756
       -0.432000           0.515740           15.89755           0.498626           15.86741
       -0.428000           0.517214           15.91810           0.500104           15.88727
       -0.424000           0.518698           15.93877           0.501590           15.90726
       -0.420000           0.520191           15.95949           0.503083           15.92735
       -0.416000           0.521692           15.98020           0.504587           15.94732
       -0.412000           0.523203           16.00103           0.506097           15.96759
       -0.408000           0.524723           16.02193           0.507617           15.98776
       -0.404000           0.526252           16.04287           0.509140           16.00802
       -0.400000           0.527791           16.06388           0.510673           16.02832
       -0.396000           0.529339           16.08492           0.512217           16.04865
       -0.392000           0.530896           16.10605           0.513767           16.06920
       -0.388000           0.532463           16.12724           0.515324           16.08966
       -0.384000           0.534039           16.14853           0.516893           16.11030
       -0.380000           0.535624           16.16981           0.518468           16.13087
       -0.376000           0.537219           16.19118           0.520053           16.15157
       -0.372000           0.538824           16.21260           0.521644           16.17232
       -0.368000           0.540439           16.23412           0.523245           16.19319
       -0.364000           0.542063           16.25568           0.524855           16.21409
       -0.360000           0.543698           16.27733           0.526473           16.23505
       -0.356000           0.545342           16.29905           0.528099           16.25610
       -0.352000           0.546997           16.32082           0.529735           16.27713
       -0.348000           0.548661           16.34262           0.531381           16.29828
       -0.344000           0.550336           16.36449           0.533035           16.31948
       -0.340000           0.552021           16.38646           0.534698           16.34077
       -0.336000           0.553716           16.40850           0.536371           16.36210
       -0.332000           0.555422           16.43059           0.538052           16.38354
       -0.328000           0.557138           16.45276           0.539746           16.40505
       -0.324000           0.558865           16.47499           0.541445           16.42653
       -0.320000           0.560603           16.49731           0.543155           16.44819
       -0.316000           0.562352           16.51967           0.544875           16.46989
       -0.312000           0.564111           16.54207           0.546605           16.49158
       -0.308000           0.565881           16.56460           0.548341           16.51343
       -0.304000           0.567662           16.58719           0.550091           16.53531
       -0.300000           0.569454           16.60981           0.551852           16.55723
       -0.296000           0.571258           16.63256           0.553619           16.57929
       -0.292000           0.573072           16.65534           0.555399           16.60134
       -0.288000           0.574898           16.67819           0.557188           16.62347
       -0.284000           0.576736           16.70112           0.558990           16.64578
       -0.280000           0.578585           16.72415           0.560799           16.66806
       -0.276000           0.580445           16.74723           0.562618           16.69047
       -0.272000           0.582317           16.77037           0.564451           16.71286
       -0.268000           0.584202           16.79363           0.566293           16.73541
       -0.264000           0.586098           16.81692           0.568145           16.75808
       -0.260000           0.588007           16.84030           0.570010           16.78066
       -0.256000           0.589927           16.86375           0.571884           16.80346
       -0.252000           0.591859           16.88730           0.573769           16.82622
       -0.248000           0.593806           16.91090           0.575666           16.84919
       -0.244000           0.595763           16.93460           0.577573           16.87211
       -0.240000           0.597733           16.95835           0.579493           16.89520
       -0.236000           0.599717           16.98219           0.581424           16.91825
       -0.232000           0.601713           17.00611           0.583366           16.94152
       -0.228000           0.603721           17.03012           0.585320           16.96479
       -0.224000           0.605742           17.05420           0.587287           16.98805
       -0.220000           0.607777           17.07835           0.589266           17.01155
       -0.216000           0.609824           17.10261           0.591255           17.03506
       -0.212000           0.611887           17.12691           0.593259           17.05865
       -0.208000           0.613962           17.15133           0.595272           17.08232
       -0.204000           0.616050           17.17581           0.597300           17.10610
       -0.200000           0.618153           17.20038           0.599338           17.12986
       -0.196000           0.620270           17.22501           0.601389           17.15377
       -0.192000           0.622401           17.24976           0.603458           17.17780
       -0.188000           0.624545           17.27456           0.605532           17.20177
       -0.184000           0.626705           17.29949           0.607623           17.22603
       -0.180000           0.628878           17.32447           0.609728           17.25026
       -0.176000           0.631066           17.34953           0.611847           17.27454
       -0.172000           0.633269           17.37470           0.613978           17.29900
       -0.168000           0.635487           17.39996           0.616121           17.32341
       -0.164000           0.637720           17.42528           0.618279           17.34799
       -0.160000           0.639968           17.45072           0.620452           17.37265
       -0.156000           0.642231           17.47624           0.622636           17.39746
       -0.152000           0.644510           17.50182           0.624836           17.42234
       -0.148000           0.646805           17.52754           0.627050           17.44716
       -0.144000           0.649115           17.55333           0.629278           17.47212
       -0.140000           0.651441           17.57919           0.631524           17.49734
       -0.136000           0.653782           17.60515           0.633781           17.52241
       -0.132000           0.656143           17.63125           0.636054           17.54775
       -0.128000           0.658517           17.65738           0.638340           17.57306
       -0.124000           0.660908           17.68363           0.640642           17.59851
       -0.120000           0.663317           17.70996           0.642961           17.62409
       -0.116000           0.665743           17.73641           0.645296           17.64978
       -0.112000           0.668186           17.76295           0.647646           17.67539
       -0.108000           0.670645           17.78956           0.650011           17.70129
       -0.104000           0.673123           17.81631           0.652390           17.72717
       -0.100000           0.675619           17.84313           0.654788           17.75320
       -0.096000           0.678132           17.87005           0.657202           17.77925
       -0.092000           0.680662           17.89709           0.659629           17.80553
       -0.088000           0.683213           17.92421           0.662081           17.83179
       -0.084000           0.685782           17.95144           0.664543           17.85820
       -0.080000           0.688368           17.97873           0.667023           17.88463
       -0.076000           0.690976           18.00617           0.669522           17.91121
       -0.072000           0.693600           18.03370           0.672035           17.93794
       -0.068000           0.696244           18.06134           0.674571           17.96471
       -0.064000           0.698907           18.08907           0.677121           17.99161
       -0.060000           0.701591           18.11689           0.679689           18.01861
       -0.056000           0.704295           18.14485           0.682275           18.04563
       -0.052000           0.707018           18.17290           0.684883           18.07278
       -0.048000           0.709762           18.20107           0.687506           18.10008
       -0.044000           0.712528           18.22934           0.690151           18.12750
       -0.040000           0.715315           18.25774           0.692813           18.15508
       -0.036000           0.718123           18.28622           0.695495           18.18263
       -0.032000           0.720950           18.31482           0.698195           18.21026
       -0.028000           0.723802           18.34353           0.700917           18.23815
       -0.024000           0.726675           18.37236           0.703658           18.26604
       -0.020000           0.729567           18.40131           0.706416           18.29402
       -0.016000           0.732486           18.43036           0.709202           18.32225
       -0.012000           0.735427           18.45950           0.712003           18.35046
       -0.008000           0.738389           18.48878           0.714826           18.37883
       -0.004000           0.741377           18.51817           0.717669           18.40727
        0.000000           0.744386           18.54770           0.720540           18.43590
        0.004000           0.747421           18.57734           0.723427           18.46462
        0.008000           0.750480           18.60707           0.726336           18.49344
        0.012000           0.753561           18.63694           0.729269           18.52234
        0.016000           0.756671           18.66696           0.732222           18.55138
        0.020000           0.759801           18.69708           0.735201           18.58053
        0.024000           0.762961           18.72733           0.738200           18.60978
        0.028000           0.766144           18.75767           0.741224           18.63925
        0.032000           0.769355           18.78817           0.744273           18.66866
        0.036000           0.772592           18.81879           0.747347           18.69838
        0.040000           0.775856           18.84952           0.750443           18.72804
        0.044000           0.779146           18.88039           0.753560           18.75795
        0.048000           0.782466           18.91138           0.756706           18.78792
        0.052000           0.785809           18.94249           0.759879           18.81807
        0.056000           0.789185           18.97380           0.763076           18.84832
        0.060000           0.792587           19.00516           0.766299           18.87867
        0.064000           0.796022           19.03669           0.769547           18.90914
        0.068000           0.799481           19.06835           0.772819           18.93978
        0.072000           0.802972           19.10013           0.776127           18.97049
        0.076000           0.806496           19.13208           0.779459           19.00140
        0.080000           0.810047           19.16413           0.782813           19.03241
        0.084000           0.813631           19.19635           0.786197           19.06357
        0.088000           0.817246           19.22871           0.789616           19.09482
        0.092000           0.820893           19.26121           0.793059           19.12621
        0.096000           0.824572           19.29385           0.796535           19.15771
        0.100000           0.828285           19.32661           0.800034           19.18947
        0.104000           0.832031           19.35954           0.803565           19.22128
        0.108000           0.835809           19.39262           0.807128           19.25331
        0.112000           0.839626           19.42581           0.810729           19.28532
        0.116000           0.843474           19.45919           0.814352           19.31760
        0.120000           0.847359           19.49269           0.818010           19.34992
        0.124000           0.851279           19.52635           0.821700           19.38247
        0.128000           0.855235           19.56019           0.825422           19.41511
        0.132000           0.859230           19.59417           0.829178           19.44795
        0.136000           0.863260           19.62827           0.832970           19.48085
        0.140000           0.867330           19.66256           0.836793           19.51405
        0.144000           0.871437           19.69702           0.840652           19.54726
        0.148000           0.875584           19.73161           0.844547           19.58064
        0.152000           0.879773           19.76639           0.848478           19.61418
        0.156000           0.884001           19.80133           0.852442           19.64798
        0.160000           0.888269           19.83642           0.856446           19.68176
        0.164000           0.892581           19.87169           0.860488           19.71577
        0.168000           0.896933           19.90711           0.864567           19.74996
        0.172000           0.901331           19.94270           0.868686           19.78430
        0.176000           0.905769           19.97844           0.872846           19.81883
        0.180000           0.910256           20.01440           0.877041           19.85348
        0.184000           0.914787           20.05053           0.881279           19.88827
        0.188000           0.919362           20.08681           0.885559           19.92333
        0.192000           0.923986           20.12328           0.889880           19.95841
        0.196000           0.928657           20.15992           0.894244           19.99379
        0.200000           0.933377           20.19674           0.898647           20.02917
        0.204000           0.938147           20.23373           0.903097           20.06485
        0.208000           0.942965           20.27095           0.907596           20.10069
        0.212000           0.947835           20.30832           0.912137           20.13660
        0.216000           0.952756           20.34590           0.916719           20.17293
        0.220000           0.957730           20.38367           0.921356           20.20927
        0.224000           0.962760           20.42158           0.926041           20.24578
        0.228000           0.967842           20.45974           0.930769           20.28249
        0.232000           0.972981           20.49810           0.935549           20.31942
        0.236000           0.978176           20.53663           0.940382           20.35650
        0.240000           0.983429           20.57537           0.945262           20.39375
        0.244000           0.988740           20.61431           0.950193           20.43125
        0.248000           0.994112           20.65345           0.955180           20.46895
        0.252000           0.999543           20.69278           0.960227           20.50670
        0.256000           1.005037           20.73232           0.965319           20.54471
        0.260000           1.010596           20.77209           0.970468           20.58301
        0.264000           1.016217           20.81210           0.975675           20.62145
        0.268000           1.021903           20.85231           0.980945           20.66013
        0.272000           1.027657           20.89270           0.986267           20.69892
        0.276000           1.033480           20.93335           0.991652           20.73796
        0.280000           1.039372           20.97420           0.997102           20.77719
        0.284000           1.045334           21.01529           1.002612           20.81670
        0.288000           1.051371           21.05660           1.008183           20.85633
        0.292000           1.057481           21.09816           1.013823           20.89617
        0.296000           1.063662           21.13992           1.019525           20.93624
        0.300000           1.069924           21.18191           1.025297           20.97658
        0.304000           1.076261           21.22420           1.031134           21.01716
        0.308000           1.082682           21.26667           1.037044           21.05781
        0.312000           1.089182           21.30936           1.043026           21.09888
        0.316000           1.095766           21.35232           1.049083           21.14013
        0.320000           1.102433           21.39560           1.055214           21.18159
        0.324000           1.109189           21.43904           1.061415           21.22326
        0.328000           1.116033           21.48282           1.067700           21.26515
        0.332000           1.122970           21.52680           1.074060           21.30732
        0.336000           1.129997           21.57104           1.080501           21.34969
        0.340000           1.137119           21.61556           1.087031           21.39237
        0.344000           1.144339           21.66036           1.093637           21.43520
        0.348000           1.151657           21.70544           1.100331           21.47828
        0.352000           1.159073           21.75077           1.107116           21.52175
        0.356000           1.166598           21.79639           1.113987           21.56544
        0.360000           1.174227           21.84226           1.120952           21.60920
        0.364000           1.181962           21.88849           1.128005           21.65343
        0.368000           1.189809           21.93490           1.135162           21.69792
        0.372000           1.197772           21.98166           1.142416           21.74249
        0.376000           1.205847           22.02873           1.149770           21.78752
        0.380000           1.214043           22.07611           1.157227           21.83279
        0.384000           1.222359           22.12372           1.164783           21.87825
        0.388000           1.230803           22.17165           1.172454           21.92410
        0.392000           1.239374           22.21996           1.180230           21.97024
        0.396000           1.248074           22.26863           1.188122           22.01653
        0.400000           1.256909           22.31751           1.196129           22.06326
        0.404000           1.265882           22.36677           1.204251           22.11020
        0.408000           1.274994           22.41637           1.212498           22.15752
        0.412000           1.284253           22.46626           1.220861           22.20518
        0.416000           1.293660           22.51648           1.229353           22.25297
        0.420000           1.303221           22.56707           1.237983           22.30112
        0.424000           1.312936           22.61802           1.246740           22.34968
        0.428000           1.322811           22.66932           1.255639           22.39854
        0.432000           1.332856           22.72103           1.264675           22.44773
        0.436000           1.343067           22.77295           1.273853           22.49727
        0.440000           1.353453           22.82537           1.283183           22.54700
        0.444000           1.364018           22.87817           1.292661           22.59726
        0.448000           1.374761           22.93128           1.302296           22.64775
        0.452000           1.385702           22.98483           1.312086           22.69861
        0.456000           1.396832           23.03872           1.322045           22.74990
        0.460000           1.408165           23.09301           1.332177           22.80148
        0.464000           1.419699           23.14779           1.342474           22.85343
        0.468000           1.431452           23.20291           1.352953           22.90565
        0.472000           1.443421           23.25842           1.363609           22.95845
        0.476000           1.455610           23.31439           1.374472           23.01148
        0.480000           1.468038           23.37078           1.385516           23.06498
        0.484000           1.480700           23.42768           1.396753           23.11886
        0.488000           1.493605           23.48488           1.408205           23.17311
        0.492000           1.506771           23.54258           1.419862           23.22774
        0.496000           1.520192           23.60081           1.431746           23.28288
        0.500000           1.533884           23.65945           1.443847           23.33840
        0.504000           1.547860           23.71849           1.456190           23.39434
        0.508000           1.562119           23.77809           1.468749           23.45059
        0.512000           1.576676           23.83819           1.481565           23.50746
        0.516000           1.591540           23.89876           1.494639           23.56475
        0.520000           1.606722           23.95976           1.507966           23.62234
        0.524000           1.622230           24.02143           1.521565           23.68050
        0.528000           1.638076           24.08351           1.535444           23.73920
        0.532000           1.654275           24.14610           1.549605           23.79823
        0.536000           1.670834           24.20925           1.564073           23.85780
        0.540000           1.687770           24.27303           1.578844           23.91791
        0.544000           1.705088           24.33726           1.593914           23.97839
        0.548000           1.722824           24.40208           1.609335           24.03958
        0.552000           1.740966           24.46745           1.625082           24.10107
        0.556000           1.759542           24.53348           1.641190           24.16327
        0.560000           1.778565           24.60004           1.657652           24.22577
        0.564000           1.798060           24.66714           1.674490           24.28900
        0.568000           1.818035           24.73499           1.691721           24.35271
        0.572000           1.838505           24.80338           1.709352           24.41699
        0.576000           1.859502           24.87241           1.727393           24.48189
        0.580000           1.881038           24.94211           1.745884           24.54722
        0.584000           1.903135           25.01244           1.764806           24.61337
        0.588000           1.925820           25.08345           1.784202           24.68000
        0.592000           1.949108           25.15512           1.804078           24.74717
        0.596000           1.973038           25.22750           1.824470           24.81503
        0.600000           1.997618           25.30053           1.845377           24.88356
        0.604000           2.022887           25.37429           1.866814           24.95255
        0.608000           2.048878           25.44878           1.888826           25.02237
        0.612000           2.075601           25.52404           1.911406           25.09283
        0.616000           2.103114           25.59998           1.934618           25.16387
        0.620000           2.131424           25.67668           1.958452           25.23562
        0.624000           2.160585           25.75414           1.982943           25.30812
        0.628000           2.190634           25.83238           2.008133           25.38126
        0.632000           2.221597           25.91143           2.034039           25.45514
        0.636000           2.253535           25.99122           2.060683           25.52971
        0.640000           2.286473           26.07181           2.088107           25.60518
        0.644000           2.320461           26.15331           2.116343           25.68122
        0.648000           2.355565           26.23551           2.145431           25.75813
        0.652000           2.391810           26.31857           2.175398           25.83568
        0.656000           2.429271           26.40249           2.206303           25.91412
        0.660000           2.467993           26.48725           2.238164           25.99339
        0.664000           2.508044           26.57289           2.271041           26.07335
        0.668000           2.549488           26.65925           2.304987           26.15419
        0.672000           2.592386           26.74655           2.340022           26.23577
        0.676000           2.636813           26.83470           2.376225           26.31844
        0.680000           2.682849           26.92371           2.413626           26.40166
        0.684000           2.730569           27.01352           2.452317           26.48582
        0.688000           2.780054           27.10419           2.492329           26.57086
        0.692000           2.831398           27.19564           2.533751           26.65664
        0.696000           2.884696           27.28795           2.576629           26.74325
        0.700000           2.940052           27.38100           2.621037           26.83093
        0.704000           2.997556           27.47480           2.667074           26.91933
        0.708000           3.057320           27.56947           2.714789           27.00858
        0.712000           3.119500           27.66467           2.764287           27.09863
        0.716000           3.184162           27.76064           2.815671           27.18966
        0.720000           3.251456           27.85719           2.869000           27.28139
        0.724000           3.321523           27.95431           2.924418           27.37401
        0.728000           3.394501           28.05191           2.982014           27.46743
        0.732000           3.470533           28.14993           3.041853           27.56163
        0.736000           3.549773           28.24822           3.104142           27.65654
        0.740000           3.632401           28.34684           3.168959           27.75204
        0.744000           3.718562           28.44551           3.236438           27.84841
        0.748000           3.808425           28.54415           3.306728           27.94520
        0.752000           3.902174           28.64261           3.379950           28.04271
        0.756000           4.000004           28.74071           3.456293           28.14044
        0.760000           4.102085           28.83830           3.535897           28.23878
        0.764000           4.208606           28.93510           3.618985           28.33737
        0.768000           4.319744           29.03088           3.705656           28.43625
        0.772000           4.435674           29.12533           3.796118           28.53497
        0.776000           4.556591           29.21825           3.890613           28.63366
        0.780000           4.682656           29.30910           3.989238           28.73229
        0.784000           4.814029           29.39775           4.092350           28.83048
        0.788000           4.950849           29.48361           4.200029           28.92795
        0.792000           5.093220           29.56624           4.312542           29.02453
        0.796000           5.241247           29.64529           4.430147           29.12017
        0.800000           5.394974           29.72001           4.552969           29.21409
        0.804000           5.554424           29.78993           4.681321           29.30645
        0.808000           5.719521           29.85434           4.815340           29.39652
        0.812000           5.890194           29.91270           4.955264           29.48399
        0.816000           6.066312           29.96417           5.101304           29.56858
        0.820000           6.247558           30.00818           5.253576           29.64934
        0.824000           6.433659           30.04390           5.412299           29.72624
        0.828000           6.624121           30.07049           5.577486           29.79824
        0.832000           6.818486           30.08740           5.749303           29.86477
        0.836000           7.016074           30.09367           5.927728           29.92500
        0.840000           7.216110           30.08874           6.112683           29.97831
        0.844000           7.417731           30.07195           6.304050           30.02357
        0.848000           7.619963           30.04265           6.501575           30.06002
        0.852000           7.821716           30.00024           6.705003           30.08663
        0.856000           8.021798           29.94452           6.913865           30.10243
        0.860000           8.218891           29.87513           7.127403           30.10611
        0.864000           8.411664           29.79195           7.345038           30.09712
        0.868000           8.598652           29.69500           7.565689           30.07388
        0.872000           8.778478           29.58438           7.788326           30.03568
        0.876000           8.949549           29.46056           8.011472           29.98136
        0.880000           9.110490           29.32399           8.233656           29.91037
        0.884000           9.259828           29.17552           8.453185           29.82178
        0.888000           9.396175           29.01588           8.667973           29.71533
        0.892000           9.518175           28.84623           8.875952           29.59065
        0.896000           9.624651           28.66786           9.074924           29.44790
        0.900000           9.714499           28.48218           9.262439           29.28728
        0.904000           9.786738           28.29081           9.436137           29.10984
        0.908000           9.840662           28.09538           9.593657           28.91649
        0.912000           9.875716           27.89784           9.732826           28.70897
        0.916000           9.891514           27.69999           9.851432           28.48930
        0.920000           9.888048           27.50404           9.947873           28.25926
        0.924000           9.865427           27.31174           10.02051           28.02201
        0.928000           9.824092           27.12517           10.06845           27.78024
        0.932000           9.764792           26.94645           10.09107           27.53687
        0.936000           9.688443           26.77709           10.08827           27.29495
        0.940000           9.596233           26.61900           10.06048           27.05791
        0.944000           9.489543           26.47351           10.00849           26.82829
        0.948000           9.369933           26.34186           9.933784           26.60906
        0.952000           9.239079           26.22512           9.837834           26.40242
        0.956000           9.098696           26.12413           9.722735           26.21059
        0.960000           8.950583           26.03921           9.590656           26.03536
        0.964000           8.796500           25.97076           9.443925           25.87798
        0.968000           8.638202           25.91886           9.285016           25.73924
        0.972000           8.477270           25.88313           9.116190           25.61992
        0.976000           8.315269           25.86341           8.939892           25.52006
        0.980000           8.153591           25.85903           8.758346           25.43953
        0.984000           7.993463           25.86943           8.573460           25.37800
        0.988000           7.836012           25.89392           8.387177           25.33489
        0.992000           7.682189           25.93161           8.201120           25.30941
        0.996000           7.532806           25.98175           8.016682           25.30072
        1.000000           7.388569           26.04341           7.835186           25.30764
        1.004000           7.249983           26.11565           7.657634           25.32937
        1.008000           7.117500           26.19790           7.484928           25.36472
        1.012000           6.991455           26.28913           7.317677           25.41269
        1.016000           6.872073           26.38866           7.156513           25.47242
        1.020000           6.759516           26.49563           7.001728           25.54256
        1.024000           6.653919           26.60947           6.853731           25.62234
        1.028000           6.555271           26.72952           6.712648           25.71099
        1.032000           6.463634           26.85513           6.578617           25.80753
        1.036000           6.378897           26.98577           6.451597           25.91114
        1.040000           6.301036           27.12107           6.331670           26.02125
        1.044000           6.229947           27.26031           6.218680           26.13729
        1.048000           6.165548           27.40330           6.112585           26.25828
        1.052000           6.107710           27.54965           6.013201           26.38402
        1.056000           6.056341           27.69883           5.920411           26.51399
        1.060000           6.011269           27.85082           5.834039           26.64786
        1.064000           5.972429           28.00510           5.753874           26.78497
        1.068000           5.939709           28.16152           5.679789           26.92510
        1.072000           5.912953           28.31986           5.611570           27.06803
        1.076000           5.892096           28.47985           5.549040           27.21340
        1.080000           5.877059           28.64145           5.491982           27.36094
        1.084000           5.867712           28.80429           5.440243           27.51051
        1.088000           5.864048           28.96837           5.393711           27.66196
        1.092000           5.865912           29.13331           5.352136           27.81508
        1.096000           5.873318           29.29924           5.315447           27.96966
        1.100000           5.886241           29.46576           5.283443           28.12582
        1.104000           5.904572           29.63294           5.256027           28.28323
        1.108000           5.928363           29.80042           5.233052           28.44183
        1.112000           5.957545           29.96829           5.214432           28.60157
        1.116000           5.992116           30.13611           5.200026           28.76237
        1.120000           6.032071           30.30395           5.189775           28.92419
        1.124000           6.077428           30.47154           5.183590           29.08709
        1.128000           6.128175           30.63870           5.181424           29.25083
        1.132000           6.184310           30.80530           5.183179           29.41553
        1.136000           6.245848           30.97110           5.188822           29.58118
        1.140000           6.312743           31.13583           5.198332           29.74751
        1.144000           6.384999           31.29925           5.211617           29.91481
        1.148000           6.462576           31.46109           5.228737           30.08298
        1.152000           6.545462           31.62123           5.249642           30.25187
        1.156000           6.633555           31.77926           5.274293           30.42157
        1.160000           6.726754           31.93486           5.302781           30.59196
        1.164000           6.824942           32.08773           5.335090           30.76298
        1.168000           6.927925           32.23759           5.371233           30.93503
        1.172000           7.035570           32.38418           5.411244           31.10772
        1.176000           7.147592           32.52713           5.455193           31.28092
        1.180000           7.263710           32.66610           5.503128           31.45466
        1.184000           7.383562           32.80085           5.555111           31.62924
        1.188000           7.506835           32.93112           5.611191           31.80424
        1.192000           7.633047           33.05683           5.671502           31.97970
        1.196000           7.761777           33.17772           5.736093           32.15550
        1.200000           7.892511           33.29372           5.805050           32.33169
        1.204000           8.024793           33.40491           5.878469           32.50813
        1.208000           8.158104           33.51117           5.956497           32.68468
        1.212000           8.291985           33.61276           6.039218           32.86103
        1.216000           8.425961           33.70992           6.126770           33.03745
        1.220000           8.559654           33.80282           6.219232           33.21341
        1.224000           8.692673           33.89192           6.316685           33.38887
        1.228000           8.824853           33.97750           6.419328           33.56371
        1.232000           8.955932           34.05997           6.527168           33.73739
        1.236000           9.085855           34.13974           6.640348           33.91001
        1.240000           9.214596           34.21714           6.758938           34.08093
        1.244000           9.342275           34.29264           6.882946           34.25002
        1.248000           9.468951           34.36625           7.012486           34.41698
        1.252000           9.594837           34.43835           7.147517           34.58140
        1.256000           9.720081           34.50908           7.287964           34.74268
        1.260000           9.844856           34.57824           7.433782           34.90044
        1.264000           9.969341           34.64600           7.584795           35.05429
        1.268000           10.09356           34.71218           7.740857           35.20390
        1.272000           10.21754           34.77658           7.901667           35.34848
        1.276000           10.34120           34.83901           8.066811           35.48764
        1.280000           10.46440           34.89927           8.235881           35.62096
        1.284000           10.58679           34.95725           8.408389           35.74807
        1.288000           10.70812           35.01283           8.583681           35.86840
        1.292000           10.82785           35.06604           8.760985           35.98133
        1.296000           10.94555           35.11691           8.939519           36.08732
        1.300000           11.06073           35.16553           9.118382           36.18560
        1.304000           11.17279           35.21243           9.296558           36.27633
        1.308000           11.28137           35.25798           9.473015           36.35970
        1.312000           11.38592           35.30265           9.646815           36.43599
        1.316000           11.48624           35.34727           9.816735           36.50566
        1.320000           11.58197           35.39264           9.981888           36.56966
        1.324000           11.67307           35.43955           10.14127           36.62850
        1.328000           11.75956           35.48893           10.29418           36.68353
        1.332000           11.84175           35.54162           10.43995           36.73598
        1.336000           11.91988           35.59870           10.57816           36.78692
        1.340000           11.99458           35.66094           10.70855           36.83786
        1.344000           12.06649           35.72911           10.83124           36.89059
        1.348000           12.13643           35.80395           10.94649           36.94662
        1.352000           12.20534           35.88606           11.05494           37.00718
        1.356000           12.27429           35.97587           11.15738           37.07388
        1.360000           12.34434           36.07356           11.25481           37.14790
        1.364000           12.41657           36.17937           11.34836           37.23012
        1.368000           12.49214           36.29317           11.43948           37.32159
        1.372000           12.57217           36.41469           11.52967           37.42285
        1.376000           12.65773           36.54370           11.62043           37.53445
        1.380000           12.74975           36.67965           11.71335           37.65643
        1.384000           12.84924           36.82187           11.80988           37.78890
        1.388000           12.95697           36.96978           11.91166           37.93182
        1.392000           13.07358           37.12249           12.02014           38.08458
        1.396000           13.19968           37.27922           12.13667           38.24673
        1.400000           13.33579           37.43899           12.26269           38.41759
        1.404000           13.48215           37.60097           12.39938           38.59652
        1.408000           13.63900           37.76432           12.54780           38.78250
        1.412000           13.80653           37.92817           12.70905           38.97446
        1.416000           13.98477           38.09161           12.88423           39.17157
        1.420000           14.17371           38.25408           13.07406           39.37269
        1.424000           14.37323           38.41462           13.27942           39.57624
        1.428000           14.58333           38.57281           13.50103           39.78138
        1.432000           14.80390           38.72793           13.73951           39.98658
        1.436000           15.03477           38.87950           13.99546           40.19054
        1.440000           15.27605           39.02699           14.26941           40.39142
        1.444000           15.52774           39.16980           14.56166           40.58801
        1.448000           15.78976           39.30755           14.87249           40.77869
        1.452000           16.06231           39.43956           15.20214           40.96157
        1.456000           16.34542           39.56518           15.55065           41.13468
        1.460000           16.63940           39.68364           15.91803           41.29600
        1.464000           16.94434           39.79408           16.30389           41.44380
        1.468000           17.26031           39.89558           16.70781           41.57598
        1.472000           17.58730           39.98683           17.12906           41.69028
        1.476000           17.92528           40.06654           17.56677           41.78400
        1.480000           18.27396           40.13331           18.01968           41.85535
        1.484000           18.63286           40.18558           18.48619           41.90187
        1.488000           19.00118           40.22160           18.96445           41.92145
        1.492000           19.37792           40.23994           19.45207           41.91161
        1.496000           19.76175           40.23872           19.94645           41.87066
        1.500000           20.15086           40.21650           20.44442           41.79667
        1.504000           20.54329           40.17210           20.94259           41.68859
        1.508000           20.93683           40.10406           21.43703           41.54513
        1.512000           21.32854           40.01182           21.92365           41.36583
        1.516000           21.71554           39.89487           22.39788           41.15076
        1.520000           22.09507           39.75332           22.85546           40.90083
        1.524000           22.46362           39.58773           23.29158           40.61758
        1.528000           22.81824           39.39930           23.70187           40.30334
        1.532000           23.15611           39.18969           24.08228           39.96105
        1.536000           23.47420           38.96114           24.42855           39.59470
        1.540000           23.77032           38.71631           24.73813           39.20857
        1.544000           24.04281           38.45851           25.00856           38.80798
        1.548000           24.29002           38.19098           25.23777           38.39831
        1.552000           24.51157           37.91743           25.42571           37.98520
        1.556000           24.70752           37.64164           25.57264           37.57456
        1.560000           24.87846           37.36692           25.67973           37.17174
        1.564000           25.02567           37.09670           25.74929           36.78224
        1.568000           25.15113           36.83404           25.78465           36.41068
        1.572000           25.25709           36.58134           25.78945           36.06127
        1.576000           25.34595           36.34055           25.76820           35.73706
        1.580000           25.42090           36.11315           25.72581           35.44067
        1.584000           25.48477           35.89990           25.66673           35.17366
        1.588000           25.54034           35.70120           25.59663           34.93680
        1.592000           25.59057           35.51675           25.51986           34.72981
        1.596000           25.63798           35.34593           25.44178           34.55164
        1.600000           25.68480           35.18737           25.36594           34.40100
        1.604000           25.73304           35.03997           25.29675           34.27571
        1.608000           25.78441           34.90184           25.23723           34.17276
        1.612000           25.83997           34.77121           25.19032           34.08948
        1.616000           25.90072           34.64610           25.15821           34.02208
        1.620000           25.96696           34.52450           25.14244           33.96753
        1.624000           26.03901           34.40440           25.14433           33.92172
        1.628000           26.11645           34.28382           25.16396           33.88123
        1.632000           26.19868           34.16109           25.20160           33.84249
        1.636000           26.28485           34.03442           25.25611           33.80208
        1.640000           26.37379           33.90231           25.32642           33.75628
        1.644000           26.46403           33.76367           25.41095           33.70252
        1.648000           26.55401           33.61756           25.50763           33.63816
        1.652000           26.64199           33.46330           25.61389           33.56099
        1.656000           26.72620           33.30064           25.72709           33.46901
        1.660000           26.80451           33.12965           25.84415           33.36114
        1.664000           26.87524           32.95058           25.96225           33.23663
        1.668000           26.93686           32.76423           26.07774           33.09493
        1.672000           26.98726           32.57148           26.18807           32.93639
        1.676000           27.02533           32.37358           26.28989           32.76165
        1.680000           27.04976           32.17201           26.38060           32.57185
        1.684000           27.05929           31.96837           26.45726           32.36859
        1.688000           27.05356           31.76438           26.51803           32.15344
        1.692000           27.03182           31.56183           26.56059           31.92891
        1.696000           26.99372           31.36268           26.58346           31.69695
        1.700000           26.93945           31.16877           26.58506           31.46035
        1.704000           26.86918           30.98201           26.56472           31.22156
        1.708000           26.78325           30.80419           26.52157           30.98348
        1.712000           26.68233           30.63711           26.45542           30.74867
        1.716000           26.56706           30.48255           26.36604           30.52009
        1.720000           26.43858           30.34215           26.25405           30.30051
        1.724000           26.29819           30.21747           26.12001           30.09276
        1.728000           26.14701           30.11013           25.96482           29.89939
        1.732000           25.98679           30.02137           25.78994           29.72325
        1.736000           25.81925           29.95258           25.59705           29.56668
        1.740000           25.64629           29.90465           25.38821           29.43185
        1.744000           25.47020           29.87857           25.16585           29.32084
        1.748000           25.29316           29.87481           24.93244           29.23529
        1.752000           25.11751           29.89377           24.69090           29.17668
        1.756000           24.94587           29.93526           24.44426           29.14559
        1.760000           24.78048           29.99917           24.19553           29.14291
        1.764000           24.62403           30.08474           23.94772           29.16850
        1.768000           24.47854           30.19100           23.70402           29.22207
        1.772000           24.34666           30.31666           23.46730           29.30288
        1.776000           24.23010           30.46029           23.24038           29.41009
        1.780000           24.13085           30.61998           23.02576           29.54212
        1.784000           24.05043           30.79385           22.82601           29.69756
        1.788000           23.99017           30.97972           22.64300           29.87441
        1.792000           23.95124           31.17528           22.47876           30.07078
        1.796000           23.93435           31.37809           22.33476           30.28454
        1.800000           23.93993           31.58588           22.21227           30.51321
        1.804000           23.96834           31.79607           22.11245           30.75482
        1.808000           24.01935           32.00629           22.03591           31.00642
        1.812000           24.09277           32.21400           21.98342           31.26606
        1.816000           24.18781           32.41700           21.95510           31.53127
        1.820000           24.30385           32.61302           21.95110           31.79963
        1.824000           24.43959           32.80001           21.97113           32.06879
        1.828000           24.59386           32.97600           22.01484           32.33619
        1.832000           24.76515           33.13907           22.08164           32.59993
        1.836000           24.95178           33.28779           22.17064           32.85760
        1.840000           25.15178           33.42065           22.28067           33.10710
        1.844000           25.36344           33.53641           22.41052           33.34656
        1.848000           25.58452           33.63419           22.55860           33.57412
        1.852000           25.81280           33.71317           22.72310           33.78830
        1.856000           26.04613           33.77283           22.90225           33.98764
        1.860000           26.28220           33.81306           23.09342           34.17079
        1.864000           26.51867           33.83373           23.29476           34.33722
        1.868000           26.75319           33.83515           23.50395           34.48629
        1.872000           26.98341           33.81803           23.71838           34.61809
        1.876000           27.20730           33.78304           23.93553           34.73270
        1.880000           27.42264           33.73141           24.15346           34.83081
        1.884000           27.62738           33.66456           24.36967           34.91338
        1.888000           27.82003           33.58424           24.58250           34.98170
        1.892000           27.99879           33.49239           24.79044           35.03761
        1.896000           28.16269           33.39099           24.99218           35.08268
        1.900000           28.31076           33.28236           25.18708           35.11889
        1.904000           28.44245           33.16894           25.37494           35.14829
        1.908000           28.55766           33.05313           25.55521           35.17274
        1.912000           28.65663           32.93717           25.72902           35.19392
        1.916000           28.73993           32.82333           25.89707           35.21332
        1.920000           28.80841           32.71371           26.06025           35.23194
        1.924000           28.86337           32.61013           26.21983           35.25066
        1.928000           28.90606           32.51420           26.37729           35.26978
        1.932000           28.93830           32.42713           26.53383           35.28915
        1.936000           28.96181           32.34986           26.69052           35.30835
        1.940000           28.97819           32.28296           26.84841           35.32657
        1.944000           28.98929           32.22663           27.00782           35.34280
        1.948000           28.99680           32.18094           27.16917           35.35582
        1.952000           29.00229           32.14540           27.33233           35.36415
        1.956000           29.00678           32.11952           27.49654           35.36686
        1.960000           29.01167           32.10244           27.66091           35.36249
        1.964000           29.01746           32.09337           27.82380           35.35031
        1.968000           29.02474           32.09135           27.98379           35.32974
        1.972000           29.03369           32.09562           28.13882           35.30070
        1.976000           29.04449           32.10528           28.28681           35.26329
        1.980000           29.05687           32.11977           28.42570           35.21842
        1.984000           29.07046           32.13863           28.55352           35.16764
        1.988000           29.08475           32.16163           28.66866           35.11257
        1.992000           29.09953           32.18873           28.76968           35.05527
        1.996000           29.11415           32.22012           28.85556           34.99877
        2.000000           29.12851           32.25616           28.92605           34.94535
        2.004000           29.14246           32.29738           28.98121           34.89837
        2.008000           29.15591           32.34425           29.02167           34.86039
        2.012000           29.16906           32.39734           29.04877           34.83418
        2.016000           29.18221           32.45728           29.06429           34.82238
        2.020000           29.19592           32.52451           29.07037           34.82678
        2.024000           29.21066           32.59947           29.06952           34.84955
        2.028000           29.22714           32.68232           29.06446           34.89130
        2.032000           29.24580           32.77335           29.05792           34.95295
        2.036000           29.26756           32.87260           29.05303           35.03469
        2.040000           29.29278           32.98000           29.05207           35.13629
        2.044000           29.32208           33.09562           29.05801           35.25708
        2.048000           29.35579           33.21924           29.07276           35.39603
        2.052000           29.39429           33.35094           29.09860           35.55201
        2.056000           29.43813           33.49071           29.13718           35.72353
        2.060000           29.48749           33.63869           29.18967           35.90916
        2.064000           29.54269           33.79503           29.25755           36.10727
        2.068000           29.60436           33.96013           29.34147           36.31629
        2.072000           29.67299           34.13411           29.44230           36.53510
        2.076000           29.74928           34.31753           29.56014           36.76208
        2.080000           29.83418           34.51065           29.69600           36.99630
        2.084000           29.92877           34.71389           29.84975           37.23637
        2.088000           30.03412           34.92732           30.02183           37.48170
        2.092000           30.15177           35.15109           30.21276           37.73114
        2.096000           30.28329           35.38512           30.42306           37.98385
        2.100000           30.43039           35.62906           30.65315           38.23904
        2.104000           30.59464           35.88229           30.90365           38.49607
        2.108000           30.77797           36.14408           31.17555           38.75352
        2.112000           30.98207           36.41319           31.46950           39.01036
        2.116000           31.20860           36.68829           31.78630           39.26532
        2.120000           31.45923           36.96759           32.12672           39.51670
        2.124000           31.73532           37.24938           32.49157           39.76304
        2.128000           32.03816           37.53119           32.88131           40.00205
        2.132000           32.36864           37.81085           33.29642           40.23186
        2.136000           32.72760           38.08568           33.73673           40.44980
        2.140000           33.11549           38.35315           34.20286           40.65389
        2.144000           33.53241           38.61034           34.69370           40.84121
        2.148000           33.97829           38.85447           35.20909           41.00941
        2.152000           34.45271           39.08269           35.74771           41.15574
        2.156000           34.95482           39.29203           36.30873           41.27814
        2.160000           35.48364           39.47968           36.88992           41.37372
        2.164000           36.03776           39.64297           37.48985           41.44016
        2.168000           36.61557           39.77919           38.10637           41.47551
        2.172000           37.21502           39.88583           38.73696           41.47771
        2.176000           37.83386           39.96043           39.37836           41.44511
        2.180000           38.46963           40.00098           40.02852           41.37640
        2.184000           39.11943           40.00537           40.68394           41.27015
        2.188000           39.78034           39.97215           41.34122           41.12580
        2.192000           40.44898           39.89992           41.99711           40.94289
        2.196000           41.12195           39.78770           42.64793           40.72144
        2.200000           41.79542           39.63493           43.29023           40.46186
        2.204000           42.46608           39.44169           43.92055           40.16516
        2.208000           43.13026           39.20819           44.53597           39.83263
        2.212000           43.78430           38.93521           45.13309           39.46588
        2.216000           44.42501           38.62405           45.70933           39.06736
        2.220000           45.04898           38.27637           46.26286           38.63936
        2.224000           45.65403           37.89398           46.79134           38.18451
        2.228000           46.23774           37.47888           47.29410           37.70505
        2.232000           46.79788           37.03352           47.76999           37.20377
        2.236000           47.33301           36.55993           48.21869           36.68305
        2.240000           47.84230           36.06012           48.64028           36.14455
        2.244000           48.32423           35.53614           49.03509           35.58997
        2.248000           48.77874           34.98947           49.40326           35.02025
        2.252000           49.20445           34.42129           49.74458           34.43604
        2.256000           49.60079           33.83289           50.05911           33.83753
        2.260000           49.96657           33.22496           50.34573           33.22477
        2.264000           50.30061           32.59845           50.60408           32.59754
        2.268000           50.60085           31.95410           50.83163           31.95580
        2.272000           50.86532           31.29290           51.02621           31.29988
        2.276000           51.09132           30.61624           51.18508           30.63029
        2.280000           51.27624           29.92623           51.30459           29.94860
        2.284000           51.41650           29.22539           51.38128           29.25715
        2.288000           51.50969           28.51711           51.41172           28.55912
        2.292000           51.55280           27.80567           51.39237           27.85863
        2.296000           51.54390           27.09604           51.32038           27.16069
        2.300000           51.48083           26.39390           51.19381           26.47156
        2.304000           51.36321           25.70573           51.01138           25.79787
        2.308000           51.19150           25.03817           50.77337           25.14684
        2.312000           50.96697           24.39816           50.48062           24.52568
        2.316000           50.69221           23.79237           50.13603           23.94174
        2.320000           50.37095           23.22726           49.74316           23.40217
        2.324000           50.00821           22.70875           49.30716           22.91326
        2.328000           49.60965           22.24192           48.83408           22.48055
        2.332000           49.18187           21.83083           48.33031           22.10860
        2.336000           48.73209           21.47853           47.80369           21.80106
        2.340000           48.26711           21.18702           47.26138           21.56029
        2.344000           47.79487           20.95697           46.71182           21.38725
        2.348000           47.32240           20.78827           46.16222           21.28231
        2.352000           46.85673           20.67962           45.62045           21.24440
        2.356000           46.40448           20.62889           45.09361           21.27191
        2.360000           45.97167           20.63327           44.58814           21.36212
        2.364000           45.56331           20.68927           44.11042           21.51204
        2.368000           45.18478           20.79299           43.66534           21.71771
        2.372000           44.83958           20.94023           43.25869           21.97498
        2.376000           44.53101           21.12652           42.89417           22.27986
        2.380000           44.26239           21.34734           42.57560           22.62722
        2.384000           44.03531           21.59826           42.30605           23.01287
        2.388000           43.85157           21.87474           42.08840           23.43155
        2.392000           43.71241           22.17255           41.92494           23.87887
        2.396000           43.61847           22.48751           41.81760           24.34965
        2.400000           43.57033           22.81561           41.76757           24.83925
        2.404000           43.56851           23.15326           41.77631           25.34311
        2.408000           43.61289           23.49665           41.84465           25.85629
        2.412000           43.70325           23.84241           41.97322           26.37408
        2.416000           43.83991           24.18721           42.16225           26.89169
        2.420000           44.02217           24.52769           42.41240           27.40437
        2.424000           44.25003           24.86057           42.72260           27.90740
        2.428000           44.52297           25.18259           43.09344           28.39589
        2.432000           44.84067           25.49043           43.52380           28.86503
        2.436000           45.20258           25.78056           44.01246           29.30969
        2.440000           45.60766           26.04950           44.55853           29.72529
        2.444000           46.05509           26.29358           45.15980           30.10631
        2.448000           46.54351           26.50894           45.81424           30.44796
        2.452000           47.07154           26.69179           46.51951           30.74533
        2.456000           47.63677           26.83815           47.27184           30.99333
        2.460000           48.23708           26.94417           48.06785           31.18745
        2.464000           48.86914           27.00606           48.90313           31.32288
        2.468000           49.52940           27.02024           49.77287           31.39578
        2.472000           50.21421           26.98326           50.67204           31.40239
        2.476000           50.91913           26.89223           51.59432           31.33922
        2.480000           51.63858           26.74466           52.53349           31.20399
        2.484000           52.36801           26.53874           53.48341           30.99482
        2.488000           53.10117           26.27311           54.43638           30.71055
        2.492000           53.83279           25.94740           55.38617           30.35106
        2.496000           54.55697           25.56161           56.32592           29.91676
        2.500000           55.26846           25.11679           57.24867           29.40918
        2.504000           55.96144           24.61444           58.14844           28.83015
        2.508000           56.63122           24.05675           59.01917           28.18283
        2.512000           57.27319           23.44626           59.85565           27.46994
        2.516000           57.88341           22.78611           60.65319           26.69536
        2.520000           58.45860           22.07926           61.40775           25.86278
        2.524000           58.99521           21.32915           62.11546           24.97597
        2.528000           59.49146           20.53900           62.77361           24.03897
        2.532000           59.94434           19.71218           63.37906           23.05555
        2.536000           60.35247           18.85180           63.92966           22.02942
        2.540000           60.71406           17.96081           64.42287           20.96414
        2.544000           61.02755           17.04220           64.85672           19.86341
        2.548000           61.29136           16.09889           65.22921           18.73081
        2.552000           61.50400           15.13380           65.53798           17.56994
        2.556000           61.66434           14.14982           65.78130           16.38486
        2.560000           61.77077           13.15003           65.95764           15.17934
        2.564000           61.82223           12.13748           66.06504           13.95740
        2.568000           61.81761           11.11544           66.10246           12.72346
        2.572000           61.75552           10.08731           66.06820           11.48209
        2.576000           61.63563           9.056595           65.96179           10.23785
        2.580000           61.45715           8.027016           65.78243           8.995760
        2.584000           61.21959           7.002037           65.53004           7.760206
        2.588000           60.92249           5.985578           65.20458           6.536298
        2.592000           60.56623           4.981522           64.80595           5.328980
        2.596000           60.15051           3.993824           64.33548           4.143259
        2.600000           59.67612           3.026630           63.79353           2.984205
        2.604000           59.14356           2.084221           63.18174           1.857105
        2.608000           58.55378           1.170745           62.50127           0.766968
        2.612000           57.90806           0.290693           61.75458          -0.280846
        2.616000           57.20834          -0.551355           60.94487          -1.281031
        2.620000           56.45659          -1.350992           60.07432          -2.228389
        2.624000           55.65596          -2.103727           59.14706          -3.117879
        2.628000           54.80936          -2.805207           58.16801          -3.944646
        2.632000           53.92088          -3.451620           57.14154          -4.704486
        2.636000           52.99487          -4.039203           56.07384          -5.393474
        2.640000           52.03617          -4.564815           54.97046          -6.008385
        2.644000           51.04993          -5.025785           53.83839          -6.546644
        2.648000           50.04171          -5.420031           52.68407          -7.006558
        2.652000           49.01728          -5.746364           51.51407          -7.387193
        2.656000           47.98249          -6.003979           50.33599          -7.688502
        2.660000           46.94287          -6.192928           49.15559          -7.911128
        2.664000           45.90432          -6.313825           47.98015          -8.056477
        2.668000           44.87215          -6.367991           46.81498          -8.126795
        2.672000           43.85154          -6.357189           45.66618          -8.124664
        2.676000           42.84707          -6.283766           44.53892          -8.053317
        2.680000           41.86297          -6.150370           43.43724          -7.916368
        2.684000           40.90326          -5.959975           42.36502          -7.717652
        2.688000           39.97131          -5.715864           41.32598          -7.461193
        2.692000           39.06985          -5.421432           40.32261          -7.151186
        2.696000           38.20144          -5.080199           39.35750          -6.791659
        2.700000           37.36805          -4.695544           38.43149          -6.386790
        2.704000           36.57113          -4.270939           37.54664          -5.940500
        2.708000           35.81204          -3.809864           36.70354          -5.456567
        2.712000           35.09160          -3.315528           35.90273          -4.938696
        2.716000           34.41041          -2.791115           35.14424          -4.390211
        2.720000           33.76876          -2.239501           34.42810          -3.814301
        2.724000           33.16674          -1.663478           33.75414          -3.213923
        2.728000           32.60434          -1.065733           33.12186          -2.591800
        2.732000           32.08130          -0.448589           32.53091          -1.950288
        2.736000           31.59730           0.185684           31.98012          -1.291759
        2.740000           31.15197           0.834940           31.46921          -0.618303
        2.744000           30.74475           1.497429           30.99725           0.068399
        2.748000           30.37523           2.171355           30.56359           0.766644
        2.752000           30.04282           2.855148           30.16736           1.474931
        2.756000           29.74703           3.547336           29.80767           2.191943
        2.760000           29.48735           4.246502           29.48403           2.916397
        2.764000           29.26325           4.951603           29.19564           3.647409
        2.768000           29.07431           5.661381           28.94179           4.383967
        2.772000           28.92006           6.374739           28.72209           5.125197
        2.776000           28.80015           7.090744           28.53573           5.870349
        2.780000           28.71414           7.808405           28.38239           6.618747
        2.784000           28.66188           8.526731           28.26179           7.369675
        2.788000           28.64300           9.245015           28.17343           8.122703
        2.792000           28.65737           9.962261           28.11717           8.877239
        2.796000           28.70474           10.67756           28.09270           9.632681
        2.800000           28.78495           11.39010           28.09996           10.38866
        2.804000           28.89806           12.09895           28.13906           11.14458
        2.808000           29.04380           12.80313           28.20966           11.89994
        2.812000           29.22206           13.50177           28.31233           12.65433
        2.816000           29.43278           14.19384           28.44679           13.40720
        2.820000           29.67605           14.87834           28.61368           14.15791
        2.824000           29.95148           15.55414           28.81306           14.90596
        2.828000           30.25904           16.22010           29.04512           15.65044
        2.832000           30.59863           16.87521           29.31068           16.39103
        2.836000           30.96994           17.51825           29.60975           17.12665
        2.840000           31.37268           18.14801           29.94312           17.85654
        2.844000           31.80650           18.76337           30.31117           18.57973
        2.848000           32.27094           19.36309           30.71446           19.29521
        2.852000           32.76539           19.94602           31.15350           20.00169
        2.856000           33.28955           20.51113           31.62881           20.69812
        2.860000           33.84266           21.05733           32.14090           21.38307
        2.864000           34.42414           21.58364           32.69031           22.05508
        2.868000           35.03334           22.08918           33.27760           22.71250
        2.872000           35.66968           22.57306           33.90286           23.35365
        2.876000           36.33232           23.03451           34.56675           23.97684
        2.880000           37.02101           23.47289           35.26953           24.58002
        2.884000           37.73515           23.88748           36.01127           25.16124
        2.888000           38.47459           24.27770           36.79226           25.71843
        2.892000           39.23899           24.64279           37.61201           26.24929
        2.896000           40.02803           24.98203           38.47093           26.75163
        2.900000           40.84211           25.29461           39.36887           27.22297
        2.904000           41.68127           25.57947           40.30502           27.66086
        2.908000           42.54564           25.83548           41.27957           28.06277
        2.912000           43.43554           26.06116           42.29162           28.42619
        2.916000           44.35125           26.25490           43.34089           28.74787
        2.920000           45.29306           26.41460           44.42639           29.02512
        2.924000           46.26099           26.53796           45.54713           29.25469
        2.928000           47.25531           26.62241           46.70237           29.43332
        2.932000           48.27527           26.66498           47.89013           29.55730
        2.936000           49.32058           26.66231           49.10923           29.62296
        2.940000           50.39003           26.61087           50.35696           29.62614
        2.944000           51.48240           26.50684           51.63113           29.56294
        2.948000           52.59538           26.34623           52.92831           29.42889
        2.952000           53.72635           26.12494           54.24426           29.22008
        2.956000           54.87174           25.83886           55.57459           28.93200
        2.960000           56.02754           25.48410           56.91376           28.56102
        2.964000           57.18855           25.05710           58.25546           28.10368
        2.968000           58.34924           24.55456           59.59284           27.55700
        2.972000           59.50321           23.97391           60.91768           26.91886
        2.976000           60.64325           23.31333           62.22216           26.18822
        2.980000           61.76186           22.57186           63.49697           25.36484
        2.984000           62.85107           21.74958           64.73351           24.44974
        2.988000           63.90255           20.84772           65.92241           23.44529
        2.992000           64.90858           19.86838           67.05486           22.35501
        2.996000           65.86109           18.81501           68.12242           21.18363
        3.000000           66.75264           17.69219           69.11711           19.93719
        3.004000           67.57613           16.50530           70.03206           18.62249
        3.008000           68.32561           15.26093           70.86082           17.24765
        3.012000           68.99567           13.96585           71.59861           15.82069
        3.016000           69.58195           12.62786           72.24136           14.35066
        3.020000           70.08137           11.25508           72.78661           12.84668
        3.024000           70.49145           9.855740           73.23270           11.31799
        3.028000           70.81078           8.438323           73.57932           9.773713
        3.032000           71.03890           7.011386           73.82644           8.222919
        3.036000           71.17702           5.582850           73.97582           6.673888
        3.040000           71.22594           4.160892           74.02935           5.135013
        3.044000           71.18849           2.753228           73.99004           3.614137
        3.048000           71.06753           1.367067           73.86187           2.118552
        3.052000           70.86691           0.009157           73.64847           0.655140
        3.056000           70.59140          -1.314182           73.35527          -0.769704
        3.060000           70.24583          -2.597738           72.98750          -2.150630
        3.064000           69.83592          -3.836533           72.55070          -3.482508
        3.068000           69.36761          -5.026635           72.05124          -4.761039
        3.072000           68.84724          -6.164894           71.49626          -5.982849
        3.076000           68.28105          -7.248847           70.89228          -7.145168
        3.080000           67.67548          -8.277240           70.24660          -8.246467
        3.084000           67.03674          -9.249397           69.56516          -9.285907
        3.088000           66.37112          -10.16527           68.85639          -10.26331
        3.092000           65.68430          -11.02575           68.12514          -11.17977
        3.096000           64.98161          -11.83234           67.37864          -12.03677
        3.100000           64.26807          -12.58691           66.62270          -12.83662
        3.104000           63.54784          -13.29202           65.86176          -13.58251
        3.108000           62.82497          -13.95045           65.10021          -14.27776
        3.112000           62.10254          -14.56528           64.34254          -14.92625
        3.116000           61.38334          -15.13981           63.59073          -15.53207
        3.120000           60.66933          -15.67728           62.84775          -16.09934
        3.124000           59.96219          -16.18125           62.11452          -16.63252
        3.128000           59.26277          -16.65508           61.39180          -17.13557
        3.132000           58.57149          -17.10195           60.68003          -17.61241
        3.136000           57.88841          -17.52495           59.97812          -18.06674
        3.140000           57.21307          -17.92683           59.28560          -18.50157
        3.144000           56.54445          -18.31018           58.60090          -18.91975
        3.148000           55.88139          -18.67699           57.92180          -19.32370
        3.152000           55.22221          -19.02926           57.24637          -19.71517
        3.156000           54.56516          -19.36807           56.57241          -20.09537
        3.160000           53.90831          -19.69415           55.89742          -20.46508
        3.164000           53.24966          -20.00792           55.21909          -20.82437
        3.168000           52.58733          -20.30906           54.53460          -21.17286
        3.172000           51.91925          -20.59683           53.84249          -21.50959
        3.176000           51.24414          -20.86992           53.14006          -21.83314
        3.180000           50.56048          -21.12679           52.42582          -22.14152
        3.184000           49.86740          -21.36524           51.69898          -22.43236
        3.188000           49.16476          -21.58298           50.95852          -22.70293
        3.192000           48.45256          -21.77752           50.20435          -22.95038
        3.196000           47.73159          -21.94626           49.43697          -23.17167
        3.200000           47.00318          -22.08676           48.65733          -23.36367
        3.204000           46.26926          -22.19666           47.86750          -23.52356
        3.208000           45.53228          -22.27398           47.06957          -23.64868
        3.212000           44.79513          -22.31704           46.26665          -23.73680
        3.216000           44.06091          -22.32487           45.46181          -23.78596
        3.220000           43.33314          -22.29677           44.65870          -23.79502
        3.224000           42.61540          -22.23283           43.86152          -23.76323
        3.228000           41.91121          -22.13357           43.07398          -23.69053
        3.232000           41.22413          -22.00008           42.30040          -23.57744
        3.236000           40.55759          -21.83414           41.54441          -23.42505
        3.240000           39.91448          -21.63779           40.80999          -23.23503
        3.244000           39.29760          -21.41369           40.10054          -23.00954
        3.248000           38.70917          -21.16465           39.41906          -22.75116
        3.252000           38.15115          -20.89385           38.76844          -22.46279
        3.256000           37.62504          -20.60468           38.15116          -22.14769
        3.260000           37.13166          -20.30065           37.56900          -21.80926
        3.264000           36.67145          -19.98523           37.02349          -21.45113
        3.268000           36.24457          -19.66180           36.51564          -21.07706
        3.272000           35.85052          -19.33400           36.04610          -20.69076
        3.276000           35.48844          -19.00499           35.61540          -20.29608
        3.280000           35.15720          -18.67789           35.22285          -19.89672
        3.284000           34.85513          -18.35539           34.86816          -19.49638
        3.288000           34.58027          -18.04017           34.55018          -19.09860
        3.292000           34.33058          -17.73441           34.26774          -18.70684
        3.296000           34.10363          -17.44001           34.01873          -18.32432
        3.300000           33.89682          -17.15836           33.80129          -17.95404
        3.304000           33.70761          -16.89064           33.61297          -17.59888
        3.308000           33.53326          -16.63752           33.45084          -17.26111
        3.312000           33.37112          -16.39933           33.31168          -16.94284
        3.316000           33.21850          -16.17587           33.19265          -16.64568
        3.320000           33.07299          -15.96690           33.08973          -16.37079
        3.324000           32.93215          -15.77151           32.99938          -16.11881
        3.328000           32.79401          -15.58854           32.91793          -15.88974
        3.332000           32.65664          -15.41667           32.84152          -15.68312
        3.336000           32.51854          -15.25422           32.76706          -15.49781
        3.340000           32.37852          -15.09942           32.69100          -15.33214
        3.344000           32.23572          -14.95036           32.61023          -15.18392
        3.348000           32.08974          -14.80501           32.52299          -15.05055
        3.352000           31.94051          -14.66135           32.42691          -14.92901
        3.356000           31.78832          -14.51749           32.32079          -14.81616
        3.360000           31.63397          -14.37160           32.20444          -14.70864
        3.364000           31.47845          -14.22218           32.07778          -14.60323
        3.368000           31.32313          -14.06796           31.94136          -14.49679
        3.372000           31.16959          -13.90789           31.79669          -14.38656
        3.376000           31.01945          -13.74153           31.64581          -14.27019
        3.380000           30.87471          -13.56855           31.49061          -14.14580
        3.384000           30.73702          -13.38921           31.33379          -14.01212
        3.388000           30.60819          -13.20407           31.17777          -13.86828
        3.392000           30.48984          -13.01409           31.02554          -13.71425
        3.396000           30.38322          -12.82058           30.87938          -13.55032
        3.400000           30.28956          -12.62491           30.74176          -13.37743
        3.404000           30.20943          -12.42887           30.61471          -13.19684
        3.408000           30.14334          -12.23428           30.50013          -13.01031
        3.412000           30.09136          -12.04293           30.39911          -12.81985
        3.416000           30.05325          -11.85673           30.31274          -12.62753
        3.420000           30.02832          -11.67734           30.24131          -12.43562
        3.424000           30.01568          -11.50646           30.18496          -12.24630
        3.428000           30.01426          -11.34529           30.14325          -12.06182
        3.432000           30.02263          -11.19502           30.11528          -11.88409
        3.436000           30.03927          -11.05649           30.09994          -11.71496
        3.440000           30.06281          -10.93021           30.09561          -11.55569
        3.444000           30.09155          -10.81640           30.10091          -11.40754
        3.448000           30.12414          -10.71501           30.11385          -11.27107
        3.452000           30.15917          -10.62579           30.13290          -11.14663
        3.456000           30.19553          -10.54824           30.15630          -11.03413
        3.460000           30.23234          -10.48175           30.18231          -10.93322
        3.464000           30.26886          -10.42563           30.20999          -10.84316
        3.468000           30.30462          -10.37910           30.23816          -10.76299
        3.472000           30.33940          -10.34162           30.26641          -10.69182
        3.476000           30.37326          -10.31266           30.29411          -10.62857
        3.480000           30.40631          -10.29183           30.32173          -10.57224
        3.484000           30.43866          -10.27902           30.34956          -10.52214
        3.488000           30.47067          -10.27440           30.37831          -10.47783
        3.492000           30.50257          -10.27822           30.40891          -10.43912
        3.496000           30.53450          -10.29105           30.44230          -10.40642
        3.500000           30.56631          -10.31370           30.47951          -10.38029
        3.504000           30.59772          -10.34707           30.52088          -10.36191
        3.508000           30.62819          -10.39225           30.56726          -10.35288
        3.512000           30.65683          -10.45021           30.61862          -10.35486
        3.516000           30.68255          -10.52207           30.67465          -10.36995
        3.520000           30.70370          -10.60863           30.73482          -10.40039
        3.524000           30.71859          -10.71072           30.79742          -10.44832
        3.528000           30.72500          -10.82881           30.86051          -10.51579
        3.532000           30.72066          -10.96305           30.92172          -10.60476
        3.536000           30.70294          -11.11332           30.97772          -10.71662
        3.540000           30.66938          -11.27888           31.02513          -10.85231
        3.544000           30.61705          -11.45877           31.05986          -11.01210
        3.548000           30.54346          -11.65136           31.07772          -11.19566
        3.552000           30.44590          -11.85462           31.07459          -11.40164
        3.556000           30.32216          -12.06605           31.04612          -11.62819
        3.560000           30.17019          -12.28253           30.98831          -11.87225
        3.564000           29.98835          -12.50074           30.89788          -12.13026
        3.568000           29.77562          -12.71695           30.77182          -12.39789
        3.572000           29.53164          -12.92712           30.60764          -12.67018
        3.576000           29.25642          -13.12720           30.40440          -12.94192
        3.580000           28.95069          -13.31312           30.16194          -13.20751
        3.584000           28.61599          -13.48085           29.88027          -13.46159
        3.588000           28.25438          -13.62677           29.56091          -13.69874
        3.592000           27.86829          -13.74751           29.20660          -13.91392
        3.596000           27.46108          -13.84016           28.82021          -14.10276
        3.600000           27.03576          -13.90239           28.40515          -14.26147
        3.604000           26.59620          -13.93249           27.96597          -14.38683
        3.608000           26.14611          -13.92916           27.50667          -14.47663
        3.612000           25.68912          -13.89180           27.03228          -14.52911
        3.616000           25.22902          -13.82030           26.54667          -14.54346
        3.620000           24.76928          -13.71508           26.05505          -14.51949
        3.624000           24.31321          -13.57686           25.56093          -14.45748
        3.628000           23.86377          -13.40681           25.06836          -14.35840
        3.632000           23.42366          -13.20634           24.58125          -14.22353
        3.636000           22.99520          -12.97707           24.10239          -14.05445
        3.640000           22.58049          -12.72083           23.63437          -13.85308
        3.644000           22.18119          -12.43941           23.17981          -13.62138
        3.648000           21.79879          -12.13469           22.74050          -13.36148
        3.652000           21.43441          -11.80864           22.31829          -13.07552
        3.656000           21.08898          -11.46305           21.91436          -12.76569
        3.660000           20.76316          -11.09974           21.52963          -12.43402
        3.664000           20.45756          -10.72044           21.16504          -12.08253
        3.668000           20.17236          -10.32679           20.82103          -11.71310
        3.672000           19.90791          -9.920205           20.49788          -11.32758
        3.676000           19.66429          -9.502175           20.19583          -10.92760
        3.680000           19.44152          -9.074069           19.91506          -10.51469
        3.684000           19.23955          -8.637053           19.65559          -10.09040
        3.688000           19.05833          -8.192243           19.41723          -9.655856
        3.692000           18.89771          -7.740644           19.19987          -9.212401
        3.696000           18.75756          -7.283244           19.00336          -8.761019
        3.700000           18.63771          -6.820916           18.82749          -8.302797
        3.704000           18.53808          -6.354519           18.67201          -7.838533
        3.708000           18.45848          -5.884721           18.53686          -7.369202
        3.712000           18.39881          -5.412264           18.42177          -6.895342
        3.716000           18.35894          -4.937850           18.32640          -6.417771
        3.720000           18.33881          -4.462083           18.25069          -5.937027
        3.724000           18.33836          -3.985638           18.19469          -5.453781
        3.728000           18.35752          -3.509060           18.15802          -4.968548
        3.732000           18.39630          -3.033002           18.14085          -4.481790
        3.736000           18.45469          -2.558018           18.14305          -3.994017
        3.740000           18.53275          -2.084755           18.16457          -3.505747
        3.744000           18.63049          -1.613831           18.20567          -3.017433
        3.748000           18.74800          -1.145903           18.26623          -2.529564
        3.752000           18.88529          -0.681754           18.34649          -2.042718
        3.756000           19.04251          -0.221938           18.44667          -1.557224
        3.760000           19.21971           0.232724           18.56675          -1.073793
        3.764000           19.41694           0.681374           18.70728          -0.592935
        3.768000           19.63422           1.123191           18.86832          -0.115337
        3.772000           19.87162           1.557317           19.05018           0.358305
        3.776000           20.12912           1.982707           19.25319           0.827203
        3.780000           20.40671           2.398482           19.47788           1.290641
        3.784000           20.70429           2.803558           19.72438           1.747609
        3.788000           21.02174           3.196801           19.99309           2.197031
        3.792000           21.35880           3.577141           20.28425           2.637857
        3.796000           21.71519           3.943262           20.59827           3.068822
        3.800000           22.09073           4.294037           20.93530           3.488546
        3.804000           22.48491           4.628163           21.29567           3.895607
        3.808000           22.89723           4.944294           21.67926           4.288234
        3.812000           23.32701           5.241082           22.08628           4.664829
        3.816000           23.77366           5.517074           22.51632           5.023289
        3.820000           24.23613           5.770863           22.96901           5.361566
        3.824000           24.71361           6.000974           23.44414           5.677716
        3.828000           25.20485           6.205898           23.94065           5.969318
        3.832000           25.70840           6.384124           24.45759           6.233978
        3.836000           26.22279           6.534181           24.99345           6.469355
        3.840000           26.74609           6.654662           25.54672           6.672834
        3.844000           27.27621           6.744148           26.11468           6.842119
        3.848000           27.81088           6.801486           26.69556           6.974912
        3.852000           28.34738           6.825616           27.28571           7.069068
        3.856000           28.88282           6.815797           27.88206           7.122727
        3.860000           29.41415           6.771492           28.48064           7.134239
        3.864000           29.93776           6.692673           29.07691           7.102507
        3.868000           30.45028           6.579637           29.66666           7.027144
        3.872000           30.94805           6.433212           30.24464           6.907922
        3.876000           31.42730           6.254793           30.80598           6.745799
        3.880000           31.88440           6.046335           31.34531           6.542290
        3.884000           32.31589           5.810338           31.85728           6.299867
        3.888000           32.71851           5.549974           32.33733           6.021720
        3.892000           33.08963           5.268877           32.78053           5.712095
        3.896000           33.42682           4.971281           33.18361           5.375733
        3.900000           33.72846           4.661780           33.54269           5.018417
        3.904000           33.99359           4.345294           33.85584           4.646371
        3.908000           34.22200           4.027054           34.12107           4.266293
        3.912000           34.41436           3.712138           34.33888           3.884888
        3.916000           34.57217           3.405652           34.50978           3.509113
        3.920000           34.69772           3.112428           34.63605           3.145730
        3.924000           34.79412           2.836867           34.72072           2.800971
        3.928000           34.86504           2.582781           34.76750           2.480567
        3.932000           34.91491           2.353485           34.78116           2.189415
        3.936000           34.94844           2.151250           34.76806           1.931569
        3.940000           34.97068           1.977783           34.73346           1.710078
        3.944000           34.98678           1.833882           34.68410           1.527111
        3.948000           35.00193           1.719500           34.62622           1.383700
        3.952000           35.02113           1.633817           34.56633           1.279968
        3.956000           35.04919           1.575344           34.51051           1.215128
        3.960000           35.09044           1.541888           34.46484           1.187512
        3.964000           35.14882           1.530692           34.43473           1.194775
        3.968000           35.22787           1.538550           34.42547           1.233880
        3.972000           35.33041           1.561886           34.44117           1.301249
        3.976000           35.45892           1.596805           34.48616           1.392839
        3.980000           35.61513           1.639300           34.56351           1.504285
        3.984000           35.80022           1.685119           34.67609           1.630862
        3.988000           36.01499           1.730046           34.82627           1.767636
        3.992000           36.25961           1.769844           35.01539           1.909515
        3.996000           36.53376           1.800328           35.24483           2.051238
        4.000000           36.83662           1.817417           35.51434           2.187494
# 
# 11/06/2023 at 18:19 yambo @ unimi-XPS-8930 [start]
# 11/06/2023 at 18:19                        [end]
#  
# Timing   [Min/Max/Average]: 11s/11s/11s
#
# .-Input file  yambo.in_generated
# | optics                           # [R] Linear Response optical properties
# | bss                              # [R] BSE solver
# | bse                              # [R][BSE] Bethe Salpeter Equation.
# | tddft                            # [R][K] Use TDDFT kernel
# | ElecTemp= 0.025861         eV    # Electronic Temperature
# | BoseTemp= 0.025861         eV    # Bosonic Temperature
# | FFTGvecs=  603             RL    # [FFT] Plane-waves
# | BS_nCPU_LinAlg_INV= 1            # [PARALLEL] CPUs for Linear Algebra (if -1 it is automatically set)
# | BS_nCPU_LinAlg_DIAGO= 1          # [PARALLEL] CPUs for Linear Algebra (if -1 it is automatically set)
# | X_Threads= 1                     # [OPENMP/X] Number of threads for response functions
# | DIP_Threads= 1                   # [OPENMP/X] Number of threads for dipoles
# | K_Threads= 1                     # [OPENMP/BSK] Number of threads for response functions
# | BSKmod= "ALDA"                   # [BSE] IP/Hartree/HF/ALDA/SEX/BSfxc
# | BSEmod= "resonant"               # [BSE] resonant/retarded/coupling
# | BSSmod= "d"                      # [BSS] (h)aydock/(d)iagonalization/(s)lepc/(i)nversion/(t)ddft`
# | DipComputed= "R V P Spin"        # [DIP] [default R P V; extra P2 Spin Orb]
# | BSENGexx= 1157             RL    # [BSK] Exchange components
# | % BSEQptR
# |  1 | 2 |                             # [BSK] Transferred momenta range
# | %
# | % BSEBands
# |   2 |  6 |                           # [BSK] Bands range
# | %
# | % BEnRange
# | -2.000000 | 4.000000 |         eV    # [BSS] Energy range
# | %
# | % BDmRange
# |  0.100000 | 0.100000 |         eV    # [BSS] Damping range
# | %
# | BEnSteps= 1501                   # [BSS] Energy steps
# | % BLongDir
# |  0.000000 | 1.000000 | 0.000000 |        # [BSS] [cc] Electric Field versor
# | %
# | BSEprop= " jdos magn"            # [BSS] Can be any among abs/jdos/kerr/asymm/anHAll/magn/dich/photolum/esrt
# | BSEdips= "none"                  # [BSS] Can be "trace/none" or "xy/xz/yz" to define off-diagonal rotation plane
# | #WRbsWF                        # [BSS] Write to disk excitonic the WFs
