#                                                                     
#  __  __   ________   ___ __ __    _______   ______                  
# /_/\/_/\ /_______/\ /__//_//_/\ /_______/\ /_____/\                 
# \ \ \ \ \\::: _  \ \\::\| \| \ \\::: _  \ \\:::_ \ \                
#  \:\_\ \ \\::(_)  \ \\:.      \ \\::(_)  \/_\:\ \ \ \               
#   \::::_\/ \:: __  \ \\:.\-/\  \ \\::  _  \ \\:\ \ \ \              
#     \::\ \  \:.\ \  \ \\. \  \  \ \\::(_)  \ \\:\_\ \ \             
#      \__\/   \__\/\__\/ \__\/ \__\/ \_______\/ \_____\/             
#                                                                     
#                                                                     
# Version 5.3.0 Revision 23897 Hash (prev commit) 1ec507d413          
#                 Branch is phys-magnons                              
#         MPI+OpenMP+SLK+SLEPC+HDF5_MPI_IO Build                      
#                http://www.yambo-code.eu                             
#
# Joint Density of states @ Q(2):   0.00000000      0.00000000    -0.500000000    [iku]
#
# [GEN] GF Energies                               : Perdew, Burke & Ernzerhof(X)+Perdew, Burke & Ernzerhof(C)
# [GEN] Green`s Function                          : Resonant
#
# DIP band range                                  :   2   6
# DIP band range limits                           :   6   2
# DIP e/h energy range                            :  -1.00000000     -1.00000000    [eV]
# RL vectors in the sum                           :   603
# [r,Vnl] included                                : yes
# Bands ordered                                   : no
# Direct v evaluation                             : no
# Approach used                                   : G-space v
# Dipoles computed                                : R V P [G-space]  M_spin
# Wavefunctions                                   : Perdew, Burke & Ernzerhof(X)+Perdew, Burke & Ernzerhof(C)
#
#
# [K] Identifier                                  :   7517
# [K] Q-point                                     :   0.00000000      0.00000000    -0.500000000   
# [K] Dimension                                   :   885
# [K] Bands                                       :   2   6
# [K] Exchange res                                : no
# [K] Correlation res                             : no
# [K] Kernel`s coupling                           : no
# [K] Exchange cpl                                : no
# [K] Correlation cpl                             : no
# [K] W interaction is bare                       : no
# [K] ALDA kernel in R-space                      : yes
# [K] E/h energy range                            :  -1.00000000     -1.00000000    [eV]
# [K] Coupling range                              :   100.000000      100.000000    [o/o]
# [X] Response Kind                               : BAR
#
#
#    E[1] [eV]          Im(jdos)           Re(jdos)           Im(jdos_o)         Re(jdos_o)
#
       -2.000000           0.218277           10.75920           0.213232           10.68382
       -1.996000           0.218684           10.76792           0.213614           10.69234
       -1.992000           0.219091           10.77667           0.213996           10.70088
       -1.988000           0.219500           10.78543           0.214380           10.70943
       -1.984000           0.219910           10.79420           0.214765           10.71800
       -1.980000           0.220321           10.80299           0.215151           10.72663
       -1.976000           0.220734           10.81181           0.215538           10.73521
       -1.972000           0.221149           10.82063           0.215927           10.74381
       -1.968000           0.221564           10.82947           0.216316           10.75245
       -1.964000           0.221981           10.83834           0.216707           10.76109
       -1.960000           0.222399           10.84720           0.217099           10.76976
       -1.956000           0.222819           10.85610           0.217493           10.77847
       -1.952000           0.223241           10.86501           0.217887           10.78716
       -1.948000           0.223663           10.87393           0.218282           10.79587
       -1.944000           0.224087           10.88288           0.218679           10.80459
       -1.940000           0.224513           10.89184           0.219077           10.81333
       -1.936000           0.224940           10.90081           0.219477           10.82210
       -1.932000           0.225368           10.90981           0.219877           10.83088
       -1.928000           0.225798           10.91882           0.220279           10.83967
       -1.924000           0.226230           10.92785           0.220683           10.84847
       -1.920000           0.226663           10.93689           0.221087           10.85731
       -1.916000           0.227097           10.94596           0.221493           10.86614
       -1.912000           0.227534           10.95504           0.221900           10.87500
       -1.908000           0.227971           10.96414           0.222308           10.88388
       -1.904000           0.228410           10.97324           0.222717           10.89275
       -1.900000           0.228850           10.98237           0.223129           10.90167
       -1.896000           0.229293           10.99153           0.223540           10.91058
       -1.892000           0.229736           11.00071           0.223954           10.91952
       -1.888000           0.230181           11.00988           0.224369           10.92846
       -1.884000           0.230628           11.01909           0.224785           10.93745
       -1.880000           0.231077           11.02829           0.225201           10.94643
       -1.876000           0.231527           11.03755           0.225621           10.95547
       -1.872000           0.231978           11.04681           0.226041           10.96449
       -1.868000           0.232431           11.05607           0.226462           10.97352
       -1.864000           0.232886           11.06536           0.226884           10.98256
       -1.860000           0.233343           11.07469           0.227309           10.99161
       -1.856000           0.233800           11.08401           0.227735           11.00075
       -1.852000           0.234260           11.09335           0.228161           11.00985
       -1.848000           0.234721           11.10272           0.228589           11.01897
       -1.844000           0.235185           11.11210           0.229019           11.02810
       -1.840000           0.235649           11.12151           0.229450           11.03726
       -1.836000           0.236116           11.13093           0.229882           11.04642
       -1.832000           0.236583           11.14036           0.230316           11.05563
       -1.828000           0.237053           11.14982           0.230751           11.06485
       -1.824000           0.237525           11.15931           0.231188           11.07408
       -1.820000           0.237998           11.16880           0.231626           11.08329
       -1.816000           0.238473           11.17831           0.232065           11.09258
       -1.812000           0.238950           11.18786           0.232506           11.10186
       -1.808000           0.239428           11.19740           0.232948           11.11114
       -1.804000           0.239909           11.20698           0.233392           11.12047
       -1.800000           0.240391           11.21656           0.233838           11.12978
       -1.796000           0.240875           11.22617           0.234284           11.13913
       -1.792000           0.241361           11.23580           0.234732           11.14850
       -1.788000           0.241848           11.24546           0.235181           11.15789
       -1.784000           0.242337           11.25512           0.235633           11.16731
       -1.780000           0.242829           11.26481           0.236087           11.17672
       -1.776000           0.243322           11.27452           0.236540           11.18618
       -1.772000           0.243816           11.28424           0.236996           11.19562
       -1.768000           0.244313           11.29400           0.237453           11.20508
       -1.764000           0.244812           11.30375           0.237912           11.21460
       -1.760000           0.245313           11.31355           0.238372           11.22408
       -1.756000           0.245815           11.32335           0.238835           11.23365
       -1.752000           0.246320           11.33319           0.239298           11.24317
       -1.748000           0.246826           11.34303           0.239763           11.25276
       -1.744000           0.247335           11.35290           0.240230           11.26234
       -1.740000           0.247845           11.36278           0.240698           11.27195
       -1.736000           0.248357           11.37269           0.241167           11.28158
       -1.732000           0.248872           11.38262           0.241638           11.29121
       -1.728000           0.249388           11.39257           0.242111           11.30085
       -1.724000           0.249906           11.40254           0.242586           11.31053
       -1.720000           0.250427           11.41252           0.243062           11.32024
       -1.716000           0.250949           11.42253           0.243539           11.32998
       -1.712000           0.251474           11.43257           0.244019           11.33971
       -1.708000           0.252001           11.44261           0.244500           11.34948
       -1.704000           0.252529           11.45269           0.244983           11.35924
       -1.700000           0.253060           11.46278           0.245467           11.36906
       -1.696000           0.253593           11.47289           0.245953           11.37888
       -1.692000           0.254128           11.48302           0.246441           11.38867
       -1.688000           0.254666           11.49319           0.246931           11.39857
       -1.684000           0.255205           11.50337           0.247422           11.40843
       -1.680000           0.255747           11.51358           0.247915           11.41833
       -1.676000           0.256291           11.52379           0.248409           11.42823
       -1.672000           0.256837           11.53402           0.248905           11.43813
       -1.668000           0.257385           11.54431           0.249403           11.44808
       -1.664000           0.257936           11.55459           0.249904           11.45806
       -1.660000           0.258489           11.56488           0.250405           11.46807
       -1.656000           0.259044           11.57522           0.250908           11.47807
       -1.652000           0.259601           11.58559           0.251413           11.48808
       -1.648000           0.260161           11.59597           0.251920           11.49815
       -1.644000           0.260724           11.60635           0.252428           11.50825
       -1.640000           0.261288           11.61677           0.252939           11.51831
       -1.636000           0.261855           11.62722           0.253452           11.52843
       -1.632000           0.262424           11.63768           0.253965           11.53854
       -1.628000           0.262996           11.64818           0.254482           11.54871
       -1.624000           0.263570           11.65868           0.255000           11.55889
       -1.620000           0.264146           11.66922           0.255519           11.56908
       -1.616000           0.264726           11.67978           0.256041           11.57929
       -1.612000           0.265307           11.69035           0.256564           11.58956
       -1.608000           0.265892           11.70096           0.257090           11.59981
       -1.604000           0.266479           11.71157           0.257617           11.61007
       -1.600000           0.267067           11.72224           0.258146           11.62038
       -1.596000           0.267659           11.73291           0.258677           11.63070
       -1.592000           0.268254           11.74362           0.259210           11.64104
       -1.588000           0.268851           11.75432           0.259745           11.65142
       -1.584000           0.269450           11.76507           0.260281           11.66181
       -1.580000           0.270053           11.77584           0.260820           11.67217
       -1.576000           0.270658           11.78662           0.261361           11.68264
       -1.572000           0.271265           11.79743           0.261904           11.69307
       -1.568000           0.271876           11.80829           0.262448           11.70354
       -1.564000           0.272489           11.81914           0.262996           11.71403
       -1.560000           0.273105           11.83003           0.263545           11.72458
       -1.556000           0.273724           11.84096           0.264095           11.73508
       -1.552000           0.274345           11.85188           0.264649           11.74566
       -1.548000           0.274970           11.86285           0.265204           11.75623
       -1.544000           0.275597           11.87383           0.265761           11.76680
       -1.540000           0.276227           11.88485           0.266320           11.77746
       -1.536000           0.276860           11.89587           0.266881           11.78807
       -1.532000           0.277496           11.90694           0.267444           11.79876
       -1.528000           0.278135           11.91803           0.268011           11.80943
       -1.524000           0.278778           11.92915           0.268577           11.82016
       -1.520000           0.279423           11.94028           0.269147           11.83093
       -1.516000           0.280071           11.95145           0.269720           11.84165
       -1.512000           0.280722           11.96264           0.270293           11.85246
       -1.508000           0.281377           11.97385           0.270870           11.86325
       -1.504000           0.282034           11.98509           0.271449           11.87407
       -1.500000           0.282695           11.99637           0.272029           11.88492
       -1.496000           0.283359           12.00766           0.272613           11.89579
       -1.492000           0.284025           12.01898           0.273198           11.90670
       -1.488000           0.284696           12.03031           0.273785           11.91761
       -1.484000           0.285370           12.04170           0.274375           11.92857
       -1.480000           0.286046           12.05309           0.274967           11.93955
       -1.476000           0.286727           12.06453           0.275561           11.95052
       -1.472000           0.287410           12.07599           0.276158           11.96151
       -1.468000           0.288098           12.08745           0.276757           11.97256
       -1.464000           0.288788           12.09896           0.277358           11.98362
       -1.460000           0.289482           12.11050           0.277962           11.99472
       -1.456000           0.290180           12.12206           0.278568           12.00586
       -1.452000           0.290881           12.13367           0.279176           12.01697
       -1.448000           0.291585           12.14528           0.279787           12.02815
       -1.444000           0.292294           12.15694           0.280400           12.03930
       -1.440000           0.293006           12.16860           0.281016           12.05054
       -1.436000           0.293722           12.18030           0.281633           12.06175
       -1.432000           0.294441           12.19204           0.282255           12.07299
       -1.428000           0.295164           12.20380           0.282877           12.08428
       -1.424000           0.295892           12.21558           0.283503           12.09558
       -1.420000           0.296622           12.22739           0.284131           12.10694
       -1.416000           0.297357           12.23923           0.284762           12.11827
       -1.412000           0.298096           12.25112           0.285395           12.12967
       -1.408000           0.298839           12.26303           0.286030           12.14110
       -1.404000           0.299585           12.27497           0.286668           12.15251
       -1.400000           0.300337           12.28693           0.287310           12.16397
       -1.396000           0.301091           12.29891           0.287953           12.17542
       -1.392000           0.301851           12.31095           0.288599           12.18694
       -1.388000           0.302614           12.32300           0.289248           12.19849
       -1.384000           0.303381           12.33508           0.289899           12.21006
       -1.380000           0.304153           12.34721           0.290553           12.22165
       -1.376000           0.304930           12.35935           0.291210           12.23328
       -1.372000           0.305711           12.37149           0.291869           12.24489
       -1.368000           0.306496           12.38372           0.292532           12.25657
       -1.364000           0.307286           12.39596           0.293197           12.26824
       -1.360000           0.308080           12.40823           0.293864           12.27995
       -1.356000           0.308879           12.42053           0.294535           12.29171
       -1.352000           0.309682           12.43286           0.295208           12.30348
       -1.348000           0.310491           12.44522           0.295884           12.31525
       -1.344000           0.311304           12.45762           0.296563           12.32711
       -1.340000           0.312122           12.47005           0.297244           12.33896
       -1.336000           0.312944           12.48251           0.297930           12.35084
       -1.332000           0.313772           12.49500           0.298617           12.36273
       -1.328000           0.314605           12.50752           0.299308           12.37465
       -1.324000           0.315443           12.52009           0.300001           12.38666
       -1.320000           0.316286           12.53267           0.300698           12.39863
       -1.316000           0.317135           12.54530           0.301397           12.41065
       -1.312000           0.317988           12.55796           0.302100           12.42268
       -1.308000           0.318847           12.57064           0.302805           12.43475
       -1.304000           0.319712           12.58337           0.303513           12.44685
       -1.300000           0.320582           12.59613           0.304225           12.45899
       -1.296000           0.321458           12.60893           0.304941           12.47117
       -1.292000           0.322338           12.62174           0.305658           12.48334
       -1.288000           0.323226           12.63463           0.306379           12.49554
       -1.284000           0.324119           12.64751           0.307102           12.50777
       -1.280000           0.325017           12.66044           0.307830           12.52005
       -1.276000           0.325922           12.67342           0.308561           12.53236
       -1.272000           0.326833           12.68641           0.309294           12.54469
       -1.268000           0.327749           12.69944           0.310031           12.55706
       -1.264000           0.328673           12.71253           0.310772           12.56943
       -1.260000           0.329602           12.72564           0.311515           12.58184
       -1.256000           0.330539           12.73879           0.312262           12.59430
       -1.252000           0.331481           12.75198           0.313013           12.60679
       -1.248000           0.332430           12.76520           0.313766           12.61931
       -1.244000           0.333385           12.77846           0.314522           12.63184
       -1.240000           0.334348           12.79173           0.315284           12.64438
       -1.236000           0.335318           12.80508           0.316047           12.65697
       -1.232000           0.336294           12.81845           0.316814           12.66962
       -1.228000           0.337278           12.83187           0.317585           12.68230
       -1.224000           0.338270           12.84531           0.318359           12.69499
       -1.220000           0.339268           12.85880           0.319136           12.70768
       -1.216000           0.340274           12.87233           0.319919           12.72046
       -1.212000           0.341287           12.88589           0.320703           12.73322
       -1.208000           0.342309           12.89951           0.321492           12.74602
       -1.204000           0.343338           12.91313           0.322284           12.75887
       -1.200000           0.344375           12.92684           0.323080           12.77179
       -1.196000           0.345421           12.94056           0.323880           12.78465
       -1.192000           0.346475           12.95432           0.324683           12.79761
       -1.188000           0.347537           12.96812           0.325491           12.81057
       -1.184000           0.348608           12.98197           0.326302           12.82358
       -1.180000           0.349687           12.99587           0.327116           12.83662
       -1.176000           0.350776           13.00981           0.327935           12.84969
       -1.172000           0.351873           13.02379           0.328759           12.86282
       -1.168000           0.352980           13.03780           0.329585           12.87593
       -1.164000           0.354096           13.05185           0.330415           12.88909
       -1.160000           0.355221           13.06596           0.331249           12.90230
       -1.156000           0.356357           13.08010           0.332089           12.91552
       -1.152000           0.357502           13.09429           0.332931           12.92879
       -1.148000           0.358658           13.10853           0.333776           12.94209
       -1.144000           0.359824           13.12280           0.334627           12.95545
       -1.140000           0.361000           13.13713           0.335483           12.96883
       -1.136000           0.362186           13.15150           0.336342           12.98216
       -1.132000           0.363385           13.16594           0.337205           12.99566
       -1.128000           0.364594           13.18037           0.338073           13.00910
       -1.124000           0.365815           13.19489           0.338944           13.02260
       -1.120000           0.367047           13.20946           0.339820           13.03616
       -1.116000           0.368291           13.22406           0.340701           13.04974
       -1.112000           0.369548           13.23870           0.341586           13.06334
       -1.108000           0.370816           13.25340           0.342476           13.07698
       -1.104000           0.372098           13.26815           0.343369           13.09064
       -1.100000           0.373392           13.28297           0.344268           13.10438
       -1.096000           0.374700           13.29779           0.345170           13.11811
       -1.092000           0.376021           13.31269           0.346076           13.13190
       -1.088000           0.377356           13.32763           0.346989           13.14571
       -1.084000           0.378706           13.34264           0.347906           13.15957
       -1.080000           0.380069           13.35770           0.348828           13.17345
       -1.076000           0.381447           13.37280           0.349754           13.18741
       -1.072000           0.382841           13.38794           0.350684           13.20138
       -1.068000           0.384251           13.40315           0.351620           13.21537
       -1.064000           0.385676           13.41839           0.352560           13.22940
       -1.060000           0.387117           13.43372           0.353506           13.24351
       -1.056000           0.388576           13.44908           0.354457           13.25761
       -1.052000           0.390051           13.46449           0.355412           13.27177
       -1.048000           0.391543           13.47998           0.356372           13.28599
       -1.044000           0.393055           13.49552           0.357337           13.30016
       -1.040000           0.394584           13.51109           0.358308           13.31447
       -1.036000           0.396133           13.52674           0.359283           13.32879
       -1.032000           0.397702           13.54245           0.360264           13.34313
       -1.028000           0.399290           13.55821           0.361250           13.35751
       -1.024000           0.400899           13.57404           0.362242           13.37195
       -1.020000           0.402528           13.58990           0.363240           13.38639
       -1.016000           0.404179           13.60583           0.364242           13.40089
       -1.012000           0.405854           13.62184           0.365249           13.41547
       -1.008000           0.407551           13.63791           0.366263           13.43005
       -1.004000           0.409271           13.65402           0.367281           13.44465
       -1.000000           0.411016           13.67022           0.368305           13.45932
       -0.996000           0.412786           13.68647           0.369336           13.47401
       -0.992000           0.414582           13.70277           0.370372           13.48877
       -0.988000           0.416404           13.71917           0.371413           13.50353
       -0.984000           0.418254           13.73562           0.372461           13.51837
       -0.980000           0.420133           13.75212           0.373514           13.53324
       -0.976000           0.422040           13.76869           0.374573           13.54817
       -0.972000           0.423977           13.78534           0.375637           13.56315
       -0.968000           0.425947           13.80206           0.376709           13.57812
       -0.964000           0.427947           13.81885           0.377786           13.59313
       -0.960000           0.429982           13.83569           0.378870           13.60823
       -0.956000           0.432050           13.85262           0.379959           13.62337
       -0.952000           0.434154           13.86962           0.381055           13.63854
       -0.948000           0.436294           13.88669           0.382158           13.65376
       -0.944000           0.438472           13.90383           0.383265           13.66901
       -0.940000           0.440690           13.92106           0.384381           13.68426
       -0.936000           0.442948           13.93834           0.385504           13.69964
       -0.932000           0.445248           13.95570           0.386631           13.71500
       -0.928000           0.447592           13.97316           0.387766           13.73046
       -0.924000           0.449982           13.99069           0.388908           13.74590
       -0.920000           0.452418           14.00831           0.390056           13.76146
       -0.916000           0.454903           14.02599           0.391212           13.77704
       -0.912000           0.457438           14.04377           0.392374           13.79266
       -0.908000           0.460026           14.06160           0.393543           13.80829
       -0.904000           0.462668           14.07955           0.394720           13.82399
       -0.900000           0.465368           14.09755           0.395903           13.83976
       -0.896000           0.468126           14.11565           0.397094           13.85556
       -0.892000           0.470945           14.13385           0.398293           13.87141
       -0.888000           0.473828           14.15212           0.399497           13.88732
       -0.884000           0.476778           14.17049           0.400710           13.90324
       -0.880000           0.479798           14.18894           0.401930           13.91922
       -0.876000           0.482889           14.20751           0.403158           13.93530
       -0.872000           0.486056           14.22612           0.404394           13.95134
       -0.868000           0.489302           14.24486           0.405638           13.96746
       -0.864000           0.492629           14.26368           0.406888           13.98367
       -0.860000           0.496043           14.28261           0.408148           13.99990
       -0.856000           0.499544           14.30159           0.409416           14.01616
       -0.852000           0.503140           14.32071           0.410691           14.03250
       -0.848000           0.506835           14.33993           0.411974           14.04892
       -0.844000           0.510631           14.35921           0.413266           14.06529
       -0.840000           0.514534           14.37860           0.414566           14.08183
       -0.836000           0.518549           14.39812           0.415875           14.09835
       -0.832000           0.522682           14.41770           0.417193           14.11496
       -0.828000           0.526938           14.43740           0.418519           14.13161
       -0.824000           0.531323           14.45719           0.419854           14.14826
       -0.820000           0.535844           14.47708           0.421199           14.16505
       -0.816000           0.540506           14.49709           0.422551           14.18183
       -0.812000           0.545317           14.51717           0.423911           14.19871
       -0.808000           0.550285           14.53737           0.425283           14.21558
       -0.804000           0.555417           14.55767           0.426663           14.23256
       -0.800000           0.560722           14.57806           0.428052           14.24954
       -0.796000           0.566209           14.59855           0.429452           14.26663
       -0.792000           0.571887           14.61910           0.430861           14.28376
       -0.788000           0.577764           14.63979           0.432278           14.30093
       -0.784000           0.583853           14.66055           0.433709           14.31816
       -0.780000           0.590165           14.68137           0.435145           14.33550
       -0.776000           0.596710           14.70230           0.436594           14.35284
       -0.772000           0.603499           14.72328           0.438052           14.37023
       -0.768000           0.610548           14.74435           0.439521           14.38768
       -0.764000           0.617869           14.76548           0.441001           14.40523
       -0.760000           0.625476           14.78669           0.442490           14.42279
       -0.756000           0.633382           14.80791           0.443992           14.44048
       -0.752000           0.641605           14.82917           0.445502           14.45813
       -0.748000           0.650160           14.85050           0.447024           14.47589
       -0.744000           0.659064           14.87177           0.448559           14.49369
       -0.740000           0.668333           14.89310           0.450104           14.51159
       -0.736000           0.677984           14.91436           0.451661           14.52947
       -0.732000           0.688038           14.93563           0.453227           14.54753
       -0.728000           0.698510           14.95682           0.454808           14.56555
       -0.724000           0.709417           14.97790           0.456399           14.58369
       -0.720000           0.720782           14.99889           0.458002           14.60189
       -0.716000           0.732621           15.01974           0.459617           14.62016
       -0.712000           0.744949           15.04040           0.461244           14.63845
       -0.708000           0.757782           15.06086           0.462884           14.65683
       -0.704000           0.771136           15.08102           0.464538           14.67528
       -0.700000           0.785022           15.10092           0.466204           14.69382
       -0.696000           0.799451           15.12043           0.467881           14.71234
       -0.692000           0.814429           15.13955           0.469574           14.73100
       -0.688000           0.829958           15.15816           0.471279           14.74970
       -0.684000           0.846032           15.17623           0.472998           14.76845
       -0.680000           0.862643           15.19370           0.474729           14.78728
       -0.676000           0.879776           15.21047           0.476475           14.80623
       -0.672000           0.897399           15.22645           0.478235           14.82521
       -0.668000           0.915477           15.24158           0.480010           14.84424
       -0.664000           0.933964           15.25576           0.481798           14.86331
       -0.660000           0.952794           15.26890           0.483600           14.88252
       -0.656000           0.971891           15.28090           0.485420           14.90178
       -0.652000           0.991164           15.29170           0.487254           14.92111
       -0.648000           1.010501           15.30122           0.489103           14.94051
       -0.644000           1.029778           15.30937           0.490966           14.95996
       -0.640000           1.048848           15.31612           0.492846           14.97950
       -0.636000           1.067553           15.32140           0.494744           14.99910
       -0.632000           1.085717           15.32520           0.496654           15.01882
       -0.628000           1.103153           15.32751           0.498583           15.03859
       -0.624000           1.119666           15.32835           0.500528           15.05845
       -0.620000           1.135056           15.32781           0.502491           15.07836
       -0.616000           1.149124           15.32599           0.504469           15.09836
       -0.612000           1.161683           15.32297           0.506466           15.11836
       -0.608000           1.172558           15.31895           0.508480           15.13856
       -0.604000           1.181591           15.31407           0.510513           15.15877
       -0.600000           1.188665           15.30856           0.512564           15.17909
       -0.596000           1.193680           15.30268           0.514632           15.19944
       -0.592000           1.196586           15.29667           0.516720           15.21991
       -0.588000           1.197370           15.29077           0.518827           15.24044
       -0.584000           1.196055           15.28527           0.520952           15.26112
       -0.580000           1.192712           15.28038           0.523100           15.28185
       -0.576000           1.187443           15.27636           0.525265           15.30264
       -0.572000           1.180379           15.27339           0.527453           15.32346
       -0.568000           1.171685           15.27165           0.529657           15.34445
       -0.564000           1.161540           15.27132           0.531888           15.36549
       -0.560000           1.150137           15.27248           0.534138           15.38666
       -0.556000           1.137678           15.27523           0.536407           15.40789
       -0.552000           1.124361           15.27961           0.538700           15.42921
       -0.548000           1.110379           15.28564           0.541016           15.45065
       -0.544000           1.095920           15.29332           0.543352           15.47206
       -0.540000           1.081151           15.30260           0.545715           15.49365
       -0.536000           1.066230           15.31349           0.548100           15.51536
       -0.532000           1.051298           15.32587           0.550509           15.53715
       -0.528000           1.036474           15.33970           0.552940           15.55898
       -0.524000           1.021868           15.35486           0.555399           15.58093
       -0.520000           1.007563           15.37130           0.557882           15.60296
       -0.516000           0.993635           15.38892           0.560391           15.62515
       -0.512000           0.980143           15.40765           0.562926           15.64737
       -0.508000           0.967129           15.42739           0.565488           15.66969
       -0.504000           0.954636           15.44802           0.568078           15.69215
       -0.500000           0.942678           15.46953           0.570693           15.71470
       -0.496000           0.931278           15.49180           0.573337           15.73731
       -0.492000           0.920443           15.51476           0.576009           15.76005
       -0.488000           0.910176           15.53836           0.578710           15.78294
       -0.484000           0.900471           15.56252           0.581441           15.80587
       -0.480000           0.891325           15.58724           0.584204           15.82892
       -0.476000           0.882728           15.61240           0.586994           15.85209
       -0.472000           0.874669           15.63799           0.589817           15.87534
       -0.468000           0.867129           15.66396           0.592672           15.89873
       -0.464000           0.860097           15.69028           0.595560           15.92222
       -0.460000           0.853557           15.71691           0.598480           15.94580
       -0.456000           0.847489           15.74384           0.601434           15.96951
       -0.452000           0.841875           15.77103           0.604423           15.99335
       -0.448000           0.836703           15.79844           0.607446           16.01728
       -0.444000           0.831949           15.82606           0.610505           16.04134
       -0.440000           0.827603           15.85388           0.613599           16.06552
       -0.436000           0.823641           15.88189           0.616732           16.08983
       -0.432000           0.820056           15.91008           0.619904           16.11418
       -0.428000           0.816826           15.93840           0.623111           16.13874
       -0.424000           0.813937           15.96688           0.626360           16.16339
       -0.420000           0.811377           15.99553           0.629650           16.18816
       -0.416000           0.809129           16.02427           0.632979           16.21301
       -0.412000           0.807185           16.05315           0.636351           16.23805
       -0.408000           0.805531           16.08212           0.639765           16.26323
       -0.404000           0.804154           16.11127           0.643223           16.28847
       -0.400000           0.803044           16.14048           0.646725           16.31387
       -0.396000           0.802190           16.16983           0.650276           16.33942
       -0.392000           0.801585           16.19928           0.653868           16.36515
       -0.388000           0.801217           16.22882           0.657512           16.39095
       -0.384000           0.801083           16.25848           0.661202           16.41693
       -0.380000           0.801167           16.28824           0.664943           16.44301
       -0.376000           0.801468           16.31811           0.668734           16.46925
       -0.372000           0.801975           16.34808           0.672578           16.49561
       -0.368000           0.802685           16.37816           0.676474           16.52207
       -0.364000           0.803592           16.40837           0.680427           16.54878
       -0.360000           0.804688           16.43867           0.684431           16.57565
       -0.356000           0.805968           16.46907           0.688494           16.60258
       -0.352000           0.807430           16.49961           0.692616           16.62968
       -0.348000           0.809068           16.53024           0.696796           16.65693
       -0.344000           0.810879           16.56097           0.701037           16.68435
       -0.340000           0.812859           16.59187           0.705343           16.71194
       -0.336000           0.815003           16.62288           0.709709           16.73971
       -0.332000           0.817311           16.65397           0.714143           16.76762
       -0.328000           0.819780           16.68524           0.718643           16.79570
       -0.324000           0.822406           16.71661           0.723211           16.82389
       -0.320000           0.825188           16.74811           0.727851           16.85235
       -0.316000           0.828125           16.77976           0.732562           16.88091
       -0.312000           0.831214           16.81154           0.737346           16.90970
       -0.308000           0.834455           16.84348           0.742206           16.93859
       -0.304000           0.837847           16.87556           0.747144           16.96773
       -0.300000           0.841386           16.90777           0.752161           16.99699
       -0.296000           0.845077           16.94013           0.757262           17.02644
       -0.292000           0.848914           16.97268           0.762445           17.05610
       -0.288000           0.852903           17.00535           0.767717           17.08590
       -0.284000           0.857040           17.03823           0.773074           17.11600
       -0.280000           0.861327           17.07125           0.778521           17.14622
       -0.276000           0.865764           17.10445           0.784062           17.17669
       -0.272000           0.870352           17.13778           0.789701           17.20727
       -0.268000           0.875089           17.17134           0.795435           17.23807
       -0.264000           0.879982           17.20507           0.801270           17.26920
       -0.260000           0.885026           17.23897           0.807209           17.30040
       -0.256000           0.890231           17.27311           0.813258           17.33186
       -0.252000           0.895591           17.30740           0.819409           17.36353
       -0.248000           0.901108           17.34190           0.825680           17.39544
       -0.244000           0.906790           17.37661           0.832064           17.42756
       -0.240000           0.912636           17.41152           0.838571           17.45992
       -0.236000           0.918651           17.44664           0.845196           17.49243
       -0.232000           0.924832           17.48199           0.851949           17.52532
       -0.228000           0.931189           17.51755           0.858835           17.55836
       -0.224000           0.937721           17.55335           0.865858           17.59162
       -0.220000           0.944434           17.58937           0.873015           17.62519
       -0.216000           0.951327           17.62563           0.880308           17.65899
       -0.212000           0.958411           17.66213           0.887758           17.69302
       -0.208000           0.965688           17.69889           0.895355           17.72733
       -0.204000           0.973159           17.73589           0.903107           17.76193
       -0.200000           0.980829           17.77316           0.911022           17.79667
       -0.196000           0.988710           17.81067           0.919104           17.83181
       -0.192000           0.996798           17.84846           0.927357           17.86721
       -0.188000           1.005107           17.88652           0.935784           17.90284
       -0.184000           1.013637           17.92487           0.944401           17.93880
       -0.180000           1.022397           17.96349           0.953204           17.97505
       -0.176000           1.031393           18.00243           0.962202           18.01157
       -0.172000           1.040632           18.04164           0.971401           18.04837
       -0.168000           1.050121           18.08116           0.980814           18.08550
       -0.164000           1.059868           18.12099           0.990439           18.12296
       -0.160000           1.069879           18.16114           1.000284           18.16072
       -0.156000           1.080167           18.20161           1.010365           18.19887
       -0.152000           1.090737           18.24243           1.020687           18.23725
       -0.148000           1.101601           18.28355           1.031251           18.27600
       -0.144000           1.112765           18.32503           1.042079           18.31506
       -0.140000           1.124246           18.36688           1.053168           18.35456
       -0.136000           1.136048           18.40903           1.064534           18.39432
       -0.132000           1.148185           18.45158           1.076186           18.43450
       -0.128000           1.160673           18.49450           1.088135           18.47505
       -0.124000           1.173517           18.53780           1.100395           18.51591
       -0.120000           1.186737           18.58148           1.112972           18.55720
       -0.116000           1.200344           18.62556           1.125880           18.59891
       -0.112000           1.214353           18.67005           1.139136           18.64093
       -0.108000           1.228779           18.71494           1.152747           18.68345
       -0.104000           1.243641           18.76025           1.166733           18.72627
       -0.100000           1.258951           18.80596           1.181098           18.76959
       -0.096000           1.274733           18.85216           1.195880           18.81328
       -0.092000           1.291000           18.89873           1.211069           18.85744
       -0.088000           1.307779           18.94579           1.226698           18.90203
       -0.084000           1.325087           18.99329           1.242782           18.94708
       -0.080000           1.342946           19.04129           1.259340           18.99254
       -0.076000           1.361381           19.08972           1.276389           19.03850
       -0.072000           1.380414           19.13866           1.293952           19.08494
       -0.068000           1.400074           19.18810           1.312048           19.13186
       -0.064000           1.420390           19.23800           1.330710           19.17928
       -0.060000           1.441388           19.28844           1.349949           19.22714
       -0.056000           1.463097           19.33936           1.369805           19.27554
       -0.052000           1.485553           19.39084           1.390296           19.32448
       -0.048000           1.508791           19.44282           1.411448           19.37386
       -0.044000           1.532842           19.49533           1.433296           19.42389
       -0.040000           1.557750           19.54839           1.455870           19.47442
       -0.036000           1.583548           19.60196           1.479205           19.52547
       -0.032000           1.610287           19.65612           1.503345           19.57701
       -0.028000           1.638006           19.71084           1.528303           19.62922
       -0.024000           1.666759           19.76606           1.554141           19.68192
       -0.020000           1.696589           19.82189           1.580901           19.73521
       -0.016000           1.727556           19.87823           1.608617           19.78909
       -0.012000           1.759711           19.93517           1.637331           19.84355
       -0.008000           1.793114           19.99265           1.667105           19.89860
       -0.004000           1.827831           20.05066           1.698000           19.95427
        0.000000           1.863924           20.10925           1.730039           20.01049
        0.004000           1.901470           20.16832           1.763309           20.06728
        0.008000           1.940537           20.22794           1.797858           20.12469
        0.012000           1.981206           20.28809           1.833757           20.18262
        0.016000           2.023559           20.34870           1.871076           20.24121
        0.020000           2.067683           20.40979           1.909878           20.30032
        0.024000           2.113670           20.47129           1.950262           20.36001
        0.028000           2.161623           20.53324           1.992286           20.42028
        0.032000           2.211634           20.59554           2.036041           20.48099
        0.036000           2.263818           20.65814           2.081644           20.54230
        0.040000           2.318277           20.72105           2.129155           20.60406
        0.044000           2.375137           20.78413           2.178701           20.66626
        0.048000           2.434521           20.84738           2.230381           20.72896
        0.052000           2.496554           20.91069           2.284315           20.79199
        0.056000           2.561368           20.97397           2.340601           20.85536
        0.060000           2.629097           21.03707           2.399397           20.91903
        0.064000           2.699893           21.09997           2.460821           20.98281
        0.068000           2.773890           21.16244           2.525003           21.04678
        0.072000           2.851237           21.22441           2.592094           21.11077
        0.076000           2.932092           21.28562           2.662259           21.17472
        0.080000           3.016589           21.34593           2.735623           21.23857
        0.084000           3.104891           21.40515           2.812388           21.30203
        0.088000           3.197140           21.46297           2.892708           21.36508
        0.092000           3.293471           21.51921           2.976755           21.42753
        0.096000           3.394008           21.57343           3.064685           21.48912
        0.100000           3.498886           21.62545           3.156711           21.54973
        0.104000           3.608197           21.67488           3.253018           21.60908
        0.108000           3.722033           21.72127           3.353762           21.66687
        0.112000           3.840435           21.76423           3.459143           21.72274
        0.116000           3.963445           21.80335           3.569311           21.77655
        0.120000           4.091034           21.83805           3.684444           21.82768
        0.124000           4.223162           21.86785           3.804686           21.87590
        0.128000           4.359709           21.89220           3.930147           21.92068
        0.132000           4.500525           21.91052           4.060966           21.96146
        0.136000           4.645365           21.92220           4.197196           21.99772
        0.140000           4.793932           21.92667           4.338839           22.02883
        0.144000           4.945837           21.92328           4.485894           22.05414
        0.148000           5.100646           21.91144           4.638308           22.07292
        0.152000           5.257794           21.89058           4.795877           22.08441
        0.156000           5.416620           21.86014           4.958363           22.08790
        0.160000           5.576400           21.81953           5.125436           22.08236
        0.164000           5.736360           21.76839           5.296616           22.06704
        0.168000           5.895532           21.70627           5.471336           22.04099
        0.172000           6.053012           21.63288           5.648873           22.00348
        0.176000           6.207713           21.54804           5.828266           21.95346
        0.180000           6.358515           21.45161           6.008494           21.89016
        0.184000           6.504307           21.34356           6.188340           21.81292
        0.188000           6.643862           21.22413           6.366444           21.72114
        0.192000           6.775989           21.09358           6.541124           21.61417
        0.196000           6.899478           20.95225           6.710750           21.49196
        0.200000           7.013092           20.80079           6.873455           21.35427
        0.204000           7.115702           20.63994           7.027304           21.20149
        0.208000           7.206180           20.47054           7.170280           21.03406
        0.212000           7.283470           20.29368           7.300447           20.85277
        0.216000           7.346645           20.11049           7.415857           20.65896
        0.220000           7.394901           19.92237           7.514716           20.45386
        0.224000           7.427563           19.73077           7.595422           20.23948
        0.228000           7.444180           19.53726           7.656655           20.01785
        0.232000           7.444516           19.34349           7.697499           19.79130
        0.236000           7.428483           19.15121           7.717240           19.56227
        0.240000           7.396293           18.96209           7.715707           19.33328
        0.244000           7.348379           18.77774           7.693058           19.10697
        0.248000           7.285383           18.59989           7.649825           18.88577
        0.252000           7.208166           18.42998           7.587019           18.67205
        0.256000           7.117784           18.26930           7.505962           18.46790
        0.260000           7.015440           18.11909           7.408128           18.27527
        0.264000           6.902461           17.98027           7.295344           18.09558
        0.268000           6.780281           17.85364           7.169478           17.93010
        0.272000           6.650292           17.73969           7.032549           17.77968
        0.276000           6.514005           17.63885           6.886593           17.64496
        0.280000           6.372857           17.55120           6.733486           17.52613
        0.284000           6.228205           17.47673           6.575130           17.42314
        0.288000           6.081392           17.41524           6.413361           17.33589
        0.292000           5.933585           17.36638           6.249665           17.26377
        0.296000           5.785916           17.32970           6.085509           17.20634
        0.300000           5.639334           17.30467           5.922165           17.16277
        0.304000           5.494731           17.29066           5.760743           17.13238
        0.308000           5.352871           17.28702           5.602145           17.11415
        0.312000           5.214325           17.29308           5.447147           17.10734
        0.316000           5.079665           17.30808           5.296365           17.11104
        0.320000           4.949273           17.33139           5.150306           17.12432
        0.324000           4.823514           17.36226           5.009307           17.14642
        0.328000           4.702608           17.40007           4.873697           17.17642
        0.332000           4.586731           17.44418           4.743597           17.21368
        0.336000           4.476017           17.49395           4.619160           17.25736
        0.340000           4.370476           17.54889           4.500418           17.30693
        0.344000           4.270156           17.60843           4.387352           17.36163
        0.348000           4.175030           17.67205           4.279938           17.42094
        0.352000           4.085026           17.73936           4.178082           17.48440
        0.356000           4.000079           17.80995           4.081639           17.55152
        0.360000           3.920086           17.88339           3.990540           17.62184
        0.364000           3.844936           17.95942           3.904605           17.69501
        0.368000           3.774504           18.03771           3.823709           17.77068
        0.372000           3.708682           18.11797           3.747664           17.84853
        0.376000           3.647328           18.19998           3.676330           17.92836
        0.380000           3.590314           18.28351           3.609558           18.00980
        0.384000           3.537512           18.36832           3.547151           18.09271
        0.388000           3.488805           18.45432           3.489008           18.17697
        0.392000           3.444073           18.54129           3.434938           18.26224
        0.396000           3.403186           18.62912           3.384814           18.34849
        0.400000           3.366053           18.71769           3.338490           18.43561
        0.404000           3.332572           18.80686           3.295853           18.52342
        0.408000           3.302645           18.89655           3.256758           18.61182
        0.412000           3.276182           18.98670           3.221114           18.70083
        0.416000           3.253116           19.07719           3.188809           18.79019
        0.420000           3.233377           19.16794           3.159734           18.87991
        0.424000           3.216888           19.25891           3.133822           18.97008
        0.428000           3.203614           19.35002           3.110969           19.06039
        0.432000           3.193501           19.44122           3.091129           19.15104
        0.436000           3.186517           19.53242           3.074211           19.24180
        0.440000           3.182631           19.62360           3.060199           19.33269
        0.444000           3.181815           19.71470           3.048999           19.42380
        0.448000           3.184063           19.80563           3.040603           19.51494
        0.452000           3.189374           19.89637           3.034965           19.60612
        0.456000           3.197736           19.98682           3.032053           19.69737
        0.460000           3.209147           20.07693           3.031880           19.78859
        0.464000           3.223654           20.16662           3.034409           19.87985
        0.468000           3.241242           20.25579           3.039662           19.97097
        0.472000           3.261932           20.34436           3.047621           20.06209
        0.476000           3.285774           20.43221           3.058289           20.15305
        0.480000           3.312779           20.51928           3.071741           20.24382
        0.484000           3.342975           20.60535           3.087945           20.33446
        0.488000           3.376390           20.69040           3.106974           20.42482
        0.492000           3.413062           20.77419           3.128838           20.51485
        0.496000           3.452997           20.85653           3.153599           20.60464
        0.500000           3.496228           20.93731           3.181320           20.69386
        0.504000           3.542735           21.01631           3.212005           20.78262
        0.508000           3.592530           21.09325           3.245768           20.87075
        0.512000           3.645585           21.16792           3.282662           20.95819
        0.516000           3.701845           21.24006           3.322729           21.04482
        0.520000           3.761260           21.30939           3.366074           21.13049
        0.524000           3.823707           21.37564           3.412730           21.21503
        0.528000           3.889067           21.43844           3.462787           21.29828
        0.532000           3.957167           21.49755           3.516307           21.38006
        0.536000           4.027785           21.55255           3.573316           21.46020
        0.540000           4.100645           21.60318           3.633882           21.53836
        0.544000           4.175428           21.64913           3.698062           21.61443
        0.548000           4.251750           21.69007           3.765860           21.68803
        0.552000           4.329177           21.72576           3.837245           21.75880
        0.556000           4.407224           21.75596           3.912231           21.82659
        0.560000           4.485308           21.78047           3.990722           21.89086
        0.564000           4.562855           21.79923           4.072661           21.95130
        0.568000           4.639206           21.81218           4.157868           22.00755
        0.572000           4.713683           21.81938           4.246166           22.05905
        0.576000           4.785607           21.82095           4.337307           22.10560
        0.580000           4.854264           21.81721           4.430946           22.14653
        0.584000           4.919003           21.80846           4.526712           22.18151
        0.588000           4.979201           21.79526           4.624125           22.21012
        0.592000           5.034264           21.77814           4.722648           22.23199
        0.596000           5.083739           21.75783           4.821599           22.24678
        0.600000           5.127250           21.73506           4.920285           22.25427
        0.604000           5.164532           21.71067           5.017943           22.25422
        0.608000           5.195481           21.68553           5.113646           22.24648
        0.612000           5.220097           21.66048           5.206522           22.23124
        0.616000           5.238544           21.63638           5.295601           22.20850
        0.620000           5.251119           21.61413           5.379903           22.17874
        0.624000           5.258218           21.59438           5.458495           22.14239
        0.628000           5.260410           21.57789           5.530507           22.10011
        0.632000           5.258273           21.56516           5.595081           22.05275
        0.636000           5.252508           21.55666           5.651597           22.00128
        0.640000           5.243833           21.55274           5.699495           21.94667
        0.644000           5.233014           21.55359           5.738410           21.89020
        0.648000           5.220800           21.55927           5.768241           21.83300
        0.652000           5.207927           21.56986           5.788926           21.77648
        0.656000           5.195071           21.58513           5.800799           21.72172
        0.660000           5.182881           21.60483           5.804264           21.66997
        0.664000           5.171932           21.62865           5.799993           21.62229
        0.668000           5.162729           21.65623           5.788727           21.57957
        0.672000           5.155673           21.68718           5.771424           21.54257
        0.676000           5.151115           21.72097           5.749063           21.51202
        0.680000           5.149319           21.75718           5.722672           21.48823
        0.684000           5.150440           21.79525           5.693343           21.47146
        0.688000           5.154608           21.83471           5.662143           21.46192
        0.692000           5.161858           21.87511           5.630153           21.45933
        0.696000           5.172143           21.91599           5.598277           21.46368
        0.700000           5.185398           21.95694           5.567471           21.47458
        0.704000           5.201505           21.99751           5.538497           21.49148
        0.708000           5.220286           22.03740           5.512141           21.51399
        0.712000           5.241555           22.07627           5.488982           21.54146
        0.716000           5.265094           22.11389           5.469584           21.57313
        0.720000           5.290679           22.14992           5.454293           21.60839
        0.724000           5.318062           22.18421           5.443551           21.64650
        0.728000           5.346993           22.21655           5.437458           21.68670
        0.732000           5.377202           22.24681           5.436210           21.72824
        0.736000           5.408417           22.27483           5.439826           21.77043
        0.740000           5.440368           22.30046           5.448236           21.81235
        0.744000           5.472762           22.32371           5.461314           21.85350
        0.748000           5.505305           22.34441           5.478786           21.89293
        0.752000           5.537664           22.36257           5.500322           21.93015
        0.756000           5.569508           22.37816           5.525466           21.96445
        0.760000           5.600529           22.39129           5.553792           21.99532
        0.764000           5.630352           22.40196           5.584626           22.02220
        0.768000           5.658685           22.41036           5.617359           22.04468
        0.772000           5.685174           22.41666           5.651202           22.06248
        0.776000           5.709546           22.42109           5.685366           22.07537
        0.780000           5.731534           22.42393           5.719066           22.08319
        0.784000           5.750939           22.42550           5.751376           22.08603
        0.788000           5.767610           22.42619           5.781529           22.08415
        0.792000           5.781437           22.42632           5.808669           22.07781
        0.796000           5.792425           22.42633           5.832058           22.06742
        0.800000           5.800610           22.42652           5.850975           22.05359
        0.804000           5.806095           22.42729           5.864913           22.03717
        0.808000           5.809075           22.42898           5.873379           22.01883
        0.812000           5.809740           22.43178           5.876108           21.99949
        0.816000           5.808347           22.43593           5.872998           21.97998
        0.820000           5.805201           22.44160           5.864069           21.96124
        0.824000           5.800577           22.44882           5.849564           21.94417
        0.828000           5.794760           22.45766           5.829776           21.92950
        0.832000           5.787998           22.46799           5.805211           21.91799
        0.836000           5.780535           22.47978           5.776448           21.91007
        0.840000           5.772534           22.49282           5.744090           21.90639
        0.844000           5.764123           22.50694           5.708896           21.90721
        0.848000           5.755363           22.52188           5.671526           21.91260
        0.852000           5.746263           22.53753           5.632684           21.92263
        0.856000           5.736761           22.55357           5.593067           21.93735
        0.860000           5.726713           22.56988           5.553214           21.95641
        0.864000           5.715938           22.58631           5.513762           21.97965
        0.868000           5.704214           22.60274           5.475008           22.00664
        0.872000           5.691289           22.61913           5.437415           22.03695
        0.876000           5.676849           22.63548           5.401167           22.07028
        0.880000           5.660622           22.65185           5.366447           22.10594
        0.884000           5.642316           22.66848           5.333249           22.14371
        0.888000           5.621671           22.68553           5.301550           22.18307
        0.892000           5.598437           22.70328           5.271248           22.22355
        0.896000           5.572420           22.72208           5.242100           22.26494
        0.900000           5.543502           22.74233           5.213857           22.30695
        0.904000           5.511608           22.76446           5.186194           22.34933
        0.908000           5.476728           22.78889           5.158776           22.39208
        0.912000           5.438976           22.81610           5.131258           22.43511
        0.916000           5.398481           22.84649           5.103296           22.47848
        0.920000           5.355484           22.88050           5.074584           22.52241
        0.924000           5.310279           22.91852           5.044850           22.56706
        0.928000           5.263216           22.96087           5.013879           22.61271
        0.932000           5.214710           23.00784           4.981512           22.65977
        0.936000           5.165164           23.05965           4.947679           22.70850
        0.940000           5.115059           23.11643           4.912393           22.75935
        0.944000           5.064845           23.17827           4.875742           22.81260
        0.948000           5.014973           23.24520           4.837850           22.86865
        0.952000           4.965892           23.31718           4.798967           22.92780
        0.956000           4.918012           23.39409           4.759314           22.99042
        0.960000           4.871716           23.47577           4.719246           23.05645
        0.964000           4.827358           23.56209           4.679039           23.12629
        0.968000           4.785250           23.65285           4.639109           23.19998
        0.972000           4.745672           23.74782           4.599754           23.27747
        0.976000           4.708836           23.84678           4.561302           23.35897
        0.980000           4.674978           23.94939           4.524087           23.44417
        0.984000           4.644245           24.05557           4.488427           23.53314
        0.988000           4.616775           24.16495           4.454582           23.62578
        0.992000           4.592670           24.27739           4.422793           23.72181
        0.996000           4.572030           24.39260           4.393296           23.82124
        1.000000           4.554916           24.51037           4.366234           23.92371
        1.004000           4.541379           24.63062           4.341789           24.02921
        1.008000           4.531455           24.75303           4.320096           24.13741
        1.012000           4.525176           24.87741           4.301262           24.24819
        1.016000           4.522569           25.00371           4.285359           24.36150
        1.020000           4.523644           25.13177           4.272472           24.47700
        1.024000           4.528422           25.26139           4.262646           24.59459
        1.028000           4.536908           25.39244           4.255927           24.71422
        1.032000           4.549130           25.52485           4.252357           24.83550
        1.036000           4.565085           25.65849           4.251941           24.95859
        1.040000           4.584822           25.79324           4.254715           25.08323
        1.044000           4.608340           25.92905           4.260715           25.20938
        1.048000           4.635680           26.06572           4.269938           25.33682
        1.052000           4.666875           26.20326           4.282421           25.46552
        1.056000           4.701963           26.34152           4.298141           25.59541
        1.060000           4.740983           26.48036           4.317183           25.72648
        1.064000           4.783995           26.61984           4.339540           25.85860
        1.068000           4.831056           26.75968           4.365237           25.99157
        1.072000           4.882221           26.89982           4.394351           26.12553
        1.076000           4.937564           27.04019           4.426888           26.26020
        1.080000           4.997131           27.18057           4.462890           26.39572
        1.084000           5.061012           27.32096           4.502420           26.53187
        1.088000           5.129268           27.46111           4.545573           26.66864
        1.092000           5.201972           27.60079           4.592355           26.80602
        1.096000           5.279195           27.74000           4.642897           26.94365
        1.100000           5.360989           27.87844           4.697237           27.08175
        1.104000           5.447419           28.01588           4.755475           27.22019
        1.108000           5.538539           28.15217           4.817687           27.35872
        1.112000           5.634349           28.28705           4.883989           27.49724
        1.116000           5.734905           28.42026           4.954451           27.63572
        1.120000           5.840150           28.55151           5.029173           27.77392
        1.124000           5.950119           28.68054           5.108254           27.91175
        1.128000           6.064743           28.80713           5.191802           28.04903
        1.132000           6.183921           28.93091           5.279890           28.18551
        1.136000           6.307558           29.05161           5.372637           28.32108
        1.140000           6.435537           29.16897           5.470077           28.45536
        1.144000           6.567680           29.28268           5.572297           28.58822
        1.148000           6.703765           29.39255           5.679345           28.71945
        1.152000           6.843630           29.49828           5.791250           28.84857
        1.156000           6.986984           29.59969           5.908068           28.97540
        1.160000           7.133583           29.69658           6.029709           29.09963
        1.164000           7.283185           29.78879           6.156184           29.22085
        1.168000           7.435519           29.87626           6.287425           29.33884
        1.172000           7.590348           29.95889           6.423285           29.45333
        1.176000           7.747427           30.03654           6.563706           29.56362
        1.180000           7.906566           30.10919           6.708431           29.66962
        1.184000           8.067575           30.17688           6.857311           29.77116
        1.188000           8.230315           30.23946           7.010115           29.86755
        1.192000           8.394652           30.29687           7.166552           29.95877
        1.196000           8.560488           30.34902           7.326355           30.04445
        1.200000           8.727692           30.39577           7.489218           30.12445
        1.204000           8.896175           30.43685           7.654854           30.19837
        1.208000           9.065768           30.47211           7.822886           30.26617
        1.212000           9.236277           30.50117           7.993074           30.32751
        1.216000           9.407442           30.52371           8.165068           30.38244
        1.220000           9.578900           30.53941           8.338617           30.43067
        1.224000           9.750216           30.54792           8.513288           30.47184
        1.228000           9.920832           30.54881           8.688886           30.50601
        1.232000           10.09007           30.54189           8.865010           30.53279
        1.236000           10.25715           30.52691           9.041276           30.55197
        1.240000           10.42122           30.50370           9.217238           30.56320
        1.244000           10.58133           30.47237           9.392478           30.56629
        1.248000           10.73646           30.43306           9.566267           30.56085
        1.252000           10.88561           30.38612           9.737997           30.54677
        1.256000           11.02777           30.33204           9.906824           30.52373
        1.260000           11.16198           30.27158           10.07173           30.49154
        1.264000           11.28735           30.20565           10.23178           30.45013
        1.268000           11.40312           30.13523           10.38575           30.39992
        1.272000           11.50875           30.06152           10.53247           30.34087
        1.276000           11.60380           29.98580           10.67069           30.27378
        1.280000           11.68809           29.90948           10.79910           30.19918
        1.284000           11.76155           29.83397           10.91669           30.11826
        1.288000           11.82454           29.76057           11.02230           30.03210
        1.292000           11.87745           29.69073           11.11508           29.94230
        1.296000           11.92092           29.62559           11.19431           29.85038
        1.300000           11.95584           29.56638           11.25966           29.75805
        1.304000           11.98322           29.51407           11.31099           29.66735
        1.308000           12.00413           29.46944           11.34841           29.58003
        1.312000           12.01985           29.43309           11.37247           29.49783
        1.316000           12.03167           29.40543           11.38399           29.42266
        1.320000           12.04082           29.38669           11.38386           29.35616
        1.324000           12.04868           29.37680           11.37336           29.29961
        1.328000           12.05645           29.37568           11.35407           29.25431
        1.332000           12.06531           29.38287           11.32739           29.22123
        1.336000           12.07631           29.39778           11.29500           29.20111
        1.340000           12.09039           29.41989           11.25863           29.19434
        1.344000           12.10831           29.44823           11.21999           29.20125
        1.348000           12.13075           29.48209           11.18074           29.22187
        1.352000           12.15813           29.52046           11.14254           29.25608
        1.356000           12.19074           29.56247           11.10696           29.30338
        1.360000           12.22868           29.60713           11.07543           29.36340
        1.364000           12.27196           29.65362           11.04923           29.43532
        1.368000           12.32035           29.70110           11.02967           29.51848
        1.372000           12.37355           29.74886           11.01786           29.61188
        1.376000           12.43120           29.79634           11.01477           29.71472
        1.380000           12.49274           29.84299           11.02132           29.82582
        1.384000           12.55773           29.88863           11.03819           29.94408
        1.388000           12.62570           29.93300           11.06602           30.06847
        1.392000           12.69613           29.97601           11.10539           30.19786
        1.396000           12.76861           30.01776           11.15673           30.33088
        1.400000           12.84281           30.05848           11.22023           30.46645
        1.404000           12.91848           30.09832           11.29617           30.60343
        1.408000           12.99561           30.13754           11.38463           30.74037
        1.412000           13.07409           30.17649           11.48551           30.87622
        1.416000           13.15415           30.21525           11.59884           31.00966
        1.420000           13.23596           30.25413           11.72420           31.13964
        1.424000           13.31982           30.29323           11.86126           31.26494
        1.428000           13.40622           30.33242           12.00965           31.38434
        1.432000           13.49545           30.37167           12.16872           31.49668
        1.436000           13.58794           30.41071           12.33778           31.60113
        1.440000           13.68411           30.44911           12.51615           31.69659
        1.444000           13.78424           30.48648           12.70281           31.78224
        1.448000           13.88857           30.52213           12.89683           31.85727
        1.452000           13.99717           30.55543           13.09715           31.92108
        1.456000           14.11012           30.58558           13.30271           31.97307
        1.460000           14.22730           30.61189           13.51245           32.01297
        1.464000           14.34831           30.63351           13.72512           32.04027
        1.468000           14.47279           30.64975           13.93969           32.05494
        1.472000           14.60011           30.65984           14.15498           32.05694
        1.476000           14.72957           30.66324           14.37000           32.04618
        1.480000           14.86035           30.65939           14.58372           32.02283
        1.484000           14.99147           30.64787           14.79521           31.98697
        1.488000           15.12195           30.62842           15.00347           31.93887
        1.492000           15.25070           30.60106           15.20766           31.87856
        1.496000           15.37662           30.56572           15.40680           31.80644
        1.500000           15.49856           30.52277           15.59993           31.72244
        1.504000           15.61543           30.47250           15.78613           31.62708
        1.508000           15.72623           30.41557           15.96428           31.52046
        1.512000           15.82993           30.35274           16.13321           31.40301
        1.516000           15.92578           30.28485           16.29168           31.27524
        1.520000           16.01291           30.21308           16.43846           31.13787
        1.524000           16.09080           30.13846           16.57209           30.99177
        1.528000           16.15903           30.06239           16.69135           30.83809
        1.532000           16.21741           29.98612           16.79499           30.67842
        1.536000           16.26591           29.91112           16.88197           30.51421
        1.540000           16.30479           29.83876           16.95130           30.34753
        1.544000           16.33446           29.77040           17.00238           30.18057
        1.548000           16.35564           29.70735           17.03501           30.01588
        1.552000           16.36919           29.65085           17.04939           29.85566
        1.556000           16.37622           29.60187           17.04595           29.70259
        1.560000           16.37799           29.56130           17.02576           29.55898
        1.564000           16.37590           29.52964           16.99023           29.42719
        1.568000           16.37145           29.50744           16.94113           29.30911
        1.572000           16.36604           29.49467           16.88044           29.20657
        1.576000           16.36126           29.49127           16.81059           29.12079
        1.580000           16.35852           29.49678           16.73412           29.05279
        1.584000           16.35919           29.51066           16.65354           29.00319
        1.588000           16.36447           29.53203           16.57158           28.97196
        1.592000           16.37539           29.55984           16.49070           28.95889
        1.596000           16.39273           29.59299           16.41340           28.96338
        1.600000           16.41722           29.63024           16.34204           28.98436
        1.604000           16.44910           29.67016           16.27850           29.02061
        1.608000           16.48870           29.71152           16.22490           29.07067
        1.612000           16.53589           29.75299           16.18273           29.13279
        1.616000           16.59042           29.79330           16.15331           29.20506
        1.620000           16.65186           29.83123           16.13772           29.28558
        1.624000           16.71959           29.86569           16.13676           29.37212
        1.628000           16.79283           29.89579           16.15094           29.46268
        1.632000           16.87074           29.92064           16.18060           29.55499
        1.636000           16.95230           29.93961           16.22562           29.64689
        1.640000           17.03655           29.95234           16.28579           29.73620
        1.644000           17.12238           29.95841           16.36057           29.82089
        1.648000           17.20880           29.95766           16.44920           29.89886
        1.652000           17.29470           29.95008           16.55061           29.96816
        1.656000           17.37910           29.93587           16.66347           30.02695
        1.660000           17.46105           29.91511           16.78647           30.07357
        1.664000           17.53973           29.88827           16.91783           30.10658
        1.668000           17.61422           29.85574           17.05545           30.12458
        1.672000           17.68385           29.81795           17.19738           30.12655
        1.676000           17.74790           29.77542           17.34128           30.11159
        1.680000           17.80570           29.72879           17.48475           30.07932
        1.684000           17.85663           29.67860           17.62515           30.02950
        1.688000           17.90015           29.62557           17.75999           29.96217
        1.692000           17.93569           29.57042           17.88659           29.87797
        1.696000           17.96280           29.51394           18.00233           29.77767
        1.700000           17.98094           29.45698           18.10467           29.66265
        1.704000           17.98972           29.40057           18.19128           29.53458
        1.708000           17.98887           29.34577           18.26007           29.39537
        1.712000           17.97806           29.29380           18.30919           29.24752
        1.716000           17.95730           29.24579           18.33699           29.09367
        1.720000           17.92661           29.20318           18.34245           28.93666
        1.724000           17.88629           29.16736           18.32487           28.77974
        1.728000           17.83679           29.13981           18.28409           28.62577
        1.732000           17.77885           29.12185           18.22039           28.47831
        1.736000           17.71333           29.11486           18.13446           28.34030
        1.740000           17.64147           29.12006           18.02775           28.21467
        1.744000           17.56461           29.13855           17.90172           28.10408
        1.748000           17.48433           29.17119           17.75852           28.01103
        1.752000           17.40230           29.21873           17.60044           27.93752
        1.756000           17.32033           29.28142           17.43003           27.88508
        1.760000           17.24023           29.35953           17.24994           27.85505
        1.764000           17.16391           29.45289           17.06293           27.84811
        1.768000           17.09318           29.56115           16.87175           27.86478
        1.772000           17.02979           29.68362           16.67906           27.90493
        1.776000           16.97541           29.81951           16.48735           27.96834
        1.780000           16.93149           29.96776           16.29903           28.05427
        1.784000           16.89941           30.12712           16.11626           28.16203
        1.788000           16.88030           30.29623           15.94096           28.29045
        1.792000           16.87518           30.47366           15.77482           28.43835
        1.796000           16.88477           30.65769           15.61948           28.60454
        1.800000           16.90971           30.84678           15.47614           28.78746
        1.804000           16.95035           31.03923           15.34597           28.98591
        1.808000           17.00681           31.23330           15.22984           29.19822
        1.812000           17.07914           31.42735           15.12840           29.42300
        1.816000           17.16704           31.61966           15.04241           29.65893
        1.820000           17.27014           31.80861           14.97214           29.90464
        1.824000           17.38782           31.99268           14.91807           30.15874
        1.828000           17.51929           32.17039           14.88030           30.41999
        1.832000           17.66357           32.34040           14.85904           30.68712
        1.836000           17.81955           32.50154           14.85426           30.95886
        1.840000           17.98600           32.65276           14.86604           31.23416
        1.844000           18.16156           32.79319           14.89414           31.51194
        1.848000           18.34479           32.92221           14.93856           31.79112
        1.852000           18.53418           33.03942           14.99899           32.07076
        1.856000           18.72825           33.14444           15.07529           32.34993
        1.860000           18.92547           33.23742           15.16715           32.62756
        1.864000           19.12444           33.31858           15.27427           32.90306
        1.868000           19.32383           33.38813           15.39629           33.17544
        1.872000           19.52245           33.44680           15.53295           33.44415
        1.876000           19.71925           33.49525           15.68389           33.70834
        1.880000           19.91327           33.53417           15.84872           33.96734
        1.884000           20.10384           33.56455           16.02717           34.22044
        1.888000           20.29048           33.58722           16.21888           34.46706
        1.892000           20.47270           33.60299           16.42365           34.70660
        1.896000           20.65034           33.61271           16.64103           34.93826
        1.900000           20.82325           33.61713           16.87081           35.16149
        1.904000           20.99131           33.61695           17.11276           35.37550
        1.908000           21.15466           33.61271           17.36645           35.57932
        1.912000           21.31330           33.60499           17.63168           35.77224
        1.916000           21.46740           33.59425           17.90789           35.95339
        1.920000           21.61690           33.58069           18.19450           36.12148
        1.924000           21.76199           33.56478           18.49099           36.27547
        1.928000           21.90258           33.54671           18.79633           36.41430
        1.932000           22.03880           33.52671           19.10963           36.53680
        1.936000           22.17051           33.50510           19.42954           36.64182
        1.940000           22.29762           33.48207           19.75450           36.72818
        1.944000           22.42014           33.45785           20.08278           36.79504
        1.948000           22.53784           33.43275           20.41229           36.84155
        1.952000           22.65063           33.40717           20.74083           36.86739
        1.956000           22.75834           33.38144           21.06587           36.87215
        1.960000           22.86084           33.35595           21.38496           36.85612
        1.964000           22.95804           33.33122           21.69527           36.81993
        1.968000           23.04981           33.30783           21.99421           36.76461
        1.972000           23.13611           33.28639           22.27919           36.69158
        1.976000           23.21713           33.26750           22.54783           36.60283
        1.980000           23.29287           33.25193           22.79810           36.50085
        1.984000           23.36353           33.24027           23.02827           36.38834
        1.988000           23.42959           33.23336           23.23714           36.26847
        1.992000           23.49140           33.23185           23.42398           36.14421
        1.996000           23.54948           33.23635           23.58859           36.01930
        2.000000           23.60454           33.24752           23.73151           35.89663
        2.004000           23.65733           33.26587           23.85358           35.77991
        2.008000           23.70863           33.29181           23.95639           35.67167
        2.012000           23.75940           33.32565           24.04181           35.57486
        2.016000           23.81050           33.36762           24.11213           35.49157
        2.020000           23.86292           33.41784           24.16991           35.42341
        2.024000           23.91759           33.47616           24.21780           35.37196
        2.028000           23.97560           33.54254           24.25871           35.33800
        2.032000           24.03755           33.61664           24.29553           35.32167
        2.036000           24.10458           33.69808           24.33072           35.32315
        2.040000           24.17740           33.78643           24.36707           35.34184
        2.044000           24.25674           33.88113           24.40676           35.37707
        2.048000           24.34325           33.98155           24.45204           35.42775
        2.052000           24.43744           34.08703           24.50462           35.49242
        2.056000           24.53983           34.19683           24.56626           35.56984
        2.060000           24.65077           34.31021           24.63798           35.65830
        2.064000           24.77055           34.42646           24.72087           35.75618
        2.068000           24.89932           34.54488           24.81589           35.86182
        2.072000           25.03715           34.66475           24.92331           35.97347
        2.076000           25.18413           34.78540           25.04321           36.08966
        2.080000           25.34022           34.90633           25.17585           36.20872
        2.084000           25.50537           35.02686           25.32086           36.32929
        2.088000           25.67947           35.14667           25.47792           36.45011
        2.092000           25.86256           35.26529           25.64651           36.57003
        2.096000           26.05470           35.38233           25.82590           36.68807
        2.100000           26.25582           35.49749           26.01556           36.80371
        2.104000           26.46610           35.61032           26.21454           36.91642
        2.108000           26.68569           35.72050           26.42236           37.02593
        2.112000           26.91480           35.82759           26.63844           37.13183
        2.116000           27.15368           35.93095           26.86229           37.23446
        2.120000           27.40259           36.02996           27.09361           37.33393
        2.124000           27.66181           36.12386           27.33238           37.43041
        2.128000           27.93151           36.21169           27.57871           37.52425
        2.132000           28.21156           36.29250           27.83307           37.61554
        2.136000           28.50221           36.36514           28.09588           37.70423
        2.140000           28.80313           36.42838           28.36801           37.79031
        2.144000           29.11392           36.48104           28.65042           37.87330
        2.148000           29.43409           36.52190           28.94386           37.95259
        2.152000           29.76275           36.54961           29.24932           38.02705
        2.156000           30.09902           36.56305           29.56763           38.09557
        2.160000           30.44184           36.56116           29.89956           38.15639
        2.164000           30.78989           36.54299           30.24563           38.20778
        2.168000           31.14167           36.50771           30.60583           38.24734
        2.172000           31.49572           36.45462           30.98005           38.27307
        2.176000           31.85031           36.38328           31.36751           38.28248
        2.180000           32.20376           36.29342           31.76757           38.27315
        2.184000           32.55437           36.18490           32.17853           38.24251
        2.188000           32.90026           36.05779           32.59821           38.18837
        2.192000           33.23963           35.91241           33.02440           38.10875
        2.196000           33.57077           35.74920           33.45418           38.00181
        2.200000           33.89181           35.56886           33.88419           37.86626
        2.204000           34.20101           35.37222           34.31128           37.70144
        2.208000           34.49685           35.16040           34.73143           37.50690
        2.212000           34.77770           34.93456           35.14094           37.28307
        2.216000           35.04210           34.69621           35.53603           37.03092
        2.220000           35.28884           34.44722           35.91312           36.75210
        2.224000           35.51675           34.18915           36.26878           36.44862
        2.228000           35.72501           33.92418           36.60023           36.12313
        2.232000           35.91300           33.65425           36.90469           35.77885
        2.236000           36.08033           33.38161           37.18028           35.41898
        2.240000           36.22699           33.10849           37.42575           35.04731
        2.244000           36.35316           32.83715           37.64011           34.66729
        2.248000           36.45933           32.56956           37.82332           34.28259
        2.252000           36.54617           32.30784           37.97544           33.89667
        2.256000           36.61484           32.05379           38.09731           33.51259
        2.260000           36.66637           31.80919           38.18983           33.13324
        2.264000           36.70219           31.57543           38.25450           32.76111
        2.268000           36.72357           31.35388           38.29233           32.39828
        2.272000           36.73212           31.14548           38.30491           32.04678
        2.276000           36.72927           30.95122           38.29357           31.70803
        2.280000           36.71657           30.77173           38.25948           31.38347
        2.284000           36.69560           30.60758           38.20392           31.07461
        2.288000           36.66766           30.45928           38.12797           30.78279
        2.292000           36.63427           30.32702           38.03244           30.50925
        2.296000           36.59674           30.21116           37.91825           30.25557
        2.300000           36.55652           30.11181           37.78668           30.02343
        2.304000           36.51492           30.02914           37.63897           29.81471
        2.308000           36.47335           29.96325           37.47659           29.63113
        2.312000           36.43328           29.91399           37.30128           29.47460
        2.316000           36.39603           29.88145           37.11517           29.34720
        2.320000           36.36309           29.86531           36.92069           29.25051
        2.324000           36.33599           29.86521           36.72088           29.18619
        2.328000           36.31619           29.88076           36.51869           29.15541
        2.332000           36.30511           29.91133           36.31775           29.15909
        2.336000           36.30418           29.95607           36.12164           29.19772
        2.340000           36.31473           30.01412           35.93430           29.27116
        2.344000           36.33794           30.08443           35.75916           29.37896
        2.348000           36.37484           30.16582           35.60024           29.52002
        2.352000           36.42642           30.25699           35.46124           29.69303
        2.356000           36.49354           30.35663           35.34531           29.89593
        2.360000           36.57670           30.46337           35.25563           30.12658
        2.364000           36.67636           30.57591           35.19531           30.38236
        2.368000           36.79287           30.69283           35.16654           30.66033
        2.372000           36.92630           30.81294           35.17167           30.95738
        2.376000           37.07684           30.93500           35.21228           31.27058
        2.380000           37.24434           31.05796           35.29007           31.59615
        2.384000           37.42886           31.18085           35.40600           31.93104
        2.388000           37.63024           31.30274           35.56059           32.27174
        2.392000           37.84845           31.42285           35.75456           32.61490
        2.396000           38.08360           31.54048           35.98782           32.95713
        2.400000           38.33569           31.65490           36.26030           33.29534
        2.404000           38.60488           31.76548           36.57164           33.62638
        2.408000           38.89153           31.87140           36.92118           33.94726
        2.412000           39.19597           31.97201           37.30828           34.25513
        2.416000           39.51867           32.06627           37.73181           34.54720
        2.420000           39.86016           32.15308           38.19087           34.82095
        2.424000           40.22091           32.23135           38.68424           35.07386
        2.428000           40.60147           32.29951           39.21088           35.30344
        2.432000           41.00226           32.35605           39.76951           35.50745
        2.436000           41.42375           32.39901           40.35862           35.68348
        2.440000           41.86594           32.42628           40.97713           35.82935
        2.444000           42.32883           32.43573           41.62339           35.94254
        2.448000           42.81215           32.42482           42.29576           36.02079
        2.452000           43.31551           32.39099           42.99267           36.06165
        2.456000           43.83771           32.33155           43.71184           36.06249
        2.460000           44.37770           32.24382           44.45125           36.02108
        2.464000           44.93372           32.12509           45.20814           35.93460
        2.468000           45.50359           31.97271           45.97968           35.80109
        2.472000           46.08515           31.78428           46.76266           35.61793
        2.476000           46.67532           31.55743           47.55333           35.38330
        2.480000           47.27080           31.29034           48.34766           35.09547
        2.484000           47.86831           30.98120           49.14145           34.75340
        2.488000           48.46384           30.62893           49.92997           34.35596
        2.492000           49.05340           30.23275           50.70870           33.90303
        2.496000           49.63325           29.79225           51.47291           33.39478
        2.500000           50.19880           29.30771           52.21780           32.83205
        2.504000           50.74612           28.77966           52.93905           32.21578
        2.508000           51.27125           28.20927           53.63219           31.54823
        2.512000           51.77034           27.59781           54.29326           30.83088
        2.516000           52.23963           26.94738           54.91859           30.06626
        2.520000           52.67601           26.25979           55.50488           29.25683
        2.524000           53.07594           25.53741           56.04860           28.40492
        2.528000           53.43657           24.78280           56.54728           27.51330
        2.532000           53.75508           23.99862           56.99733           26.58458
        2.536000           54.02871           23.18785           57.39665           25.62159
        2.540000           54.25515           22.35327           57.74212           24.62692
        2.544000           54.43198           21.49828           58.03078           23.60375
        2.548000           54.55677           20.62628           58.25969           22.55522
        2.552000           54.62751           19.74105           58.42591           21.48504
        2.556000           54.64249           18.84656           58.52670           20.39742
        2.560000           54.59980           17.94727           58.55915           19.29700
        2.564000           54.49834           17.04761           58.52072           18.18864
        2.568000           54.33703           16.15262           58.40995           17.07819
        2.572000           54.11552           15.26754           58.22467           15.97187
        2.576000           53.83389           14.39777           57.96445           14.87627
        2.580000           53.49288           13.54893           57.62886           13.79841
        2.584000           53.09386           12.72647           57.21933           12.74518
        2.588000           52.63887           11.93596           56.73706           11.72369
        2.592000           52.13043           11.18282           56.18506           10.74104
        2.596000           51.57217           10.47208           55.56676           9.803807
        2.600000           50.96790           9.808570           54.88648           8.918234
        2.604000           50.32238           9.196503           54.14944           8.090038
        2.608000           49.64044           8.639532           53.36110           7.324043
        2.612000           48.92759           8.140767           52.52822           6.624519
        2.616000           48.18980           7.702646           51.65724           5.994864
        2.620000           47.43297           7.326800           50.75513           5.437607
        2.624000           46.66309           7.014212           49.82876           4.954460
        2.628000           45.88665           6.765102           48.88560           4.546247
        2.632000           45.10918           6.578950           47.93219           4.212974
        2.636000           44.33676           6.454591           46.97573           3.953912
        2.640000           43.57477           6.390267           46.02210           3.767664
        2.644000           42.82832           6.383647           45.07779           3.652186
        2.648000           42.10250           6.431878           44.14845           3.604899
        2.652000           41.40107           6.531748           43.23887           3.622751
        2.656000           40.72807           6.679716           42.35411           3.702339
        2.660000           40.08668           6.871969           41.49797           3.839972
        2.664000           39.47977           7.104532           40.67419           4.031732
        2.668000           38.90950           7.373277           39.88586           4.273551
        2.672000           38.37775           7.674058           39.13577           4.561286
        2.676000           37.88579           8.002739           38.42560           4.890842
        2.680000           37.43453           8.355241           37.75745           5.258050
        2.684000           37.02443           8.727458           37.13256           5.658831
        2.688000           36.65562           9.115541           36.55194           6.089212
        2.692000           36.32791           9.515672           36.01614           6.545304
        2.696000           36.04077           9.924233           35.52569           7.023273
        2.700000           35.79334           10.33782           35.08043           7.519629
        2.704000           35.58441           10.75317           34.68039           8.030778
        2.708000           35.41284           11.16725           34.32524           8.553375
        2.712000           35.27696           11.57720           34.01456           9.084139
        2.716000           35.17500           11.98035           33.74752           9.619876
        2.720000           35.10498           12.37440           33.52323           10.15769
        2.724000           35.06489           12.75722           33.34082           10.69458
        2.728000           35.05233           13.12685           33.19883           11.22777
        2.732000           35.06492           13.48177           33.09611           11.75453
        2.736000           35.10023           13.82061           33.03102           12.27226
        2.740000           35.15570           14.14239           33.00175           12.77848
        2.744000           35.22863           14.44641           33.00641           13.27096
        2.748000           35.31648           14.73233           33.04292           13.74751
        2.752000           35.41675           15.00007           33.10902           14.20613
        2.756000           35.52686           15.24989           33.20204           14.64509
        2.760000           35.64458           15.48237           33.31933           15.06287
        2.764000           35.76771           15.69836           33.45805           15.45840
        2.768000           35.89432           15.89890           33.61524           15.83071
        2.772000           36.02263           16.08530           33.78778           16.17942
        2.776000           36.15131           16.25902           33.97259           16.50443
        2.780000           36.27909           16.42151           34.16670           16.80595
        2.784000           36.40526           16.57444           34.36692           17.08486
        2.788000           36.52898           16.71943           34.57056           17.34227
        2.792000           36.65005           16.85806           34.77502           17.57963
        2.796000           36.76827           16.99187           34.97799           17.79903
        2.800000           36.88369           17.12229           35.17754           18.00255
        2.804000           36.99656           17.25074           35.37231           18.19251
        2.808000           37.10728           17.37837           35.56092           18.37158
        2.812000           37.21639           17.50644           35.74303           18.54241
        2.816000           37.32433           17.63590           35.91834           18.70759
        2.820000           37.43197           17.76764           36.08710           18.86963
        2.824000           37.54000           17.90251           36.25019           19.03094
        2.828000           37.64913           18.04119           36.40817           19.19361
        2.832000           37.76027           18.18435           36.56280           19.35956
        2.836000           37.87431           18.33253           36.71531           19.53041
        2.840000           37.99210           18.48623           36.86738           19.70731
        2.844000           38.11478           18.64581           37.02089           19.89132
        2.848000           38.24321           18.81170           37.17762           20.08308
        2.852000           38.37839           18.98420           37.33924           20.28304
        2.856000           38.52171           19.16358           37.50747           20.49158
        2.860000           38.67417           19.34996           37.68404           20.70865
        2.864000           38.83721           19.54345           37.87052           20.93428
        2.868000           39.01227           19.74399           38.06852           21.16832
        2.872000           39.20077           19.95144           38.27958           21.41052
        2.876000           39.40438           20.16543           38.50551           21.66073
        2.880000           39.62474           20.38544           38.74794           21.91856
        2.884000           39.86345           20.61073           39.00856           22.18344
        2.888000           40.12234           20.84040           39.28928           22.45491
        2.892000           40.40295           21.07316           39.59203           22.73204
        2.896000           40.70701           21.30764           39.91904           23.01381
        2.900000           41.03610           21.54216           40.27238           23.29892
        2.904000           41.39167           21.77475           40.65427           23.58574
        2.908000           41.77512           22.00337           41.06695           23.87212
        2.912000           42.18758           22.22555           41.51226           24.15582
        2.916000           42.62991           22.43873           41.99252           24.43371
        2.920000           43.10298           22.64010           42.50927           24.70275
        2.924000           43.60735           22.82671           43.06389           24.95926
        2.928000           44.14336           22.99537           43.65774           25.19911
        2.932000           44.71084           23.14278           44.29110           25.41802
        2.936000           45.30967           23.26542           44.96463           25.61139
        2.940000           45.93882           23.35963           45.67744           25.77399
        2.944000           46.59773           23.42171           46.42874           25.90104
        2.948000           47.28456           23.44782           47.21705           25.98708
        2.952000           47.99738           23.43407           48.03951           26.02705
        2.956000           48.73386           23.37658           48.89340           26.01568
        2.960000           49.49061           23.27163           49.77449           25.94817
        2.964000           50.26417           23.11557           50.67827           25.81981
        2.968000           51.05032           22.90511           51.59928           25.62655
        2.972000           51.84412           22.63732           52.53123           25.36474
        2.976000           52.64023           22.30975           53.46761           25.03159
        2.980000           53.43269           21.92058           54.40074           24.62506
        2.984000           54.21517           21.46872           55.32338           24.14401
        2.988000           54.98078           20.95389           56.22705           23.58851
        2.992000           55.72297           20.37667           57.10394           22.95932
        2.996000           56.43459           19.73861           57.94607           22.25859
        3.000000           57.10886           19.04224           58.74539           21.48941
        3.004000           57.73921           18.29105           59.49497           20.65583
        3.008000           58.31962           17.48949           60.18707           19.76333
        3.012000           58.84440           16.64271           60.81593           18.81744
        3.016000           59.30862           15.75679           61.37634           17.82522
        3.020000           59.70837           14.83837           61.86356           16.79397
        3.024000           60.04039           13.89472           62.27374           15.73165
        3.028000           60.30262           12.93340           62.60465           14.64651
        3.032000           60.49387           11.96228           62.85442           13.54723
        3.036000           60.61436           10.98905           63.02311           12.44228
        3.040000           60.66469           10.02158           63.11080           11.34029
        3.044000           60.64721           9.067382           63.11942           10.24969
        3.048000           60.56474           8.133533           63.05174           9.178568
        3.052000           60.42145           7.226628           62.91126           8.134520
        3.056000           60.22186           6.352572           62.70242           7.124755
        3.060000           59.97136           5.516342           62.43105           6.155384
        3.064000           59.67605           4.722188           62.10255           5.232058
        3.068000           59.34212           3.973428           61.72394           4.359500
        3.072000           58.97635           3.272390           61.30201           3.541432
        3.076000           58.58524           2.620477           60.84455           2.780716
        3.080000           58.17534           2.017961           60.35894           2.078987
        3.084000           57.75324           1.464408           59.85217           1.437094
        3.088000           57.32508           0.958484           59.33271           0.854866
        3.092000           56.89637           0.498088           58.80704           0.331169
        3.096000           56.47248           0.080436           58.28235          -0.135980
        3.100000           56.05773          -0.297807           57.76535          -0.549440
        3.104000           55.65631          -0.640543           57.26161          -0.912885
        3.108000           55.27143          -0.951900           56.77694          -1.230609
        3.112000           54.90567          -1.236439           56.31565          -1.507538
        3.116000           54.56091          -1.498812           55.88188          -1.749074
        3.120000           54.23834          -1.743692           55.47848          -1.961084
        3.124000           53.93847          -1.976014           55.10794          -2.149704
        3.128000           53.66112          -2.200309           54.77115          -2.321297
        3.132000           53.40526          -2.421200           54.46901          -2.482208
        3.136000           53.16957          -2.643001           54.20055          -2.638787
        3.140000           52.95171          -2.869643           53.96415          -2.797198
        3.144000           52.74929          -3.104723           53.75785          -2.963204
        3.148000           52.55890          -3.351385           53.57802          -3.142226
        3.152000           52.37679          -3.612197           53.42075          -3.339079
        3.156000           52.19899          -3.889102           53.28138          -3.557808
        3.160000           52.02106          -4.183293           53.15411          -3.801723
        3.164000           51.83844          -4.495325           53.03348          -4.073188
        3.168000           51.64648          -4.824830           52.91288          -4.373510
        3.172000           51.44061          -5.170791           52.78618          -4.703022
        3.176000           51.21637          -5.531147           52.64661          -5.060863
        3.180000           50.96963          -5.903255           52.48800          -5.445104
        3.184000           50.69677          -6.283584           52.30455          -5.852683
        3.188000           50.39497          -6.667994           52.09082          -6.279550
        3.192000           50.06189          -7.051953           51.84226          -6.720782
        3.196000           49.69610          -7.430420           51.55515          -7.170696
        3.200000           49.29715          -7.797997           51.22702          -7.622975
        3.204000           48.86537          -8.149468           50.85620          -8.070934
        3.208000           48.40195          -8.479549           50.44242          -8.507732
        3.212000           47.90931          -8.783209           49.98646          -8.926552
        3.216000           47.39026          -9.055976           49.49039          -9.320883
        3.220000           46.84844          -9.293726           48.95699          -9.684567
        3.224000           46.28830          -9.493162           48.39032          -10.01215
        3.228000           45.71463          -9.651632           47.79525          -10.29893
        3.232000           45.13240          -9.767295           47.17709          -10.54104
        3.236000           44.54698          -9.839150           46.54159          -10.73553
        3.240000           43.96362          -9.867013           45.89470          -10.88052
        3.244000           43.38748          -9.851488           45.24267          -10.97495
        3.248000           42.82348          -9.793835           44.59173          -11.01879
        3.252000           42.27621          -9.696116           43.94782          -11.01278
        3.256000           41.75010          -9.560944           43.31647          -10.95854
        3.260000           41.24855          -9.391214           42.70277          -10.85837
        3.264000           40.77506          -9.190486           42.11162          -10.71504
        3.268000           40.33190          -8.962457           41.54699          -10.53205
        3.272000           39.92142          -8.711157           41.01258          -10.31300
        3.276000           39.54495          -8.440603           40.51146          -10.06209
        3.280000           39.20343          -8.154935           40.04599          -9.783461
        3.284000           38.89718          -7.858235           39.61794          -9.481604
        3.288000           38.62600          -7.554460           39.22859          -9.160935
        3.292000           38.38932          -7.247454           38.87877          -8.825976
        3.296000           38.18595          -6.940673           38.56834          -8.481078
        3.300000           38.01435          -6.637585           38.29738          -8.130576
        3.304000           37.87272          -6.341044           38.06471          -7.778591
        3.308000           37.75880          -6.053688           37.86919          -7.429010
        3.312000           37.67014          -5.777683           37.70897          -7.085515
        3.316000           37.60419          -5.514818           37.58213          -6.751358
        3.320000           37.55819          -5.266448           37.48611          -6.429612
        3.324000           37.52940          -5.033487           37.41795          -6.122883
        3.328000           37.51497          -4.816344           37.37483          -5.833201
        3.332000           37.51226          -4.615029           37.35338          -5.562274
        3.336000           37.51883          -4.429227           37.35034          -5.311237
        3.340000           37.53231          -4.258214           37.36213          -5.080735
        3.344000           37.55067          -4.100896           37.38546          -4.870828
        3.348000           37.57223          -3.956007           37.41719          -4.681129
        3.352000           37.59552          -3.822014           37.45406          -4.510672
        3.356000           37.61960          -3.697276           37.49341          -4.358087
        3.360000           37.64386          -3.580116           37.53296          -4.221601
        3.364000           37.66794          -3.468863           37.57083          -4.099152
        3.368000           37.69206          -3.361845           37.60524          -3.988476
        3.372000           37.71656          -3.257630           37.63547          -3.887079
        3.376000           37.74229          -3.154922           37.66114          -3.792550
        3.380000           37.77010          -3.052729           37.68215          -3.702503
        3.384000           37.80126          -2.950319           37.69913          -3.614735
        3.388000           37.83704          -2.847289           37.71300          -3.527292
        3.392000           37.87874          -2.743528           37.72500          -3.438501
        3.396000           37.92771          -2.639312           37.73677          -3.347137
        3.400000           37.98526          -2.535148           37.74991          -3.252305
        3.404000           38.05238          -2.431921           37.76617          -3.153582
        3.408000           38.13005          -2.330621           37.78750          -3.050905
        3.412000           38.21886          -2.232491           37.81548          -2.944609
        3.416000           38.31927          -2.138930           37.85163          -2.835316
        3.420000           38.43139          -2.051223           37.89721          -2.723956
        3.424000           38.55522          -1.970839           37.95345          -2.611588
        3.428000           38.69037          -1.899100           38.02103          -2.499459
        3.432000           38.83630          -1.837231           38.10068          -2.388847
        3.436000           38.99232          -1.786350           38.19251          -2.280997
        3.440000           39.15768          -1.747458           38.29667          -2.177133
        3.444000           39.33141          -1.721286           38.41347          -2.078402
        3.448000           39.51273          -1.708573           38.54244          -1.985831
        3.452000           39.70064          -1.709796           38.68359          -1.900394
        3.456000           39.89436          -1.725446           38.83679          -1.822947
        3.460000           40.09297          -1.755925           39.00184          -1.754377
        3.464000           40.29579          -1.801522           39.17878          -1.695516
        3.468000           40.50208          -1.862584           39.36752          -1.647254
        3.472000           40.71101          -1.939500           39.56804          -1.610635
        3.476000           40.92202          -2.032688           39.78006          -1.586747
        3.480000           41.13422          -2.142534           40.00396          -1.576919
        3.484000           41.34688          -2.269547           40.23915          -1.582583
        3.488000           41.55919          -2.414236           40.48547          -1.605374
        3.492000           41.76998          -2.577079           40.74233          -1.647063
        3.496000           41.97819          -2.758645           41.00887          -1.709523
        3.500000           42.18271          -2.959333           41.28404          -1.794720
        3.504000           42.38196          -3.179581           41.56608          -1.904581
        3.508000           42.57453          -3.419715           41.85330          -2.041071
        3.512000           42.75875          -3.679912           42.14333          -2.205944
        3.516000           42.93284          -3.960243           42.43378          -2.400797
        3.520000           43.09498          -4.260593           42.72128          -2.626963
        3.524000           43.24301          -4.580683           43.00261          -2.885396
        3.528000           43.37500          -4.919970           43.27407          -3.176615
        3.532000           43.48875          -5.277658           43.53186          -3.500713
        3.536000           43.58189          -5.652793           43.77170          -3.857160
        3.540000           43.65252          -6.043938           43.98951          -4.244802
        3.544000           43.69816          -6.449439           44.18108          -4.661885
        3.548000           43.71691          -6.867041           44.34236          -5.105861
        3.552000           43.70673          -7.294452           44.46981          -5.573650
        3.556000           43.66630          -7.728740           44.55969          -6.061428
        3.560000           43.59385          -8.166736           44.60931          -6.564739
        3.564000           43.48888          -8.604874           44.61653          -7.078649
        3.568000           43.35096          -9.039347           44.57994          -7.597761
        3.572000           43.18019          -9.466235           44.49862          -8.116343
        3.576000           42.97757          -9.881682           44.37344          -8.628751
        3.580000           42.74454          -10.28176           44.20557          -9.129246
        3.584000           42.48335          -10.66273           43.99715          -9.612336
        3.588000           42.19678          -11.02142           43.75149          -10.07312
        3.592000           41.88800          -11.35495           43.47244          -10.50711
        3.596000           41.56112          -11.66107           43.16484          -10.91074
        3.600000           41.22005          -11.93828           42.83357          -11.28131
        3.604000           40.86915          -12.18576           42.48432          -11.61701
        3.608000           40.51276          -12.40340           42.12250          -11.91701
        3.612000           40.15517          -12.59193           41.75388          -12.18149
        3.616000           39.80042          -12.75274           41.38339          -12.41160
        3.620000           39.45221          -12.88791           41.01636          -12.60928
        3.624000           39.11362          -13.00008           40.65688          -12.77738
        3.628000           38.78742          -13.09240           40.30871          -12.91916
        3.632000           38.47550          -13.16830           39.97496          -13.03858
        3.636000           38.17919          -13.23160           39.65756          -13.13985
        3.640000           37.89904          -13.28608           39.35811          -13.22740
        3.644000           37.63486          -13.33560           39.07679          -13.30576
        3.648000           37.38585          -13.38382           38.81330          -13.37934
        3.652000           37.15033          -13.43417           38.56687          -13.45232
        3.656000           36.92625          -13.48969           38.33523          -13.52856
        3.660000           36.71081          -13.55290           38.11585          -13.61136
        3.664000           36.50091          -13.62562           37.90574          -13.70354
        3.668000           36.29307          -13.70917           37.70142          -13.80702
        3.672000           36.08355          -13.80410           37.49865          -13.92332
        3.676000           35.86870          -13.91010           37.29366          -14.05287
        3.680000           35.64489          -14.02630           37.08232          -14.19544
        3.684000           35.40879          -14.15079           36.86066          -14.34995
        3.688000           35.15734          -14.28141           36.62504          -14.51446
        3.692000           34.88816          -14.41500           36.37204          -14.68650
        3.696000           34.59927          -14.54832           36.09902          -14.86290
        3.700000           34.28967          -14.67757           35.80403          -15.04002
        3.704000           33.95889          -14.79880           35.48579          -15.21387
        3.708000           33.60728          -14.90819           35.14328          -15.38030
        3.712000           33.23582          -15.00183           34.77732          -15.53509
        3.716000           32.84627          -15.07626           34.38833          -15.67415
        3.720000           32.44104          -15.12827           33.97831          -15.79358
        3.724000           32.02291          -15.15517           33.54947          -15.89001
        3.728000           31.59507          -15.15495           33.10484          -15.96034
        3.732000           31.16103          -15.12596           32.64753          -16.00223
        3.736000           30.72432          -15.06729           32.18114          -16.01379
        3.740000           30.28867          -14.97864           31.70953          -15.99374
        3.744000           29.85760          -14.86017           31.23642          -15.94164
        3.748000           29.43450          -14.71260           30.76570          -15.85737
        3.752000           29.02264          -14.53718           30.30092          -15.74157
        3.756000           28.62473          -14.33538           29.84557          -15.59520
        3.760000           28.24347          -14.10913           29.40282          -15.41980
        3.764000           27.88097          -13.86057           28.97544          -15.21709
        3.768000           27.53919          -13.59198           28.56585          -14.98926
        3.772000           27.21962          -13.30589           28.17624          -14.73858
        3.776000           26.92339          -13.00474           27.80821          -14.46760
        3.780000           26.65125          -12.69111           27.46317          -14.17878
        3.784000           26.40380          -12.36749           27.14218          -13.87475
        3.788000           26.18120          -12.03639           26.84598          -13.55811
        3.792000           25.98336          -11.70022           26.57467          -13.23141
        3.796000           25.80998          -11.36122           26.32836          -12.89709
        3.800000           25.66045          -11.02154           26.10698          -12.55751
        3.804000           25.53411          -10.68319           25.90995          -12.21484
        3.808000           25.43000          -10.34803           25.73663          -11.87121
        3.812000           25.34706          -10.01771           25.58633          -11.52841
        3.816000           25.28414          -9.693695           25.45793          -11.18822
        3.820000           25.23999          -9.377334           25.35044          -10.85212
        3.824000           25.21331          -9.069669           25.26276          -10.52141
        3.828000           25.20270          -8.771694           25.19360          -10.19721
        3.832000           25.20686          -8.484184           25.14175          -9.880550
        3.836000           25.22440          -8.207702           25.10620          -9.572219
        3.840000           25.25405          -7.942937           25.08544          -9.272921
        3.844000           25.29437          -7.690127           25.07855          -8.983208
        3.848000           25.34417          -7.449610           25.08435          -8.703511
        3.852000           25.40212          -7.221562           25.10157          -8.434320
        3.856000           25.46694          -7.006132           25.12944          -8.175912
        3.860000           25.53741          -6.803307           25.16671          -7.928622
        3.864000           25.61224          -6.613050           25.21236          -7.692744
        3.868000           25.69019          -6.435131           25.26523          -7.468431
        3.872000           25.77003          -6.269297           25.32432          -7.255877
        3.876000           25.85047          -6.115114           25.38827          -7.055145
        3.880000           25.93032          -5.972095           25.45610          -6.866180
        3.884000           26.00832          -5.839441           25.52624          -6.688807
        3.888000           26.08347          -5.716366           25.59760          -6.522731
        3.892000           26.15473          -5.601774           25.66885          -6.367392
        3.896000           26.22120          -5.494521           25.73881          -6.222111
        3.900000           26.28221          -5.393253           25.80618          -6.086000
        3.904000           26.33731          -5.296512           25.87027          -5.957945
        3.908000           26.38611          -5.202875           25.92989          -5.836776
        3.912000           26.42863          -5.110683           25.98452          -5.721011
        3.916000           26.46504          -5.018353           26.03395          -5.609272
        3.920000           26.49581          -4.924342           26.07780          -5.499972
        3.924000           26.52169          -4.827142           26.11605          -5.391544
        3.928000           26.54356          -4.725375           26.14932          -5.282519
        3.932000           26.56276          -4.617850           26.17798          -5.171427
        3.936000           26.58061          -4.503507           26.20308          -5.056912
        3.940000           26.59876          -4.381470           26.22549          -4.937788
        3.944000           26.61882          -4.251299           26.24634          -4.812984
        3.948000           26.64271          -4.112597           26.26702          -4.681620
        3.952000           26.67231          -3.965395           26.28922          -4.543027
        3.956000           26.70959          -3.809998           26.31432          -4.396760
        3.960000           26.75636          -3.646956           26.34398          -4.242530
        3.964000           26.81455          -3.477233           26.38045          -4.080319
        3.968000           26.88580          -3.301944           26.42510          -3.910465
        3.972000           26.97173          -3.122510           26.48003          -3.733467
        3.976000           27.07373          -2.940761           26.54696          -3.550182
        3.980000           27.19298          -2.758482           26.62766          -3.361669
        3.984000           27.33040          -2.577854           26.72408          -3.169384
        3.988000           27.48659          -2.401081           26.83725          -2.974974
        3.992000           27.66190          -2.230590           26.96881          -2.780443
        3.996000           27.85636          -2.068865           27.11995          -2.587965
        4.000000           28.06966          -1.918361           27.29112          -2.400073
# 
# 01/07/2025 at 16:03 yambo @ unimi-XPS-8930 [start]
# 01/07/2025 at 16:04                        [end]
#  
# Timing   [Min/Max/Average]: 08s/08s/08s
#
# .-Input file  yambo.in
# | optics                           # [R] Linear Response optical properties
# | bss                              # [R] BSE solver
# | bse                              # [R][BSE] Bethe Salpeter Equation.
# | tddft                            # [R][K] Use TDDFT kernel
# | ElecTemp= 0.025861         eV    # Electronic Temperature
# | BoseTemp= 0.025861         eV    # Bosonic Temperature
# | #DegFix                        # Force the code to impose the energy levels to respect their degeneracy
# | FFTGvecs=  603             RL    # [FFT] Plane-waves
# | BS_nCPU_LinAlg_INV= 1            # [PARALLEL] CPUs for Linear Algebra (if -1 it is automatically set)
# | BS_nCPU_LinAlg_DIAGO= 1          # [PARALLEL] CPUs for Linear Algebra (if -1 it is automatically set)
# | X_Threads= 1                     # [OPENMP/X] Number of threads for response functions
# | DIP_Threads= 1                   # [OPENMP/X] Number of threads for dipoles
# | K_Threads= 1                     # [OPENMP/BSK] Number of threads for response functions
# | BSKmod= "ALDA"                   # [BSE] IP/Hartree/HF/ALDA/SEX/BSfxc
# | BSEmod= "resonant"               # [BSE] resonant/retarded/coupling
# | BSSmod= "d"                      # [BSS] (h)aydock/(d)iagonalization/(s)lepc/(i)nversion/(t)ddft`
# | DipComputed= "R V P [G-space]  M_spin" # [DIP] [default R P V; extra P2 Spin Orb]
# | BSENGexx= 1                RL    # [BSK] Exchange components
# | BSENGfxc= 1157             RL    # [BSK] Fxc components
# | % BSEQptR
# |  1 | 2 |                             # [BSK] Transferred momenta range
# | %
# | % BSEBands
# |   2 |  6 |                           # [BSK] Bands range
# | %
# | % BEnRange
# | -2.000000 | 4.000000 |         eV    # [BSS] Energy range
# | %
# | % BDmRange
# |  0.100000 | 0.100000 |         eV    # [BSS] Damping range
# | %
# | BEnSteps= 1501                   # [BSS] Energy steps
# | % BLongDir
# |  0.000000 | 1.000000 | 0.000000 |        # [BSS] [cc] Electric Field versor
# | %
# | BSEprop= " jdos magn"            # [BSS] Can be any among abs/jdos/kerr/asymm/anHAll/magn/dich/photolum/esrt
# | BSEdips= "none"                  # [BSS] Can be "trace/none" or "xy/xz/yz" to define off-diagonal rotation plane
# | #WRbsWF                        # [BSS] Write to disk excitonic the WFs
