#                                                           
#                                                           
# Y88b    /   e           e    e      888~~\    ,88~-_      
#  Y88b  /   d8b         d8b  d8b     888   |  d888   \     
#   Y88b/   /Y88b       d888bdY88b    888 _/  88888    |    
#    Y8Y   /  Y88b     / Y88Y Y888b   888  \  88888    |    
#     Y   /____Y88b   /   YY   Y888b  888   |  Y888   /     
#    /   /      Y88b /          Y888b 888__/    `88_-~      
#                                                           
#                                                           
#       Version 4.2.0 Revision 14239 Hash f1a5d3c           
#                     MPI+SLK Build                         
#               http://www.yambo-code.org                   
#
# Absorption @ Q(1) [q->0 direction] :0.1000E-4  0.000     0.000   
#
#
#
# - The Green`s function is Retarded -
# - Using the Length Gauge -
# - [r,Vnl] *is* included -
#
#
#  E/ev[1]    EPS-Im[2]  EPS-Re[3]
#
   0.50000    0.09937   14.59586
   0.51403    0.10252   14.61024
   0.52806    0.10569   14.62496
   0.54208    0.10888   14.64018
   0.55611    0.11209   14.65594
   0.57014    0.11533   14.67204
   0.58417    0.11859   14.68860
   0.59820    0.12187   14.70562
   0.61222    0.12518   14.72304
   0.62625    0.12852   14.74102
   0.64028    0.13188   14.75939
   0.65431    0.13528   14.77835
   0.66834    0.13870   14.79768
   0.68236    0.14216   14.81744
   0.69639    0.14565   14.83772
   0.71042    0.14917   14.85853
   0.72445    0.15272   14.87975
   0.73848    0.15631   14.90158
   0.75251    0.15994   14.92384
   0.76653    0.16360   14.94666
   0.78056    0.16731   14.96999
   0.79459    0.17105   14.99389
   0.80862    0.17483   15.01826
   0.82265    0.17866   15.04304
   0.83667    0.18253   15.06838
   0.85070    0.18645   15.09437
   0.86473    0.19041   15.12078
   0.87876    0.19442   15.14779
   0.89279    0.19848   15.17540
   0.90681    0.20259   15.20373
   0.92084    0.20675   15.23254
   0.93487    0.21097   15.26188
   0.94890    0.21524   15.29184
   0.96293    0.21957   15.32245
   0.97695    0.22396   15.35346
   0.99098    0.22840   15.38521
   1.00501    0.23291   15.41756
   1.01904    0.23749   15.45049
   1.03307    0.24213   15.48410
   1.04709    0.24684   15.51843
   1.06112    0.25161   15.55333
   1.07515    0.25646   15.58902
   1.08918    0.26139   15.62518
   1.10321    0.26638   15.66207
   1.11723    0.27146   15.69968
   1.13126    0.27662   15.73825
   1.14529    0.28186   15.77736
   1.15932    0.28719   15.81713
   1.17335    0.29261   15.85777
   1.18737    0.29812   15.89913
   1.20140    0.30372   15.94135
   1.21543    0.30942   15.98416
   1.22946    0.31521   16.02786
   1.24349    0.32111   16.07235
   1.25752    0.32712   16.11766
   1.27154    0.33324   16.16395
   1.28557    0.33947   16.21101
   1.29960    0.34582   16.25893
   1.31363    0.35228   16.30767
   1.32766    0.35887   16.35738
   1.34168    0.36559   16.40807
   1.35571    0.37244   16.45962
   1.36974    0.37943   16.51214
   1.38377    0.38656   16.56580
   1.39780    0.39384   16.62021
   1.41182    0.40126   16.67566
   1.42585    0.40885   16.73223
   1.43988    0.41659   16.78999
   1.45391    0.42450   16.84862
   1.46794    0.43258   16.90852
   1.48196    0.44085   16.96943
   1.49599    0.44929   17.03170
   1.51002    0.45793   17.09498
   1.52405    0.46677   17.15950
   1.53808    0.47582   17.22515
   1.55210    0.48508   17.29218
   1.56613    0.49456   17.36054
   1.58016    0.50427   17.43021
   1.59419    0.51422   17.50098
   1.60822    0.52441   17.57340
   1.62224    0.53487   17.64711
   1.63627    0.54559   17.72250
   1.65030    0.55659   17.79926
   1.66433    0.56788   17.87752
   1.67836    0.57948   17.95733
   1.69238    0.59138   18.03878
   1.70641    0.60361   18.12196
   1.72044    0.61618   18.20679
   1.73447    0.62911   18.29337
   1.74850    0.64241   18.38180
   1.76253    0.65610   18.47214
   1.77655    0.67019   18.56436
   1.79058    0.68470   18.65847
   1.80461    0.69966   18.75461
   1.81864    0.71508   18.85280
   1.83267    0.73098   18.95321
   1.84669    0.74738   19.05571
   1.86072    0.76431   19.16050
   1.87475    0.78180   19.26777
   1.88878    0.79989   19.37745
   1.90281    0.81858   19.48970
   1.91683    0.83792   19.60433
   1.93086    0.85794   19.72190
   1.94489    0.87868   19.84194
   1.95892    0.90017   19.96505
   1.97295    0.92245   20.09109
   1.98697    0.94558   20.22019
   2.00100    0.96960   20.35253
   2.01503    0.99454   20.48825
   2.02906    1.02048   20.62716
   2.04309    1.04748   20.76993
   2.05711    1.07561   20.91612
   2.07114    1.10492   21.06621
   2.08517    1.13548   21.22053
   2.09920    1.16740   21.37885
   2.11323    1.20074   21.54163
   2.12725    1.23563   21.70868
   2.14128    1.27214   21.88065
   2.15531    1.31041   22.05762
   2.16934    1.35055   22.23959
   2.18337    1.39270   22.42710
   2.19739    1.43702   22.62016
   2.21142    1.48366   22.81936
   2.22545    1.53283   23.02454
   2.23948    1.58470   23.23653
   2.25351    1.63952   23.45543
   2.26754    1.69753   23.68138
   2.28156    1.75900   23.91521
   2.29559    1.82425   24.15689
   2.30962    1.89361   24.40732
   2.32365    1.96748   24.66647
   2.33768    2.04629   24.93486
   2.35170    2.13052   25.21372
   2.36573    2.22074   25.50351
   2.37976    2.31758   25.80441
   2.39379    2.42174   26.11781
   2.40782    2.53404   26.44398
   2.42184    2.65541   26.78394
   2.43587    2.78694   27.13841
   2.44990    2.92984   27.50867
   2.46393    3.08558   27.89593
   2.47796    3.25582   28.30085
   2.49198    3.44252   28.72510
   2.50601    3.64798   29.17019
   2.52004    3.87492   29.63680
   2.53407    4.12651   30.12725
   2.54810    4.40660   30.64257
   2.56212    4.71973   31.18524
   2.57615    5.07137   31.75629
   2.59018    5.46810   32.35705
   2.60421    5.91791   32.98925
   2.61824    6.43057   33.65347
   2.63226    7.01776   34.34945
   2.64629    7.69399   35.07579
   2.66032    8.47666   35.82930
   2.67435    9.38703   36.60296
   2.68838   10.45046   37.38394
   2.70240   11.69669   38.15422
   2.71643   13.15946   38.88234
   2.73046   14.87457   39.52037
   2.74449   16.87464   39.99839
   2.75852   19.17982   40.21614
   2.77255   21.77998   40.03957
   2.78657   24.60757   39.30482
   2.80060   27.50629   37.84316
   2.81463   30.20762   35.53539
   2.82866   32.35023   32.39363
   2.84268   33.56591   28.63223
   2.85671   33.62117   24.66002
   2.87074   32.52826   20.96585
   2.88477   30.53877   17.94631
   2.89880   28.02661   15.79633
   2.91283   25.34891   14.51375
   2.92685   22.76569   13.97278
   2.94088   20.42616   14.00391
   2.95491   18.39268   14.44600
   2.96894   16.67387   15.16878
   2.98297   15.24992   16.07593
   2.99699   14.08964   17.10036
   3.01102   13.15970   18.19719
   3.02505   12.42943   19.33875
   3.03908   11.87270   20.50723
   3.05311   11.46822   21.69307
   3.06713   11.19965   22.89128
   3.08116   11.05478   24.09978
   3.09519   11.02572   25.31949
   3.10922   11.10814   26.55058
   3.12325   11.30127   27.79559
   3.13727   11.60741   29.05456
   3.15130   12.03261   30.32711
   3.16533   12.58571   31.61167
   3.17936   13.27876   32.90062
   3.19339   14.12590   34.18228
   3.20742   15.14183   35.43756
   3.22144   16.33901   36.63560
   3.23547   17.72079   37.73487
   3.24950   19.27373   38.68354
   3.26353   20.95595   39.42751
   3.27756   22.69034   39.92868
   3.29158   24.37238   40.19172
   3.30561   25.89944   40.28806
   3.31964   27.21957   40.34875
   3.33367   28.36600   40.52324
   3.34770   29.45143   40.92125
   3.36172   30.62441   41.57806
   3.37575   32.02300   42.46056
   3.38978   33.75196   43.49524
   3.40381   35.88650   44.59262
   3.41784   38.48557   45.65133
   3.43186   41.59331   46.54898
   3.44589   45.22276   47.13607
   3.45992   49.33720   47.24958
   3.47395   53.84305   46.74208
   3.48798   58.61686   45.51066
   3.50200   63.54531   43.48468
   3.51603   68.53859   40.57187
   3.53006   73.46236   36.60781
   3.54409   78.02565   31.39041
   3.55812   81.71730   24.83319
   3.57214   83.89619   17.16903
   3.58617   84.05242    9.03337
   3.60020   82.08746    1.32166
   3.61423   78.40314   -5.14068
   3.62826   73.73570   -9.88029
   3.64228   68.87289  -12.85256
   3.65631   64.44078  -14.33296
   3.67034   60.83081  -14.75705
   3.68437   58.21551  -14.59601
   3.69840   56.59473  -14.29427
   3.71243   55.82932  -14.23508
   3.72645   55.66306  -14.71105
   3.74048   55.75696  -15.88180
   3.75451   55.75810  -17.74045
   3.76854   55.38671  -20.13613
   3.78256   54.49029  -22.85409
   3.79659   53.01470  -25.69739
   3.81062   50.94185  -28.50362
   3.82465   48.26505  -31.09954
   3.83868   45.03318  -33.28091
   3.85271   41.39441  -34.85869
   3.86673   37.57839  -35.72985
   3.88076   33.82260  -35.90977
   3.89479   30.31208  -35.50285
   3.90882   27.15398  -34.65450
   3.92285   24.38796  -33.50667
   3.93687   22.00879  -32.17785
   3.95090   19.98716  -30.75870
   3.96493   18.28374  -29.31500
   3.97896   16.85674  -27.89441
   3.99299   15.66470  -26.53122
   4.00701   14.66595  -25.25122
   4.02104   13.81753  -24.06983
   4.03507   13.07527  -22.99175
   4.04910   12.39792  -22.00768
   4.06313   11.75413  -21.09479
   4.07715   11.12898  -20.22375
   4.09118   10.52382  -19.37012
   4.10521    9.94888  -18.51879
   4.11924    9.41473  -17.66762
   4.13327    8.92709  -16.81972
   4.14729    8.48602  -15.97850
   4.16132    8.08924  -15.14611
   4.17535    7.73463  -14.32166
   4.18938    7.42164  -13.50408
   4.20341    7.15086  -12.69316
   4.21744    6.92304  -11.88908
   4.23146    6.73840  -11.09321
   4.24549    6.59696  -10.30639
  4.259519   6.498506  -9.529709
  4.273548   6.443182  -8.764055
  4.287575   6.431421  -8.009651
  4.301603   6.464052  -7.268553
  4.315631   6.542051  -6.541883
  4.329659   6.666214  -5.831162
  4.343687   6.836965  -5.139218
  4.357715   7.054801  -4.466726
  4.371743   7.321581  -3.814003
  4.385772   7.642402  -3.181272
  4.399800   8.026168  -2.571738
  4.413828   8.484677  -1.995009
  4.427855   9.027524  -1.470150
  4.441884   9.657465  -1.024496
   4.45591   10.36366   -0.69074
   4.46994   11.11828   -0.49853
   4.48397   11.87882   -0.46339
   4.49800   12.59906   -0.57780
   4.51202   13.24669   -0.81262
   4.52605   13.81505   -1.13568
   4.54008   14.31457   -1.53289
   4.55411   14.74878   -2.01542
   4.56814   15.09180   -2.60279
   4.58216   15.28854   -3.29150
   4.59619   15.28134   -4.03367
   4.61022   15.04672   -4.74442
   4.62425   14.61388   -5.33610
   4.63828   14.05010   -5.75368
   4.65230   13.42839   -5.98470
   4.66633   12.80399   -6.04445
   4.68036   12.21105   -5.95497
   4.69439   11.67343   -5.73348
   4.70842   11.21461   -5.39479
   4.72244   10.86005   -4.95739
   4.73647   10.63382   -4.44739
   4.75050   10.55480   -3.89812
   4.76453   10.63439   -3.34992
   4.77856   10.87505   -2.84795
   4.79259   11.26758   -2.44300
   4.80661   11.78508   -2.19026
   4.82064   12.37509   -2.14213
   4.83467   12.95477   -2.33302
   4.84870   13.41791   -2.75693
   4.86273   13.66145   -3.34905
   4.87675   13.62565   -3.99140
   4.89078   13.32263   -4.54942
   4.90481   12.83105   -4.91948
   4.91884   12.26014   -5.05724
   4.93287   11.71212   -4.97375
   4.94689   11.26121   -4.71498
   4.96092   10.95089   -4.34101
   4.97495   10.79962   -3.91344
   4.98898   10.80633   -3.49105
   5.00301   10.95319   -3.12736
   5.01703   11.20512   -2.86769
   5.03106   11.51078   -2.74125
   5.04509   11.81024   -2.75222
   5.05912   12.05052   -2.87596
   5.07315   12.20228   -3.06897
   5.08717   12.26394   -3.28972
   5.10120   12.24802   -3.51454
   5.11523   12.16219   -3.73623
   5.12926   11.99985   -3.94867
   5.14329   11.74760   -4.13206
   5.15731   11.40127   -4.24924
   5.17134   10.97916   -4.25720
   5.18537   10.52233   -4.12404
   5.19940   10.08182   -3.84059
  5.213428   9.704393  -3.418834
  5.227456   9.424286  -2.884051
  5.241483   9.262996  -2.264791
  5.255512   9.232940  -1.588086
  5.269539   9.341883  -0.878429
  5.283567   9.596429  -0.157776
   5.29760   10.00365    0.55076
   5.31162   10.57064    1.22101
   5.32565   11.30302    1.82016
   5.33968   12.20075    2.30686
   5.35371   13.25208    2.63072
   5.36774   14.42480    2.73638
   5.38176   15.65948    2.57262
   5.39579   16.86682    2.11145
   5.40982   17.94110    1.36924
   5.42385   18.79138    0.41637
   5.43788   19.37566   -0.64049
   5.45190   19.71121   -1.69706
   5.46593   19.85631   -2.68307
   5.47996   19.88007   -3.56964
   5.49399   19.84748   -4.36075
   5.50802   19.80878   -5.08853
   5.52204   19.78698   -5.80871
   5.53607   19.76234   -6.58197
   5.55010   19.67339   -7.44311
   5.56413   19.44371   -8.37503
   5.57816   19.02223   -9.31184
   5.59219   18.40722  -10.17106
   5.60621   17.63780  -10.88764
   5.62024   16.76849  -11.42635
   5.63427   15.85340  -11.77249
   5.64830   14.94616  -11.92462
   5.66232   14.10064  -11.89685
   5.67635   13.36519  -11.72230
   5.69038   12.77174  -11.45082
   5.70441   12.32945  -11.13915
   5.71844   12.02411  -10.83981
   5.73246   11.82295  -10.59002
   5.74649   11.68585  -10.40568
   5.76052   11.57838  -10.28136
   5.77455   11.48186  -10.20039
   5.78858   11.39462  -10.14797
   5.80261   11.32346  -10.12075
   5.81663   11.27359  -10.12894
   5.83066   11.23738  -10.19192
   5.84469   11.18896  -10.32608
   5.85872   11.08803  -10.52973
   5.87275   10.89558  -10.77436
   5.88677   10.59398  -11.00960
   5.90080   10.19590  -11.18173
   5.91483    9.73974  -11.25291
   5.92886    9.27357  -11.20987
   5.94289    8.84216  -11.06106
   5.95691    8.47979  -10.83016
   5.97094    8.20790  -10.54939
   5.98497    8.03436  -10.25489
  5.998999   7.953430  -9.982255
  6.013027   7.945975  -9.762166
  6.027055   7.981794  -9.614604
  6.041083   8.025455  -9.543157
  6.055111   8.045389  -9.534675
  6.069139   8.023118  -9.564201
  6.083167   7.955464  -9.604582
  6.097195   7.851624  -9.635345
  6.111223   7.725347  -9.645329
  6.125251   7.589187  -9.630837
  6.139279   7.453568  -9.590005
  6.153307   7.329638  -9.521880
  6.167335   7.232835  -9.429025
  6.181363   7.179594  -9.323757
  6.195391   7.180785  -9.228742
  6.209419   7.234027  -9.173588
  6.223447   7.320154  -9.186567
  6.237475   7.405209  -9.284144
  6.251503   7.448798  -9.463334
  6.265532   7.415266  -9.701424
  6.279560   7.283967  -9.960181
   6.29359    7.05433  -10.19608
   6.30762    6.74616  -10.37059
   6.32164    6.39417  -10.45983
   6.33567    6.03787  -10.45929
   6.34970    5.71151  -10.38169
   6.36373    5.43749  -10.25193
   6.37776    5.22496  -10.09784
  6.391785   5.071104  -9.946330
  6.405812   4.963638  -9.818481
  6.419840   4.883895  -9.727927
  6.433868   4.810745  -9.679126
  6.447896   4.724078  -9.667031
  6.461924   4.608722  -9.678524
  6.475952   4.457907  -9.695708
  6.489980   4.275158  -9.700684
  6.504008   4.071971  -9.682025
  6.518036   3.861614  -9.637441
  6.532064   3.652994  -9.571722
  6.546093   3.448276  -9.491116
  6.560121   3.245404  -9.398395
  6.574149   3.042402  -9.291780
  6.588177   2.840746  -9.167478
  6.602205   2.645237  -9.023358
  6.616233   2.461564  -8.860223
  6.630261   2.294193  -8.681509
  6.644289   2.145476  -8.491972
  6.658318   2.015730  -8.295831
  6.672345   1.904050  -8.096643
  6.686373   1.808967  -7.896871
  6.700401   1.728783  -7.698299
  6.714429   1.661955  -7.501966
  6.728457   1.607170  -7.308216
  6.742485   1.563355  -7.117308
  6.756513   1.529734  -6.929268
  6.770541   1.505819  -6.743869
  6.784570   1.491406  -6.561023
  6.798598   1.486568  -6.380398
  6.812625   1.491617  -6.201950
  6.826653   1.507215  -6.025776
  6.840682   1.534298  -5.852056
  6.854710   1.574103  -5.681204
  6.868738   1.628149  -5.514546
  6.882765   1.698180  -5.353754
  6.896793   1.785911  -5.201722
  6.910821   1.892725  -5.062432
  6.924850   2.018910  -4.941563
  6.938878   2.162809  -4.845946
  6.952906   2.319902  -4.782670
  6.966934   2.482246  -4.757868
  6.980961   2.639171  -4.774849
  6.994990   2.778864  -4.833258
  7.009018   2.889568  -4.929282
  7.023046   2.959682  -5.055666
  7.037075   2.978337  -5.200943
  7.051103   2.938620  -5.346791
  7.065130   2.842474  -5.471640
  7.079159   2.702450  -5.556261
  7.093187   2.537949  -5.590411
  7.107215   2.368604  -5.573829
  7.121243   2.209571  -5.513258
  7.135271   2.070059  -5.418325
  7.149299   1.954440  -5.298565
  7.163327   1.864044  -5.161797
  7.177355   1.798561  -5.014084
  7.191382   1.757296  -4.859851
  7.205410   1.739552  -4.702532
  7.219439   1.745042  -4.545087
  7.233468   1.773918  -4.390312
  7.247495   1.826724  -4.241258
  7.261524   1.904143  -4.102234
  7.275551   2.006410  -3.978522
  7.289579   2.132569  -3.877123
  7.303607   2.279046  -3.806201
  7.317635   2.438518  -3.774360
  7.331663   2.598830  -3.788093
  7.345691   2.743615  -3.849088
  7.359719   2.855029  -3.950788
  7.373747   2.918780  -4.077632
  7.387774   2.930087  -4.207789
  7.401803   2.896150  -4.320364
  7.415831   2.833180  -4.402388
  7.429860   2.759038  -4.452042
  7.443887   2.686949  -4.476330
  7.457915   2.622257  -4.485622
  7.471943   2.563208  -4.488513
  7.485972   2.503795  -4.488710
  7.500000   2.438331  -4.483443
# 
# 01/26/2017 at 16:21 YAMBO @ narro [start]
# 01/26/2017 at 16:21               [end]
#  
# Timing   [Min/Max/Average]: 01s/01s/01s
#
# .-Input file : yambo.in
# | optics                       # [R OPT] Optics
# | bse                          # [R BSE] Bethe Salpeter Equation.
# | BoseTemp= 0.000000     eV    # Bosonic Temperature
# | FFTGvecs=  411         RL    # [FFT] Plane-waves
# | BSEmod= "retarded"           # [BSE] resonant/retarded/coupling
# | BSKmod= "IP"                 # [BSE] IP/Hartree/HF/ALDA/SEX/BSfxc
# | MetDamp                      # [BSE] Define \w+=sqrt(\w*(\w+i\eta))
# | % BEnRange
# |  0.500000 | 7.500000 | eV    # [BSS] Energy range
# | %
# | % BDmRange
# |   0.10000 |  0.10000 | eV    # [BSS] Damping range
# | %
# | BEnSteps=  500               # [BSS] Energy steps
# | % BLongDir
# | 0.1000E-4 | 0.000    | 0.000    |        # [BSS] [cc] Electric Field
# | %
# | % BSEBands
# |    1 |  32 |                 # [BSK] Bands range
# | %
