#                                                           
#  /$$     /$$ /$$$$$$  /$$      /$$ /$$$$$$$   /$$$$$$     
# |  $$   /$$//$$__  $$| $$$    /$$$| $$__  $$ /$$__  $$    
#  \  $$ /$$/| $$  \ $$| $$$$  /$$$$| $$  \ $$| $$  \ $$    
#   \  $$$$/ | $$$$$$$$| $$ $$/$$ $$| $$$$$$$ | $$  | $$    
#    \  $$/  | $$__  $$| $$  $$$| $$| $$__  $$| $$  | $$    
#     | $$   | $$  | $$| $$\  $ | $$| $$  \ $$| $$  | $$    
#     | $$   | $$  | $$| $$ \/  | $$| $$$$$$$/|  $$$$$$/    
#     |__/   |__/  |__/|__/     |__/|_______/  \______/     
#                                                           
#       Version 4.3.0 Revision 15175 Hash b232d18           
#                  MPI+SLK+OpenMP Build                     
#               http://www.yambo-code.org                   
#
# EELS @ Q(1)  [q->0 direction]:0.5774E-5 0.5774E-5 0.5774E-5
#
#
# - Energies      are  Analyt. E
# - Wavefunctions are Teter 93(XC)
#
# - The Green`s function is Retarded -
# - Using the Length Gauge -
# - [r,Vnl] *is* included -
#
#   BSK|Identifier              :4022
#      |Dimension               :32
#      |Bands                   :7 - 10
#      |Exchange           [res]: yes
#      |Correlation        [res]: yes
#      |Kernel`s coupling       : no
#      |Exchange           [cpl]: no
#      |Correlation        [cpl]: no
#      |W interaction is bare   : no
#      |ALDA kernel in R-space  : no
#      |RL vectors    [exchange]:51
#      |RL vectors [correlation]:51
#      |E/h energy range    [ev]:-1.000000 - -1.000000
#      |Coupling range     [o/o]: 100.0000 -  100.0000
#    W |Interaction is diagonal : no
#      |Matrix size             :51
#      |Bands                   :1 - 60
#      |e/h energy range    [ev]:-1.000000 - -1.000000
#      |Poles              [o/o]: 100.0000
#      |RL vectors in the sum   :3473
#      |[r,Vnl] included        : yes
#      |Field direction         :0.1000E-4  0.000000  0.000000
#      |Coulomb Cutoff          :none
#      |xc-Kernel               :none
#   RIM|RL components      [col]:0
#      |Random points      [col]:0
#
#    E/ev[1]      EEL-Im[2]    EEL-Re[3]    EELo-Im[4]   EELo-Re[5]
#
    4.000       0.1153E-2    -.8371E-1    0.6161E-3    -.1798   
    4.010       0.1157E-2    -.8324E-1    0.6180E-3    -.1796   
    4.020       0.1161E-2    -.8278E-1    0.6199E-3    -.1793   
    4.030       0.1166E-2    -.8231E-1    0.6219E-3    -.1791   
    4.040       0.1170E-2    -.8184E-1    0.6238E-3    -.1788   
    4.050       0.1174E-2    -.8137E-1    0.6258E-3    -.1786   
    4.060       0.1179E-2    -.8090E-1    0.6277E-3    -.1783   
    4.070       0.1183E-2    -.8043E-1    0.6297E-3    -.1781   
    4.080       0.1187E-2    -.7995E-1    0.6316E-3    -.1778   
    4.090       0.1192E-2    -.7948E-1    0.6336E-3    -.1775   
    4.100       0.1196E-2    -.7900E-1    0.6356E-3    -.1773   
    4.110       0.1200E-2    -.7852E-1    0.6375E-3    -.1770   
    4.120       0.1205E-2    -.7803E-1    0.6395E-3    -.1768   
    4.130       0.1209E-2    -.7755E-1    0.6415E-3    -.1765   
    4.140       0.1214E-2    -.7707E-1    0.6434E-3    -.1763   
    4.150       0.1218E-2    -.7658E-1    0.6454E-3    -.1760   
    4.160       0.1222E-2    -.7609E-1    0.6474E-3    -.1757   
    4.170       0.1227E-2    -.7560E-1    0.6494E-3    -.1755   
    4.180       0.1231E-2    -.7510E-1    0.6514E-3    -.1752   
    4.190       0.1236E-2    -.7461E-1    0.6534E-3    -.1750   
    4.201       0.1240E-2    -.7411E-1    0.6554E-3    -.1747   
    4.211       0.1245E-2    -.7361E-1    0.6574E-3    -.1744   
    4.221       0.1249E-2    -.7311E-1    0.6594E-3    -.1742   
    4.231       0.1254E-2    -.7261E-1    0.6614E-3    -.1739   
    4.241       0.1259E-2    -.7211E-1    0.6634E-3    -.1736   
    4.251       0.1263E-2    -.7160E-1    0.6654E-3    -.1734   
    4.261       0.1268E-2    -.7110E-1    0.6675E-3    -.1731   
    4.271       0.1272E-2    -.7059E-1    0.6695E-3    -.1728   
    4.281       0.1277E-2    -.7008E-1    0.6715E-3    -.1726   
    4.291       0.1282E-2    -.6956E-1    0.6736E-3    -.1723   
    4.301       0.1286E-2    -.6905E-1    0.6756E-3    -.1720   
    4.311       0.1291E-2    -.6853E-1    0.6776E-3    -.1718   
    4.321       0.1296E-2    -.6801E-1    0.6797E-3    -.1715   
    4.331       0.1300E-2    -.6749E-1    0.6817E-3    -.1712   
    4.341       0.1305E-2    -.6697E-1    0.6838E-3    -.1709   
    4.351       0.1310E-2    -.6645E-1    0.6858E-3    -.1707   
    4.361       0.1315E-2    -.6592E-1    0.6879E-3    -.1704   
    4.371       0.1319E-2    -.6539E-1    0.6900E-3    -.1701   
    4.381       0.1324E-2    -.6486E-1    0.6920E-3    -.1698   
    4.391       0.1329E-2    -.6433E-1    0.6941E-3    -.1696   
    4.401       0.1334E-2    -.6379E-1    0.6962E-3    -.1693   
    4.411       0.1339E-2    -.6326E-1    0.6983E-3    -.1690   
    4.421       0.1344E-2    -.6272E-1    0.7004E-3    -.1687   
    4.431       0.1349E-2    -.6218E-1    0.7024E-3    -.1684   
    4.441       0.1353E-2    -.6164E-1    0.7045E-3    -.1682   
    4.451       0.1358E-2    -.6110E-1    0.7066E-3    -.1679   
    4.461       0.1363E-2    -.6055E-1    0.7087E-3    -.1676   
    4.471       0.1368E-2    -.6000E-1    0.7108E-3    -.1673   
    4.481       0.1373E-2    -.5945E-1    0.7129E-3    -.1670   
    4.491       0.1378E-2    -.5890E-1    0.7151E-3    -.1667   
    4.501       0.1383E-2    -.5835E-1    0.7172E-3    -.1664   
    4.511       0.1388E-2    -.5779E-1    0.7193E-3    -.1662   
    4.521       0.1393E-2    -.5723E-1    0.7214E-3    -.1659   
    4.531       0.1399E-2    -.5667E-1    0.7236E-3    -.1656   
    4.541       0.1404E-2    -.5611E-1    0.7257E-3    -.1653   
    4.551       0.1409E-2    -.5555E-1    0.7278E-3    -.1650   
    4.561       0.1414E-2    -.5498E-1    0.7300E-3    -.1647   
    4.571       0.1419E-2    -.5441E-1    0.7321E-3    -.1644   
    4.581       0.1424E-2    -.5384E-1    0.7343E-3    -.1641   
    4.591       0.1429E-2    -.5327E-1    0.7364E-3    -.1638   
    4.602       0.1435E-2    -.5270E-1    0.7386E-3    -.1635   
    4.612       0.1440E-2    -.5212E-1    0.7407E-3    -.1632   
    4.622       0.1445E-2    -.5154E-1    0.7429E-3    -.1629   
    4.632       0.1450E-2    -.5096E-1    0.7451E-3    -.1626   
    4.642       0.1456E-2    -.5038E-1    0.7473E-3    -.1623   
    4.652       0.1461E-2    -.4980E-1    0.7494E-3    -.1620   
    4.662       0.1466E-2    -.4921E-1    0.7516E-3    -.1617   
    4.672       0.1472E-2    -.4862E-1    0.7538E-3    -.1614   
    4.682       0.1477E-2    -.4803E-1    0.7560E-3    -.1611   
    4.692       0.1483E-2    -.4743E-1    0.7582E-3    -.1608   
    4.702       0.1488E-2    -.4684E-1    0.7604E-3    -.1605   
    4.712       0.1494E-2    -.4624E-1    0.7626E-3    -.1602   
    4.722       0.1499E-2    -.4564E-1    0.7649E-3    -.1599   
    4.732       0.1505E-2    -.4504E-1    0.7671E-3    -.1596   
    4.742       0.1510E-2    -.4443E-1    0.7693E-3    -.1593   
    4.752       0.1516E-2    -.4383E-1    0.7715E-3    -.1590   
    4.762       0.1521E-2    -.4322E-1    0.7738E-3    -.1587   
    4.772       0.1527E-2    -.4261E-1    0.7760E-3    -.1584   
    4.782       0.1533E-2    -.4199E-1    0.7782E-3    -.1581   
    4.792       0.1538E-2    -.4138E-1    0.7805E-3    -.1577   
    4.802       0.1544E-2    -.4076E-1    0.7827E-3    -.1574   
    4.812       0.1550E-2    -.4014E-1    0.7850E-3    -.1571   
    4.822       0.1556E-2    -.3952E-1    0.7872E-3    -.1568   
    4.832       0.1561E-2    -.3889E-1    0.7895E-3    -.1565   
    4.842       0.1567E-2    -.3827E-1    0.7918E-3    -.1562   
    4.852       0.1573E-2    -.3764E-1    0.7941E-3    -.1559   
    4.862       0.1579E-2    -.3700E-1    0.7963E-3    -.1555   
    4.872       0.1586E-2    -.3637E-1    0.7986E-3    -.1552   
    4.882       0.1592E-2    -.3573E-1    0.8009E-3    -.1549   
    4.892       0.1599E-2    -.3509E-1    0.8032E-3    -.1546   
    4.902       0.1606E-2    -.3445E-1    0.8055E-3    -.1542   
    4.912       0.1614E-2    -.3381E-1    0.8078E-3    -.1539   
    4.922       0.1622E-2    -.3317E-1    0.8101E-3    -.1536   
    4.932       0.1627E-2    -.3252E-1    0.8125E-3    -.1533   
    4.942       0.1631E-2    -.3187E-1    0.8148E-3    -.1529   
    4.952       0.1636E-2    -.3122E-1    0.8171E-3    -.1526   
    4.962       0.1641E-2    -.3056E-1    0.8194E-3    -.1523   
    4.972       0.1646E-2    -.2990E-1    0.8218E-3    -.1520   
    4.982       0.1652E-2    -.2924E-1    0.8241E-3    -.1516   
    4.992       0.1658E-2    -.2858E-1    0.8265E-3    -.1513   
    5.003       0.1664E-2    -.2791E-1    0.8288E-3    -.1510   
    5.013       0.1670E-2    -.2725E-1    0.8312E-3    -.1506   
    5.023       0.1676E-2    -.2657E-1    0.8335E-3    -.1503   
    5.033       0.1682E-2    -.2590E-1    0.8359E-3    -.1500   
    5.043       0.1688E-2    -.2523E-1    0.8383E-3    -.1496   
    5.053       0.1695E-2    -.2455E-1    0.8407E-3    -.1493   
    5.063       0.1701E-2    -.2387E-1    0.8430E-3    -.1490   
    5.073       0.1708E-2    -.2318E-1    0.8454E-3    -.1486   
    5.083       0.1714E-2    -.2250E-1    0.8478E-3    -.1483   
    5.093       0.1721E-2    -.2181E-1    0.8502E-3    -.1479   
    5.103       0.1727E-2    -.2112E-1    0.8526E-3    -.1476   
    5.113       0.1734E-2    -.2042E-1    0.8550E-3    -.1473   
    5.123       0.1740E-2    -.1973E-1    0.8575E-3    -.1469   
    5.133       0.1747E-2    -.1903E-1    0.8599E-3    -.1466   
    5.143       0.1754E-2    -.1833E-1    0.8623E-3    -.1462   
    5.153       0.1760E-2    -.1762E-1    0.8648E-3    -.1459   
    5.163       0.1767E-2    -.1691E-1    0.8672E-3    -.1455   
    5.173       0.1774E-2    -.1620E-1    0.8696E-3    -.1452   
    5.183       0.1781E-2    -.1549E-1    0.8721E-3    -.1448   
    5.193       0.1788E-2    -.1478E-1    0.8746E-3    -.1445   
    5.203       0.1794E-2    -.1406E-1    0.8770E-3    -.1441   
    5.213       0.1801E-2    -.1334E-1    0.8795E-3    -.1438   
    5.223       0.1808E-2    -.1261E-1    0.8820E-3    -.1434   
    5.233       0.1815E-2    -.1189E-1    0.8844E-3    -.1431   
    5.243       0.1822E-2    -.1116E-1    0.8869E-3    -.1427   
    5.253       0.1830E-2    -.1043E-1    0.8894E-3    -.1424   
    5.263       0.1837E-2    -.9690E-2    0.8919E-3    -.1420   
    5.273       0.1844E-2    -.8952E-2    0.8944E-3    -.1416   
    5.283       0.1851E-2    -.8211E-2    0.8969E-3    -.1413   
    5.293       0.1858E-2    -.7468E-2    0.8995E-3    -.1409   
    5.303       0.1866E-2    -.6721E-2    0.9020E-3    -.1406   
    5.313       0.1873E-2    -.5972E-2    0.9045E-3    -.1402   
    5.323       0.1880E-2    -.5219E-2    0.9071E-3    -.1398   
    5.333       0.1888E-2    -.4464E-2    0.9096E-3    -.1395   
    5.343       0.1895E-2    -.3705E-2    0.9121E-3    -.1391   
    5.353       0.1903E-2    -.2944E-2    0.9147E-3    -.1387   
    5.363       0.1910E-2    -.2179E-2    0.9173E-3    -.1384   
    5.373       0.1918E-2    -.1412E-2    0.9198E-3    -.1380   
    5.383       0.1926E-2    -.6409E-3    0.9224E-3    -.1376   
    5.393       0.1933E-2    0.1328E-3    0.9250E-3    -.1373   
    5.404       0.1941E-2    0.9096E-3    0.9276E-3    -.1369   
    5.414       0.1949E-2    0.1690E-2    0.9302E-3    -.1365   
    5.424       0.1957E-2    0.2473E-2    0.9328E-3    -.1362   
    5.434       0.1965E-2    0.3259E-2    0.9354E-3    -.1358   
    5.444       0.1973E-2    0.4048E-2    0.9380E-3    -.1354   
    5.454       0.1981E-2    0.4841E-2    0.9406E-3    -.1350   
    5.464       0.1989E-2    0.5637E-2    0.9432E-3    -.1346   
    5.474       0.1997E-2    0.6436E-2    0.9459E-3    -.1343   
    5.484       0.2005E-2    0.7238E-2    0.9485E-3    -.1339   
    5.494       0.2014E-2    0.8044E-2    0.9512E-3    -.1335   
    5.504       0.2022E-2    0.8853E-2    0.9538E-3    -.1331   
    5.514       0.2031E-2    0.9665E-2    0.9565E-3    -.1327   
    5.524       0.2040E-2    0.1048E-1    0.9592E-3    -.1324   
    5.534       0.2048E-2    0.1130E-1    0.9618E-3    -.1320   
    5.544       0.2056E-2    0.1212E-1    0.9645E-3    -.1316   
    5.554       0.2065E-2    0.1295E-1    0.9672E-3    -.1312   
    5.564       0.2073E-2    0.1378E-1    0.9699E-3    -.1308   
    5.574       0.2081E-2    0.1461E-1    0.9726E-3    -.1304   
    5.584       0.2090E-2    0.1544E-1    0.9753E-3    -.1300   
    5.594       0.2099E-2    0.1628E-1    0.9780E-3    -.1296   
    5.604       0.2108E-2    0.1713E-1    0.9808E-3    -.1292   
    5.614       0.2117E-2    0.1798E-1    0.9835E-3    -.1289   
    5.624       0.2126E-2    0.1883E-1    0.9863E-3    -.1285   
    5.634       0.2135E-2    0.1968E-1    0.9890E-3    -.1281   
    5.644       0.2144E-2    0.2054E-1    0.9918E-3    -.1277   
    5.654       0.2153E-2    0.2140E-1    0.9945E-3    -.1273   
    5.664       0.2162E-2    0.2226E-1    0.9973E-3    -.1269   
    5.674       0.2172E-2    0.2313E-1    0.1000E-2    -.1265   
    5.684       0.2181E-2    0.2401E-1    0.1003E-2    -.1261   
    5.694       0.2191E-2    0.2488E-1    0.1006E-2    -.1257   
    5.704       0.2200E-2    0.2576E-1    0.1008E-2    -.1253   
    5.714       0.2210E-2    0.2665E-1    0.1011E-2    -.1249   
    5.724       0.2220E-2    0.2753E-1    0.1014E-2    -.1244   
    5.734       0.2229E-2    0.2843E-1    0.1017E-2    -.1240   
    5.744       0.2239E-2    0.2932E-1    0.1020E-2    -.1236   
    5.754       0.2249E-2    0.3022E-1    0.1023E-2    -.1232   
    5.764       0.2259E-2    0.3113E-1    0.1025E-2    -.1228   
    5.774       0.2269E-2    0.3203E-1    0.1028E-2    -.1224   
    5.784       0.2280E-2    0.3295E-1    0.1031E-2    -.1220   
    5.794       0.2290E-2    0.3386E-1    0.1034E-2    -.1216   
    5.805       0.2300E-2    0.3478E-1    0.1037E-2    -.1212   
    5.815       0.2311E-2    0.3571E-1    0.1040E-2    -.1207   
    5.825       0.2322E-2    0.3664E-1    0.1043E-2    -.1203   
    5.835       0.2332E-2    0.3757E-1    0.1046E-2    -.1199   
    5.845       0.2343E-2    0.3851E-1    0.1049E-2    -.1195   
    5.855       0.2354E-2    0.3945E-1    0.1051E-2    -.1191   
    5.865       0.2365E-2    0.4039E-1    0.1054E-2    -.1186   
    5.875       0.2376E-2    0.4134E-1    0.1057E-2    -.1182   
    5.885       0.2387E-2    0.4230E-1    0.1060E-2    -.1178   
    5.895       0.2398E-2    0.4326E-1    0.1063E-2    -.1174   
    5.905       0.2410E-2    0.4422E-1    0.1066E-2    -.1169   
    5.915       0.2421E-2    0.4519E-1    0.1069E-2    -.1165   
    5.925       0.2433E-2    0.4616E-1    0.1072E-2    -.1161   
    5.935       0.2445E-2    0.4714E-1    0.1075E-2    -.1157   
    5.945       0.2457E-2    0.4812E-1    0.1078E-2    -.1152   
    5.955       0.2469E-2    0.4911E-1    0.1081E-2    -.1148   
    5.965       0.2481E-2    0.5010E-1    0.1084E-2    -.1144   
    5.975       0.2493E-2    0.5110E-1    0.1087E-2    -.1139   
    5.985       0.2505E-2    0.5210E-1    0.1090E-2    -.1135   
    5.995       0.2518E-2    0.5311E-1    0.1093E-2    -.1130   
    6.005       0.2531E-2    0.5412E-1    0.1096E-2    -.1126   
    6.015       0.2543E-2    0.5514E-1    0.1100E-2    -.1122   
    6.025       0.2556E-2    0.5616E-1    0.1103E-2    -.1117   
    6.035       0.2569E-2    0.5719E-1    0.1106E-2    -.1113   
    6.045       0.2582E-2    0.5822E-1    0.1109E-2    -.1108   
    6.055       0.2596E-2    0.5926E-1    0.1112E-2    -.1104   
    6.065       0.2609E-2    0.6030E-1    0.1115E-2    -.1099   
    6.075       0.2623E-2    0.6135E-1    0.1118E-2    -.1095   
    6.085       0.2637E-2    0.6241E-1    0.1121E-2    -.1090   
    6.095       0.2651E-2    0.6347E-1    0.1124E-2    -.1086   
    6.105       0.2665E-2    0.6453E-1    0.1128E-2    -.1081   
    6.115       0.2679E-2    0.6560E-1    0.1131E-2    -.1077   
    6.125       0.2694E-2    0.6668E-1    0.1134E-2    -.1072   
    6.135       0.2708E-2    0.6776E-1    0.1137E-2    -.1068   
    6.145       0.2723E-2    0.6885E-1    0.1140E-2    -.1063   
    6.155       0.2738E-2    0.6995E-1    0.1144E-2    -.1059   
    6.165       0.2754E-2    0.7105E-1    0.1147E-2    -.1054   
    6.175       0.2769E-2    0.7216E-1    0.1150E-2    -.1050   
    6.185       0.2785E-2    0.7327E-1    0.1153E-2    -.1045   
    6.195       0.2801E-2    0.7439E-1    0.1157E-2    -.1040   
    6.206       0.2817E-2    0.7552E-1    0.1160E-2    -.1036   
    6.216       0.2833E-2    0.7665E-1    0.1163E-2    -.1031   
    6.226       0.2850E-2    0.7779E-1    0.1166E-2    -.1026   
    6.236       0.2866E-2    0.7893E-1    0.1170E-2    -.1022   
    6.246       0.2883E-2    0.8009E-1    0.1173E-2    -.1017   
    6.256       0.2901E-2    0.8125E-1    0.1176E-2    -.1012   
    6.266       0.2918E-2    0.8241E-1    0.1180E-2    -.1007   
    6.276       0.2936E-2    0.8359E-1    0.1183E-2    -.1003   
    6.286       0.2954E-2    0.8477E-1    0.1187E-2    -.9980E-1
    6.296       0.2972E-2    0.8595E-1    0.1190E-2    -.9932E-1
    6.306       0.2991E-2    0.8715E-1    0.1193E-2    -.9884E-1
    6.316       0.3010E-2    0.8835E-1    0.1197E-2    -.9836E-1
    6.326       0.3029E-2    0.8956E-1    0.1200E-2    -.9788E-1
    6.336       0.3049E-2    0.9078E-1    0.1204E-2    -.9740E-1
    6.346       0.3069E-2    0.9201E-1    0.1207E-2    -.9692E-1
    6.356       0.3089E-2    0.9324E-1    0.1210E-2    -.9643E-1
    6.366       0.3109E-2    0.9448E-1    0.1214E-2    -.9595E-1
    6.376       0.3130E-2    0.9574E-1    0.1217E-2    -.9546E-1
    6.386       0.3151E-2    0.9699E-1    0.1221E-2    -.9497E-1
    6.396       0.3173E-2    0.9826E-1    0.1224E-2    -.9448E-1
    6.406       0.3195E-2    0.9954E-1    0.1228E-2    -.9399E-1
    6.416       0.3217E-2    0.1008       0.1231E-2    -.9350E-1
    6.426       0.3240E-2    0.1021       0.1235E-2    -.9300E-1
    6.436       0.3264E-2    0.1034       0.1239E-2    -.9251E-1
    6.446       0.3287E-2    0.1047       0.1242E-2    -.9201E-1
    6.456       0.3311E-2    0.1061       0.1246E-2    -.9151E-1
    6.466       0.3336E-2    0.1074       0.1249E-2    -.9101E-1
    6.476       0.3361E-2    0.1087       0.1253E-2    -.9051E-1
    6.486       0.3387E-2    0.1101       0.1257E-2    -.9000E-1
    6.496       0.3413E-2    0.1114       0.1260E-2    -.8950E-1
    6.506       0.3440E-2    0.1128       0.1264E-2    -.8899E-1
    6.516       0.3467E-2    0.1142       0.1268E-2    -.8849E-1
    6.526       0.3495E-2    0.1156       0.1271E-2    -.8798E-1
    6.536       0.3523E-2    0.1170       0.1275E-2    -.8747E-1
    6.546       0.3552E-2    0.1184       0.1279E-2    -.8695E-1
    6.556       0.3582E-2    0.1199       0.1283E-2    -.8644E-1
    6.566       0.3613E-2    0.1213       0.1286E-2    -.8593E-1
    6.576       0.3644E-2    0.1228       0.1290E-2    -.8541E-1
    6.586       0.3676E-2    0.1242       0.1294E-2    -.8489E-1
    6.596       0.3709E-2    0.1257       0.1298E-2    -.8437E-1
    6.607       0.3742E-2    0.1272       0.1302E-2    -.8385E-1
    6.617       0.3776E-2    0.1287       0.1306E-2    -.8333E-1
    6.627       0.3812E-2    0.1302       0.1309E-2    -.8280E-1
    6.637       0.3848E-2    0.1318       0.1313E-2    -.8228E-1
    6.647       0.3885E-2    0.1333       0.1317E-2    -.8175E-1
    6.657       0.3923E-2    0.1349       0.1321E-2    -.8122E-1
    6.667       0.3962E-2    0.1364       0.1325E-2    -.8069E-1
    6.677       0.4002E-2    0.1380       0.1329E-2    -.8016E-1
    6.687       0.4043E-2    0.1397       0.1333E-2    -.7962E-1
    6.697       0.4086E-2    0.1413       0.1337E-2    -.7909E-1
    6.707       0.4130E-2    0.1429       0.1341E-2    -.7855E-1
    6.717       0.4175E-2    0.1446       0.1345E-2    -.7801E-1
    6.727       0.4221E-2    0.1463       0.1349E-2    -.7747E-1
    6.737       0.4269E-2    0.1480       0.1353E-2    -.7693E-1
    6.747       0.4318E-2    0.1497       0.1357E-2    -.7639E-1
    6.757       0.4369E-2    0.1514       0.1362E-2    -.7584E-1
    6.767       0.4422E-2    0.1532       0.1366E-2    -.7530E-1
    6.777       0.4476E-2    0.1550       0.1370E-2    -.7475E-1
    6.787       0.4532E-2    0.1568       0.1374E-2    -.7420E-1
    6.797       0.4590E-2    0.1586       0.1378E-2    -.7365E-1
    6.807       0.4651E-2    0.1605       0.1383E-2    -.7309E-1
    6.817       0.4713E-2    0.1623       0.1387E-2    -.7254E-1
    6.827       0.4777E-2    0.1642       0.1391E-2    -.7198E-1
    6.837       0.4844E-2    0.1662       0.1395E-2    -.7142E-1
    6.847       0.4914E-2    0.1681       0.1400E-2    -.7086E-1
    6.857       0.4986E-2    0.1701       0.1404E-2    -.7030E-1
    6.867       0.5061E-2    0.1721       0.1409E-2    -.6973E-1
    6.877       0.5139E-2    0.1742       0.1413E-2    -.6917E-1
    6.887       0.5220E-2    0.1762       0.1418E-2    -.6860E-1
    6.897       0.5304E-2    0.1783       0.1422E-2    -.6803E-1
    6.907       0.5393E-2    0.1805       0.1427E-2    -.6746E-1
    6.917       0.5485E-2    0.1827       0.1431E-2    -.6689E-1
    6.927       0.5581E-2    0.1849       0.1436E-2    -.6631E-1
    6.937       0.5681E-2    0.1871       0.1440E-2    -.6574E-1
    6.947       0.5786E-2    0.1894       0.1445E-2    -.6516E-1
    6.957       0.5896E-2    0.1918       0.1450E-2    -.6458E-1
    6.967       0.6012E-2    0.1941       0.1454E-2    -.6400E-1
    6.977       0.6133E-2    0.1966       0.1459E-2    -.6341E-1
    6.987       0.6260E-2    0.1991       0.1464E-2    -.6283E-1
    6.997       0.6394E-2    0.2016       0.1469E-2    -.6224E-1
    7.008       0.6535E-2    0.2042       0.1473E-2    -.6165E-1
    7.018       0.6684E-2    0.2068       0.1478E-2    -.6106E-1
    7.028       0.6841E-2    0.2095       0.1483E-2    -.6046E-1
    7.038       0.7006E-2    0.2123       0.1488E-2    -.5987E-1
    7.048       0.7182E-2    0.2151       0.1493E-2    -.5927E-1
    7.058       0.7368E-2    0.2180       0.1498E-2    -.5867E-1
    7.068       0.7565E-2    0.2210       0.1503E-2    -.5807E-1
    7.078       0.7774E-2    0.2241       0.1508E-2    -.5746E-1
    7.088       0.7997E-2    0.2272       0.1513E-2    -.5686E-1
    7.098       0.8235E-2    0.2305       0.1519E-2    -.5625E-1
    7.108       0.8489E-2    0.2338       0.1524E-2    -.5564E-1
    7.118       0.8760E-2    0.2373       0.1529E-2    -.5503E-1
    7.128       0.9051E-2    0.2408       0.1534E-2    -.5441E-1
    7.138       0.9364E-2    0.2445       0.1540E-2    -.5380E-1
    7.148       0.9699E-2    0.2483       0.1545E-2    -.5318E-1
    7.158       0.1006E-1    0.2522       0.1551E-2    -.5256E-1
    7.168       0.1045E-1    0.2563       0.1556E-2    -.5194E-1
    7.178       0.1088E-1    0.2606       0.1562E-2    -.5131E-1
    7.188       0.1133E-1    0.2650       0.1567E-2    -.5068E-1
    7.198       0.1183E-1    0.2696       0.1573E-2    -.5005E-1
    7.208       0.1238E-1    0.2744       0.1579E-2    -.4942E-1
    7.218       0.1298E-1    0.2794       0.1585E-2    -.4879E-1
    7.228       0.1363E-1    0.2847       0.1590E-2    -.4815E-1
    7.238       0.1435E-1    0.2903       0.1596E-2    -.4751E-1
    7.248       0.1515E-1    0.2961       0.1602E-2    -.4687E-1
    7.258       0.1603E-1    0.3023       0.1608E-2    -.4623E-1
    7.268       0.1701E-1    0.3088       0.1615E-2    -.4558E-1
    7.278       0.1810E-1    0.3157       0.1621E-2    -.4493E-1
    7.288       0.1933E-1    0.3231       0.1627E-2    -.4428E-1
    7.298       0.2072E-1    0.3310       0.1633E-2    -.4363E-1
    7.308       0.2229E-1    0.3394       0.1640E-2    -.4297E-1
    7.318       0.2408E-1    0.3485       0.1646E-2    -.4231E-1
    7.328       0.2613E-1    0.3583       0.1653E-2    -.4165E-1
    7.338       0.2850E-1    0.3690       0.1660E-2    -.4099E-1
    7.348       0.3126E-1    0.3806       0.1666E-2    -.4032E-1
    7.358       0.3448E-1    0.3933       0.1673E-2    -.3965E-1
    7.368       0.3830E-1    0.4073       0.1680E-2    -.3898E-1
    7.378       0.4285E-1    0.4228       0.1687E-2    -.3830E-1
    7.388       0.4835E-1    0.4402       0.1695E-2    -.3763E-1
    7.398       0.5507E-1    0.4597       0.1702E-2    -.3694E-1
    7.409       0.6339E-1    0.4817       0.1709E-2    -.3626E-1
    7.419       0.7386E-1    0.5070       0.1717E-2    -.3557E-1
    7.429       0.8727E-1    0.5361       0.1725E-2    -.3488E-1
    7.439       0.1048       0.5700       0.1732E-2    -.3419E-1
    7.449       0.1283       0.6099       0.1740E-2    -.3349E-1
    7.459       0.1607       0.6572       0.1748E-2    -.3280E-1
    7.469       0.2067       0.7135       0.1757E-2    -.3209E-1
    7.479       0.2747       0.7800       0.1765E-2    -.3139E-1
    7.489       0.3788       0.8556       0.1774E-2    -.3068E-1
    7.499       0.5438       0.9302       0.1783E-2    -.2996E-1
    7.509       0.8055       0.9645       0.1792E-2    -.2925E-1
    7.519        1.176       0.8490       0.1801E-2    -.2853E-1
    7.529        1.498       0.4292       0.1810E-2    -.2780E-1
    7.539        1.441       -.1536       0.1820E-2    -.2708E-1
    7.549        1.077       -.4897       0.1830E-2    -.2635E-1
    7.559       0.7306       -.5521       0.1840E-2    -.2561E-1
    7.569       0.4976       -.5019       0.1851E-2    -.2487E-1
    7.579       0.3510       -.4264       0.1861E-2    -.2413E-1
    7.589       0.2572       -.3534       0.1872E-2    -.2338E-1
    7.599       0.1952       -.2895       0.1884E-2    -.2262E-1
    7.609       0.1528       -.2354       0.1896E-2    -.2187E-1
    7.619       0.1228       -.1899       0.1908E-2    -.2110E-1
    7.629       0.1009       -.1513       0.1921E-2    -.2034E-1
    7.639       0.8444E-1    -.1184       0.1934E-2    -.1957E-1
    7.649       0.7184E-1    -.9004E-1    0.1948E-2    -.1879E-1
    7.659       0.6198E-1    -.6534E-1    0.1963E-2    -.1800E-1
    7.669       0.5413E-1    -.4362E-1    0.1978E-2    -.1721E-1
    7.679       0.4778E-1    -.2437E-1    0.1995E-2    -.1642E-1
    7.689       0.4259E-1    -.7149E-2    0.2012E-2    -.1562E-1
    7.699       0.3828E-1    0.8363E-2    0.2030E-2    -.1481E-1
    7.709       0.3468E-1    0.2244E-1    0.2050E-2    -.1399E-1
    7.719       0.3164E-1    0.3529E-1    0.2071E-2    -.1316E-1
    7.729       0.2906E-1    0.4709E-1    0.2093E-2    -.1233E-1
    7.739       0.2684E-1    0.5799E-1    0.2118E-2    -.1149E-1
    7.749       0.2493E-1    0.6811E-1    0.2145E-2    -.1064E-1
    7.759       0.2326E-1    0.7755E-1    0.2176E-2    -.9774E-2
    7.769       0.2181E-1    0.8641E-1    0.2210E-2    -.8898E-2
    7.779       0.2054E-1    0.9475E-1    0.2249E-2    -.8009E-2
    7.789       0.1942E-1    0.1026       0.2295E-2    -.7104E-2
    7.799       0.1844E-1    0.1101       0.2349E-2    -.6182E-2
    7.810       0.1757E-1    0.1172       0.2415E-2    -.5239E-2
    7.820       0.1680E-1    0.1241       0.2496E-2    -.4272E-2
    7.830       0.1613E-1    0.1306       0.2600E-2    -.3276E-2
    7.840       0.1553E-1    0.1369       0.2738E-2    -.2247E-2
    7.850       0.1500E-1    0.1429       0.2927E-2    -.1177E-2
    7.860       0.1453E-1    0.1488       0.3199E-2    -.6207E-4
    7.870       0.1413E-1    0.1545       0.3607E-2    0.1092E-2
    7.880       0.1377E-1    0.1600       0.4244E-2    0.2244E-2
    7.890       0.1347E-1    0.1655       0.5240E-2    0.3240E-2
    7.900       0.1321E-1    0.1708       0.6616E-2    0.3661E-2
    7.910       0.1300E-1    0.1760       0.7731E-2    0.2975E-2
    7.920       0.1282E-1    0.1811       0.7425E-2    0.1826E-2
    7.930       0.1269E-1    0.1862       0.6107E-2    0.1646E-2
    7.940       0.1261E-1    0.1912       0.4914E-2    0.2420E-2
    7.950       0.1257E-1    0.1962       0.4132E-2    0.3576E-2
    7.960       0.1259E-1    0.2012       0.3654E-2    0.4822E-2
    7.970       0.1266E-1    0.2062       0.3363E-2    0.6066E-2
    7.980       0.1279E-1    0.2113       0.3183E-2    0.7288E-2
    7.990       0.1299E-1    0.2164       0.3072E-2    0.8487E-2
    8.000       0.1329E-1    0.2215       0.3005E-2    0.9671E-2
# 
# 12/10/2017 at 23:17 YAMBO @ narro [start]
# 12/10/2017 at 23:17               [end]
#  
# Timing   [Min/Max/Average]: 04s/04s/04s
#
# .-Input file : yambo.in
# | optics                         # [R OPT] Optics
# | bse                            # [R BSE] Bethe Salpeter Equation.
# | bsk                            # [R BSK] Bethe Salpeter Equation kernel
# | bss                            # [R BSS] Bethe Salpeter Equation solver
# | em1s                           # [R Xs] Static Inverse Dielectric Matrix
# | BoseTemp= 0.000000     eV      # Bosonic Temperature
# | FFTGvecs=  3473        RL      # [FFT] Plane-waves
# | X_Threads= 1                   # [OPENMP/X] Number of threads for response functions
# | DIP_Threads= 1                 # [OPENMP/X] Number of threads for dipoles
# | K_Threads= 1                   # [OPENMP/BSK] Number of threads for response functions
# | Chimod= "hartree"              # [X] IP/Hartree/ALDA/LRC/BSfxc
# | BSEmod= "retarded"             # [BSE] resonant/retarded/coupling
# | BSKmod= "SEX"                  # [BSE] IP/Hartree/HF/ALDA/SEX/BSfxc
# | BSSmod= "d"                    # [BSS] (h)aydock/(d)iagonalization/(i)nversion/(t)ddft`
# | BSENGexx=  51          RL      # [BSK] Exchange components
# | BSENGBlk=  51          RL      # [BSK] Screened interaction block size
# | #WehCpl                        # [BSK] eh interaction included also in coupling
# | % KfnQP_E
# |  2.400000 | 1.200000 | 1.100000 |        # [EXTQP BSK BSS] E parameters  (c/v) eV|adim|adim
# | %
# | % BEnRange
# |  4.000000 | 8.000000 | eV      # [BSS] Energy range
# | %
# | % BDmRange
# |   0.02500 |  0.02500 | eV      # [BSS] Damping range
# | %
# | BEnSteps=  400                 # [BSS] Energy steps
# | % BLongDir
# | 0.5774E-5 |0.5774E-5 |0.5774E-5 |        # [BSS] [cc] Electric Field
# | %
# | % BSEBands
# |   7 | 10 |                     # [BSK] Bands range
# | %
# | % BndsRnXs
# |    1 |  60 |                   # [Xs] Polarization function bands
# | %
# | NGsBlkXs=  51          RL      # [Xs] Response block size
# | % DmRngeXs
# | 0.1000E-2 |0.1000E-2 | eV      # [Xs] Damping range
# | %
# | % LongDrXs
# | 0.1000E-4 | 0.000    | 0.000    |        # [Xs] [cc] Electric Field
# | %
