#                                                           
# ooooo   oooo ..     ooo        ooo ooooooooo.    .oooo.   
#  `88.   .8" .88.    `88.       .88 `88"   `Y8b  dP"  `Yb  
#   `88. .8" .8"88.    888b     d"88  88     888 88      88 
#    `88.8" .8" `88.   8 Y88. .P  88  88oooo888" 88      88 
#     `88" .88ooo888.  8  `888"   88  88    `88b 88      88 
#      88 .8"     `88. 8    Y     88  88    .88P `8b    d8" 
#     o88o88o      888o8          88 o88bood8P"   `Ybod8P"  
#                                                           
#                                                           
#        Version 4.4.0 Revision 16741 Hash d917b3d70        
#               Branch is devel-BSE-finite-q                
#                   MPI+SLK+OpenMP Build                    
#                 http://www.yambo-code.org                 
#
# Absorption @ Q(1) [q->0 direction] :0.5774E-5 0.5774E-5 0.5774E-5
#
#
# - Energies      are Teter 93(XC)
# - Wavefunctions are Teter 93(XC)
#
# - The Green`s function is Resonant -
# - Using the Length Gauge -
# - [r,Vnl] *is* included -
#
#
#    E/ev[1]      EPS-Im[2]    EPS-Re[3]    EPSo-Im[4]   EPSo-Re[5]
#
   -10.00       0.7950E-2     2.017       0.6113E-2     1.963   
   -9.990       0.7963E-2     2.018       0.6120E-2     1.964   
   -9.980       0.7975E-2     2.019       0.6128E-2     1.964   
   -9.970       0.7988E-2     2.020       0.6136E-2     1.965   
   -9.960       0.8000E-2     2.020       0.6144E-2     1.966   
   -9.950       0.8013E-2     2.021       0.6152E-2     1.966   
   -9.940       0.8026E-2     2.022       0.6160E-2     1.967   
   -9.930       0.8038E-2     2.023       0.6168E-2     1.967   
   -9.920       0.8051E-2     2.024       0.6176E-2     1.968   
   -9.910       0.8063E-2     2.025       0.6184E-2     1.969   
   -9.900       0.8076E-2     2.025       0.6191E-2     1.969   
   -9.890       0.8089E-2     2.026       0.6199E-2     1.970   
   -9.880       0.8102E-2     2.027       0.6207E-2     1.971   
   -9.870       0.8114E-2     2.028       0.6215E-2     1.971   
   -9.860       0.8127E-2     2.029       0.6223E-2     1.972   
   -9.850       0.8140E-2     2.029       0.6231E-2     1.972   
   -9.840       0.8153E-2     2.030       0.6240E-2     1.973   
   -9.830       0.8166E-2     2.031       0.6248E-2     1.974   
   -9.820       0.8179E-2     2.032       0.6256E-2     1.974   
   -9.810       0.8192E-2     2.033       0.6264E-2     1.975   
   -9.800       0.8205E-2     2.033       0.6272E-2     1.976   
   -9.790       0.8218E-2     2.034       0.6280E-2     1.976   
   -9.780       0.8231E-2     2.035       0.6288E-2     1.977   
   -9.770       0.8244E-2     2.036       0.6296E-2     1.977   
   -9.760       0.8257E-2     2.037       0.6304E-2     1.978   
   -9.750       0.8270E-2     2.038       0.6313E-2     1.979   
   -9.740       0.8284E-2     2.038       0.6321E-2     1.979   
   -9.730       0.8297E-2     2.039       0.6329E-2     1.980   
   -9.720       0.8310E-2     2.040       0.6337E-2     1.981   
   -9.710       0.8323E-2     2.041       0.6346E-2     1.981   
   -9.700       0.8337E-2     2.042       0.6354E-2     1.982   
   -9.690       0.8350E-2     2.043       0.6362E-2     1.983   
   -9.680       0.8364E-2     2.043       0.6370E-2     1.983   
   -9.670       0.8377E-2     2.044       0.6379E-2     1.984   
   -9.660       0.8390E-2     2.045       0.6387E-2     1.984   
   -9.650       0.8404E-2     2.046       0.6395E-2     1.985   
   -9.640       0.8417E-2     2.047       0.6404E-2     1.986   
   -9.630       0.8431E-2     2.048       0.6412E-2     1.986   
   -9.620       0.8445E-2     2.048       0.6420E-2     1.987   
   -9.610       0.8458E-2     2.049       0.6429E-2     1.988   
   -9.600       0.8472E-2     2.050       0.6437E-2     1.988   
   -9.590       0.8486E-2     2.051       0.6446E-2     1.989   
   -9.580       0.8499E-2     2.052       0.6454E-2     1.990   
   -9.570       0.8513E-2     2.053       0.6463E-2     1.990   
   -9.560       0.8527E-2     2.054       0.6471E-2     1.991   
   -9.550       0.8541E-2     2.054       0.6480E-2     1.991   
   -9.540       0.8554E-2     2.055       0.6488E-2     1.992   
   -9.530       0.8568E-2     2.056       0.6497E-2     1.993   
   -9.520       0.8582E-2     2.057       0.6505E-2     1.993   
   -9.510       0.8596E-2     2.058       0.6514E-2     1.994   
   -9.500       0.8610E-2     2.059       0.6523E-2     1.995   
   -9.490       0.8624E-2     2.060       0.6531E-2     1.995   
   -9.480       0.8638E-2     2.060       0.6540E-2     1.996   
   -9.470       0.8652E-2     2.061       0.6548E-2     1.997   
   -9.460       0.8666E-2     2.062       0.6557E-2     1.997   
   -9.450       0.8681E-2     2.063       0.6566E-2     1.998   
   -9.440       0.8695E-2     2.064       0.6575E-2     1.999   
   -9.430       0.8709E-2     2.065       0.6583E-2     1.999   
   -9.420       0.8723E-2     2.066       0.6592E-2     2.000   
   -9.410       0.8738E-2     2.066       0.6601E-2     2.001   
   -9.400       0.8752E-2     2.067       0.6610E-2     2.001   
   -9.390       0.8766E-2     2.068       0.6618E-2     2.002   
   -9.380       0.8781E-2     2.069       0.6627E-2     2.003   
   -9.370       0.8795E-2     2.070       0.6636E-2     2.003   
   -9.360       0.8810E-2     2.071       0.6645E-2     2.004   
   -9.350       0.8824E-2     2.072       0.6654E-2     2.005   
   -9.340       0.8839E-2     2.073       0.6663E-2     2.005   
   -9.330       0.8853E-2     2.074       0.6671E-2     2.006   
   -9.320       0.8868E-2     2.074       0.6680E-2     2.007   
   -9.310       0.8883E-2     2.075       0.6689E-2     2.007   
   -9.300       0.8897E-2     2.076       0.6698E-2     2.008   
   -9.290       0.8912E-2     2.077       0.6707E-2     2.009   
   -9.280       0.8927E-2     2.078       0.6716E-2     2.009   
   -9.270       0.8942E-2     2.079       0.6725E-2     2.010   
   -9.260       0.8956E-2     2.080       0.6734E-2     2.011   
   -9.250       0.8971E-2     2.081       0.6743E-2     2.011   
   -9.240       0.8986E-2     2.082       0.6752E-2     2.012   
   -9.230       0.9001E-2     2.082       0.6761E-2     2.013   
   -9.220       0.9016E-2     2.083       0.6770E-2     2.013   
   -9.210       0.9031E-2     2.084       0.6780E-2     2.014   
   -9.200       0.9046E-2     2.085       0.6789E-2     2.015   
   -9.190       0.9061E-2     2.086       0.6798E-2     2.015   
   -9.180       0.9076E-2     2.087       0.6807E-2     2.016   
   -9.170       0.9092E-2     2.088       0.6816E-2     2.017   
   -9.160       0.9107E-2     2.089       0.6825E-2     2.017   
   -9.150       0.9122E-2     2.090       0.6835E-2     2.018   
   -9.140       0.9137E-2     2.091       0.6844E-2     2.019   
   -9.130       0.9153E-2     2.092       0.6853E-2     2.019   
   -9.120       0.9168E-2     2.092       0.6862E-2     2.020   
   -9.110       0.9183E-2     2.093       0.6872E-2     2.021   
   -9.100       0.9199E-2     2.094       0.6881E-2     2.022   
   -9.090       0.9214E-2     2.095       0.6890E-2     2.022   
   -9.080       0.9230E-2     2.096       0.6900E-2     2.023   
   -9.070       0.9245E-2     2.097       0.6909E-2     2.024   
   -9.060       0.9261E-2     2.098       0.6919E-2     2.024   
   -9.050       0.9277E-2     2.099       0.6928E-2     2.025   
   -9.040       0.9292E-2     2.100       0.6937E-2     2.026   
   -9.030       0.9308E-2     2.101       0.6947E-2     2.026   
   -9.020       0.9324E-2     2.102       0.6956E-2     2.027   
   -9.010       0.9340E-2     2.103       0.6966E-2     2.028   
   -9.000       0.9356E-2     2.104       0.6975E-2     2.028   
   -8.990       0.9371E-2     2.104       0.6985E-2     2.029   
   -8.980       0.9387E-2     2.105       0.6994E-2     2.030   
   -8.970       0.9403E-2     2.106       0.7004E-2     2.031   
   -8.960       0.9419E-2     2.107       0.7014E-2     2.031   
   -8.950       0.9435E-2     2.108       0.7023E-2     2.032   
   -8.940       0.9451E-2     2.109       0.7033E-2     2.033   
   -8.930       0.9468E-2     2.110       0.7043E-2     2.033   
   -8.920       0.9484E-2     2.111       0.7052E-2     2.034   
   -8.910       0.9500E-2     2.112       0.7062E-2     2.035   
   -8.900       0.9516E-2     2.113       0.7072E-2     2.035   
   -8.890       0.9533E-2     2.114       0.7081E-2     2.036   
   -8.880       0.9549E-2     2.115       0.7091E-2     2.037   
   -8.870       0.9565E-2     2.116       0.7101E-2     2.038   
   -8.860       0.9582E-2     2.117       0.7111E-2     2.038   
   -8.850       0.9598E-2     2.118       0.7120E-2     2.039   
   -8.840       0.9615E-2     2.119       0.7130E-2     2.040   
   -8.830       0.9631E-2     2.120       0.7140E-2     2.040   
   -8.820       0.9648E-2     2.121       0.7150E-2     2.041   
   -8.810       0.9664E-2     2.122       0.7160E-2     2.042   
   -8.800       0.9681E-2     2.123       0.7170E-2     2.043   
   -8.790       0.9698E-2     2.124       0.7180E-2     2.043   
   -8.780       0.9715E-2     2.125       0.7190E-2     2.044   
   -8.770       0.9731E-2     2.125       0.7200E-2     2.045   
   -8.760       0.9748E-2     2.126       0.7210E-2     2.045   
   -8.750       0.9765E-2     2.127       0.7220E-2     2.046   
   -8.740       0.9782E-2     2.128       0.7230E-2     2.047   
   -8.730       0.9799E-2     2.129       0.7240E-2     2.048   
   -8.720       0.9816E-2     2.130       0.7250E-2     2.048   
   -8.710       0.9833E-2     2.131       0.7260E-2     2.049   
   -8.700       0.9850E-2     2.132       0.7270E-2     2.050   
   -8.690       0.9867E-2     2.133       0.7280E-2     2.051   
   -8.680       0.9885E-2     2.134       0.7290E-2     2.051   
   -8.670       0.9902E-2     2.135       0.7301E-2     2.052   
   -8.660       0.9919E-2     2.136       0.7311E-2     2.053   
   -8.650       0.9936E-2     2.137       0.7321E-2     2.053   
   -8.640       0.9954E-2     2.138       0.7331E-2     2.054   
   -8.630       0.9971E-2     2.139       0.7342E-2     2.055   
   -8.620       0.9989E-2     2.140       0.7352E-2     2.056   
   -8.610       0.1001E-1     2.141       0.7362E-2     2.056   
   -8.600       0.1002E-1     2.142       0.7373E-2     2.057   
   -8.590       0.1004E-1     2.143       0.7383E-2     2.058   
   -8.580       0.1006E-1     2.144       0.7393E-2     2.059   
   -8.570       0.1008E-1     2.145       0.7404E-2     2.059   
   -8.560       0.1009E-1     2.146       0.7414E-2     2.060   
   -8.550       0.1011E-1     2.147       0.7425E-2     2.061   
   -8.540       0.1013E-1     2.148       0.7435E-2     2.062   
   -8.530       0.1015E-1     2.149       0.7446E-2     2.062   
   -8.520       0.1017E-1     2.150       0.7456E-2     2.063   
   -8.510       0.1018E-1     2.151       0.7467E-2     2.064   
   -8.500       0.1020E-1     2.152       0.7477E-2     2.065   
   -8.490       0.1022E-1     2.153       0.7488E-2     2.065   
   -8.480       0.1024E-1     2.154       0.7498E-2     2.066   
   -8.470       0.1026E-1     2.155       0.7509E-2     2.067   
   -8.460       0.1027E-1     2.156       0.7520E-2     2.068   
   -8.450       0.1029E-1     2.157       0.7530E-2     2.068   
   -8.440       0.1031E-1     2.159       0.7541E-2     2.069   
   -8.430       0.1033E-1     2.160       0.7552E-2     2.070   
   -8.420       0.1035E-1     2.161       0.7563E-2     2.071   
   -8.410       0.1037E-1     2.162       0.7573E-2     2.071   
   -8.400       0.1039E-1     2.163       0.7584E-2     2.072   
   -8.390       0.1040E-1     2.164       0.7595E-2     2.073   
   -8.380       0.1042E-1     2.165       0.7606E-2     2.074   
   -8.370       0.1044E-1     2.166       0.7617E-2     2.074   
   -8.360       0.1046E-1     2.167       0.7628E-2     2.075   
   -8.350       0.1048E-1     2.168       0.7638E-2     2.076   
   -8.340       0.1050E-1     2.169       0.7649E-2     2.077   
   -8.330       0.1052E-1     2.170       0.7660E-2     2.077   
   -8.320       0.1054E-1     2.171       0.7671E-2     2.078   
   -8.310       0.1055E-1     2.172       0.7682E-2     2.079   
   -8.300       0.1057E-1     2.173       0.7693E-2     2.080   
   -8.290       0.1059E-1     2.174       0.7704E-2     2.081   
   -8.280       0.1061E-1     2.175       0.7715E-2     2.081   
   -8.270       0.1063E-1     2.176       0.7727E-2     2.082   
   -8.260       0.1065E-1     2.177       0.7738E-2     2.083   
   -8.250       0.1067E-1     2.178       0.7749E-2     2.084   
   -8.240       0.1069E-1     2.180       0.7760E-2     2.084   
   -8.230       0.1071E-1     2.181       0.7771E-2     2.085   
   -8.220       0.1073E-1     2.182       0.7782E-2     2.086   
   -8.210       0.1075E-1     2.183       0.7794E-2     2.087   
   -8.200       0.1077E-1     2.184       0.7805E-2     2.087   
   -8.190       0.1079E-1     2.185       0.7816E-2     2.088   
   -8.180       0.1081E-1     2.186       0.7828E-2     2.089   
   -8.170       0.1083E-1     2.187       0.7839E-2     2.090   
   -8.160       0.1085E-1     2.188       0.7850E-2     2.091   
   -8.150       0.1086E-1     2.189       0.7862E-2     2.091   
   -8.140       0.1088E-1     2.190       0.7873E-2     2.092   
   -8.130       0.1090E-1     2.191       0.7885E-2     2.093   
   -8.120       0.1092E-1     2.192       0.7896E-2     2.094   
   -8.110       0.1094E-1     2.194       0.7907E-2     2.095   
   -8.100       0.1096E-1     2.195       0.7919E-2     2.095   
   -8.090       0.1098E-1     2.196       0.7931E-2     2.096   
   -8.080       0.1101E-1     2.197       0.7942E-2     2.097   
   -8.070       0.1103E-1     2.198       0.7954E-2     2.098   
   -8.060       0.1105E-1     2.199       0.7965E-2     2.099   
   -8.050       0.1107E-1     2.200       0.7977E-2     2.099   
   -8.040       0.1109E-1     2.201       0.7989E-2     2.100   
   -8.030       0.1111E-1     2.202       0.8000E-2     2.101   
   -8.020       0.1113E-1     2.204       0.8012E-2     2.102   
     -8.0100       0.0111       2.2046       0.0080       2.1025
     -8.0000       0.0112       2.2057       0.0080       2.1033
     -7.9900       0.0112       2.2069       0.0080       2.1041
     -7.9800       0.0112       2.2080       0.0081       2.1049
     -7.9700       0.0112       2.2091       0.0081       2.1057
     -7.9600       0.0113       2.2102       0.0081       2.1065
     -7.9500       0.0113       2.2113       0.0081       2.1074
     -7.9400       0.0113       2.2125       0.0081       2.1082
     -7.9300       0.0113       2.2136       0.0081       2.1090
     -7.9200       0.0113       2.2147       0.0081       2.1098
     -7.9100       0.0114       2.2159       0.0081       2.1106
     -7.9000       0.0114       2.2170       0.0082       2.1114
     -7.8900       0.0114       2.2181       0.0082       2.1122
     -7.8800       0.0114       2.2193       0.0082       2.1131
     -7.8700       0.0114       2.2204       0.0082       2.1139
     -7.8600       0.0115       2.2216       0.0082       2.1147
     -7.8500       0.0115       2.2227       0.0082       2.1155
     -7.8400       0.0115       2.2239       0.0082       2.1163
     -7.8300       0.0115       2.2250       0.0082       2.1172
     -7.8200       0.0116       2.2262       0.0083       2.1180
     -7.8100       0.0116       2.2273       0.0083       2.1188
     -7.8000       0.0116       2.2285       0.0083       2.1196
     -7.7900       0.0116       2.2297       0.0083       2.1205
     -7.7800       0.0116       2.2308       0.0083       2.1213
     -7.7700       0.0117       2.2320       0.0083       2.1221
     -7.7600       0.0117       2.2331       0.0083       2.1230
     -7.7500       0.0117       2.2343       0.0083       2.1238
     -7.7400       0.0117       2.2355       0.0084       2.1246
     -7.7300       0.0117       2.2367       0.0084       2.1255
     -7.7200       0.0118       2.2378       0.0084       2.1263
     -7.7100       0.0118       2.2390       0.0084       2.1271
     -7.7000       0.0118       2.2402       0.0084       2.1280
     -7.6900       0.0118       2.2414       0.0084       2.1288
     -7.6800       0.0119       2.2426       0.0084       2.1297
     -7.6700       0.0119       2.2437       0.0084       2.1305
     -7.6600       0.0119       2.2449       0.0085       2.1313
     -7.6500       0.0119       2.2461       0.0085       2.1322
     -7.6400       0.0120       2.2473       0.0085       2.1330
     -7.6300       0.0120       2.2485       0.0085       2.1339
     -7.6200       0.0120       2.2497       0.0085       2.1347
     -7.6100       0.0120       2.2509       0.0085       2.1356
     -7.6000       0.0120       2.2521       0.0085       2.1364
     -7.5900       0.0121       2.2533       0.0085       2.1373
     -7.5800       0.0121       2.2545       0.0086       2.1381
     -7.5700       0.0121       2.2557       0.0086       2.1390
     -7.5600       0.0121       2.2570       0.0086       2.1399
     -7.5500       0.0122       2.2582       0.0086       2.1407
     -7.5400       0.0122       2.2594       0.0086       2.1416
     -7.5300       0.0122       2.2606       0.0086       2.1424
     -7.5200       0.0122       2.2618       0.0086       2.1433
     -7.5100       0.0123       2.2631       0.0086       2.1442
     -7.5000       0.0123       2.2643       0.0087       2.1450
     -7.4900       0.0123       2.2655       0.0087       2.1459
     -7.4800       0.0123       2.2667       0.0087       2.1468
     -7.4700       0.0124       2.2680       0.0087       2.1476
     -7.4600       0.0124       2.2692       0.0087       2.1485
     -7.4500       0.0124       2.2705       0.0087       2.1494
     -7.4400       0.0124       2.2717       0.0087       2.1502
     -7.4300       0.0124       2.2729       0.0088       2.1511
     -7.4200       0.0125       2.2742       0.0088       2.1520
     -7.4100       0.0125       2.2754       0.0088       2.1529
     -7.4000       0.0125       2.2767       0.0088       2.1538
     -7.3900       0.0125       2.2779       0.0088       2.1546
     -7.3800       0.0126       2.2792       0.0088       2.1555
     -7.3700       0.0126       2.2804       0.0088       2.1564
     -7.3600       0.0126       2.2817       0.0088       2.1573
     -7.3500       0.0126       2.2830       0.0089       2.1582
     -7.3400       0.0127       2.2842       0.0089       2.1591
     -7.3300       0.0127       2.2855       0.0089       2.1599
     -7.3200       0.0127       2.2868       0.0089       2.1608
     -7.3100       0.0127       2.2880       0.0089       2.1617
     -7.3000       0.0128       2.2893       0.0089       2.1626
     -7.2900       0.0128       2.2906       0.0089       2.1635
     -7.2800       0.0128       2.2919       0.0090       2.1644
     -7.2700       0.0128       2.2932       0.0090       2.1653
     -7.2600       0.0129       2.2945       0.0090       2.1662
     -7.2500       0.0129       2.2957       0.0090       2.1671
     -7.2400       0.0129       2.2970       0.0090       2.1680
     -7.2300       0.0130       2.2983       0.0090       2.1689
     -7.2200       0.0130       2.2996       0.0090       2.1698
     -7.2100       0.0130       2.3009       0.0091       2.1707
     -7.2000       0.0130       2.3022       0.0091       2.1716
     -7.1900       0.0131       2.3035       0.0091       2.1725
     -7.1800       0.0131       2.3048       0.0091       2.1734
     -7.1700       0.0131       2.3061       0.0091       2.1743
     -7.1600       0.0131       2.3075       0.0091       2.1752
     -7.1500       0.0132       2.3088       0.0091       2.1762
     -7.1400       0.0132       2.3101       0.0092       2.1771
     -7.1300       0.0132       2.3114       0.0092       2.1780
     -7.1200       0.0132       2.3127       0.0092       2.1789
     -7.1100       0.0133       2.3140       0.0092       2.1798
     -7.1000       0.0133       2.3154       0.0092       2.1807
     -7.0900       0.0133       2.3167       0.0092       2.1817
     -7.0800       0.0133       2.3180       0.0092       2.1826
     -7.0700       0.0134       2.3194       0.0093       2.1835
     -7.0600       0.0134       2.3207       0.0093       2.1844
     -7.0500       0.0134       2.3221       0.0093       2.1854
     -7.0400       0.0135       2.3234       0.0093       2.1863
     -7.0300       0.0135       2.3247       0.0093       2.1872
     -7.0200       0.0135       2.3261       0.0093       2.1882
     -7.0100       0.0135       2.3274       0.0093       2.1891
     -7.0000       0.0136       2.3288       0.0094       2.1900
     -6.9900       0.0136       2.3302       0.0094       2.1910
     -6.9800       0.0136       2.3315       0.0094       2.1919
     -6.9700       0.0136       2.3329       0.0094       2.1928
     -6.9600       0.0137       2.3342       0.0094       2.1938
     -6.9500       0.0137       2.3356       0.0094       2.1947
     -6.9400       0.0137       2.3370       0.0094       2.1957
     -6.9300       0.0138       2.3384       0.0095       2.1966
     -6.9200       0.0138       2.3397       0.0095       2.1976
     -6.9100       0.0138       2.3411       0.0095       2.1985
     -6.9000       0.0138       2.3425       0.0095       2.1995
     -6.8900       0.0139       2.3439       0.0095       2.2004
     -6.8800       0.0139       2.3453       0.0095       2.2014
     -6.8700       0.0139       2.3467       0.0096       2.2023
     -6.8600       0.0140       2.3481       0.0096       2.2033
     -6.8500       0.0140       2.3495       0.0096       2.2042
     -6.8400       0.0140       2.3509       0.0096       2.2052
     -6.8300       0.0140       2.3523       0.0096       2.2062
     -6.8200       0.0141       2.3537       0.0096       2.2071
     -6.8100       0.0141       2.3551       0.0096       2.2081
     -6.8000       0.0141       2.3565       0.0097       2.2091
     -6.7900       0.0142       2.3579       0.0097       2.2100
     -6.7800       0.0142       2.3593       0.0097       2.2110
     -6.7700       0.0142       2.3607       0.0097       2.2120
     -6.7600       0.0143       2.3622       0.0097       2.2129
     -6.7500       0.0143       2.3636       0.0097       2.2139
     -6.7400       0.0143       2.3650       0.0098       2.2149
     -6.7300       0.0143       2.3665       0.0098       2.2159
     -6.7200       0.0144       2.3679       0.0098       2.2168
     -6.7100       0.0144       2.3693       0.0098       2.2178
     -6.7000       0.0144       2.3708       0.0098       2.2188
     -6.6900       0.0145       2.3722       0.0098       2.2198
     -6.6800       0.0145       2.3737       0.0099       2.2208
     -6.6700       0.0145       2.3751       0.0099       2.2217
     -6.6600       0.0146       2.3766       0.0099       2.2227
     -6.6500       0.0146       2.3780       0.0099       2.2237
     -6.6400       0.0146       2.3795       0.0099       2.2247
     -6.6300       0.0147       2.3810       0.0099       2.2257
     -6.6200       0.0147       2.3824       0.0099       2.2267
     -6.6100       0.0147       2.3839       0.0100       2.2277
     -6.6000       0.0147       2.3854       0.0100       2.2287
     -6.5900       0.0148       2.3868       0.0100       2.2297
    -6.58000      0.01481      2.38832      0.01001      2.23069
    -6.57000      0.01484      2.38980      0.01003      2.23169
    -6.56000      0.01487      2.39128      0.01005      2.23270
    -6.55000      0.01490      2.39277      0.01006      2.23370
    -6.54000      0.01494      2.39426      0.01008      2.23471
    -6.53000      0.01497      2.39576      0.01010      2.23572
    -6.52000      0.01500      2.39726      0.01011      2.23673
    -6.51000      0.01503      2.39876      0.01013      2.23774
    -6.50000      0.01506      2.40026      0.01015      2.23875
    -6.49000      0.01510      2.40177      0.01016      2.23977
    -6.48000      0.01513      2.40328      0.01018      2.24079
    -6.47000      0.01516      2.40480      0.01020      2.24180
    -6.46000      0.01519      2.40631      0.01021      2.24283
    -6.45000      0.01523      2.40783      0.01023      2.24385
    -6.44000      0.01526      2.40936      0.01025      2.24487
    -6.43000      0.01529      2.41088      0.01027      2.24590
    -6.42000      0.01533      2.41242      0.01028      2.24692
    -6.41000      0.01536      2.41395      0.01030      2.24795
    -6.40000      0.01539      2.41549      0.01032      2.24898
    -6.39000      0.01543      2.41703      0.01033      2.25002
    -6.38000      0.01546      2.41857      0.01035      2.25105
    -6.37000      0.01549      2.42012      0.01037      2.25209
    -6.36000      0.01553      2.42167      0.01039      2.25312
    -6.35000      0.01556      2.42322      0.01040      2.25416
    -6.34000      0.01560      2.42478      0.01042      2.25520
    -6.33000      0.01563      2.42634      0.01044      2.25625
    -6.32000      0.01566      2.42791      0.01046      2.25729
    -6.31000      0.01570      2.42947      0.01047      2.25834
    -6.30000      0.01573      2.43105      0.01049      2.25939
    -6.29000      0.01577      2.43262      0.01051      2.26044
    -6.28000      0.01580      2.43420      0.01053      2.26149
    -6.27000      0.01584      2.43578      0.01054      2.26254
    -6.26000      0.01587      2.43737      0.01056      2.26360
    -6.25000      0.01591      2.43895      0.01058      2.26465
    -6.24000      0.01594      2.44055      0.01060      2.26571
    -6.23000      0.01598      2.44214      0.01062      2.26677
    -6.22000      0.01601      2.44374      0.01063      2.26783
    -6.21000      0.01605      2.44534      0.01065      2.26890
    -6.20000      0.01609      2.44695      0.01067      2.26996
    -6.19000      0.01612      2.44856      0.01069      2.27103
    -6.18000      0.01616      2.45017      0.01071      2.27210
    -6.17000      0.01619      2.45179      0.01072      2.27317
    -6.16000      0.01623      2.45341      0.01074      2.27425
    -6.15000      0.01627      2.45504      0.01076      2.27532
    -6.14000      0.01630      2.45666      0.01078      2.27640
    -6.13000      0.01634      2.45830      0.01080      2.27748
    -6.12000      0.01638      2.45993      0.01082      2.27856
    -6.11000      0.01641      2.46157      0.01083      2.27964
    -6.10000      0.01645      2.46321      0.01085      2.28072
    -6.09000      0.01649      2.46486      0.01087      2.28181
    -6.08000      0.01652      2.46651      0.01089      2.28290
    -6.07000      0.01656      2.46816      0.01091      2.28399
    -6.06000      0.01660      2.46982      0.01093      2.28508
    -6.05000      0.01664      2.47148      0.01095      2.28617
    -6.04000      0.01667      2.47315      0.01096      2.28727
    -6.03000      0.01671      2.47481      0.01098      2.28837
    -6.02000      0.01675      2.47649      0.01100      2.28946
    -6.01000      0.01679      2.47816      0.01102      2.29057
    -6.00000      0.01683      2.47984      0.01104      2.29167
    -5.99000      0.01686      2.48153      0.01106      2.29277
    -5.98000      0.01690      2.48322      0.01108      2.29388
    -5.97000      0.01694      2.48491      0.01110      2.29499
    -5.96000      0.01698      2.48660      0.01112      2.29610
    -5.95000      0.01702      2.48830      0.01114      2.29721
    -5.94000      0.01706      2.49001      0.01116      2.29833
    -5.93000      0.01710      2.49171      0.01118      2.29944
    -5.92000      0.01714      2.49342      0.01119      2.30056
    -5.91000      0.01717      2.49514      0.01121      2.30168
    -5.90000      0.01721      2.49686      0.01123      2.30280
    -5.89000      0.01725      2.49858      0.01125      2.30393
    -5.88000      0.01729      2.50031      0.01127      2.30505
    -5.87000      0.01733      2.50204      0.01129      2.30618
    -5.86000      0.01737      2.50377      0.01131      2.30731
    -5.85000      0.01741      2.50551      0.01133      2.30844
    -5.84000      0.01745      2.50726      0.01135      2.30958
    -5.83000      0.01749      2.50900      0.01137      2.31071
    -5.82000      0.01754      2.51075      0.01139      2.31185
    -5.81000      0.01758      2.51251      0.01141      2.31299
    -5.80000      0.01762      2.51427      0.01143      2.31413
    -5.79000      0.01766      2.51603      0.01145      2.31528
    -5.78000      0.01770      2.51780      0.01147      2.31642
    -5.77000      0.01774      2.51957      0.01149      2.31757
    -5.76000      0.01778      2.52135      0.01151      2.31872
    -5.75000      0.01782      2.52313      0.01153      2.31987
    -5.74000      0.01787      2.52491      0.01155      2.32103
    -5.73000      0.01791      2.52670      0.01157      2.32218
    -5.72000      0.01795      2.52849      0.01159      2.32334
    -5.71000      0.01799      2.53029      0.01161      2.32450
    -5.70000      0.01803      2.53209      0.01163      2.32567
    -5.69000      0.01808      2.53389      0.01166      2.32683
    -5.68000      0.01812      2.53570      0.01168      2.32800
    -5.67000      0.01816      2.53752      0.01170      2.32916
    -5.66000      0.01821      2.53933      0.01172      2.33033
    -5.65000      0.01825      2.54116      0.01174      2.33151
    -5.64000      0.01829      2.54298      0.01176      2.33268
    -5.63000      0.01834      2.54481      0.01178      2.33386
    -5.62000      0.01838      2.54665      0.01180      2.33504
    -5.61000      0.01842      2.54849      0.01182      2.33622
    -5.60000      0.01847      2.55033      0.01184      2.33740
    -5.59000      0.01851      2.55218      0.01186      2.33859
    -5.58000      0.01855      2.55403      0.01189      2.33977
    -5.57000      0.01860      2.55589      0.01191      2.34096
    -5.56000      0.01864      2.55775      0.01193      2.34216
    -5.55000      0.01869      2.55962      0.01195      2.34335
    -5.54000      0.01873      2.56149      0.01197      2.34455
    -5.53000      0.01878      2.56336      0.01199      2.34574
    -5.52000      0.01882      2.56524      0.01201      2.34694
    -5.51000      0.01887      2.56713      0.01204      2.34815
    -5.50000      0.01891      2.56901      0.01206      2.34935
    -5.49000      0.01896      2.57091      0.01208      2.35056
    -5.48000      0.01901      2.57281      0.01210      2.35177
    -5.47000      0.01905      2.57471      0.01212      2.35298
    -5.46000      0.01910      2.57661      0.01215      2.35419
    -5.45000      0.01914      2.57853      0.01217      2.35541
    -5.44000      0.01919      2.58044      0.01219      2.35662
    -5.43000      0.01924      2.58236      0.01221      2.35784
    -5.42000      0.01928      2.58429      0.01223      2.35907
    -5.41000      0.01933      2.58622      0.01226      2.36029
    -5.40000      0.01938      2.58815      0.01228      2.36152
    -5.39000      0.01943      2.59009      0.01230      2.36274
    -5.38000      0.01947      2.59204      0.01232      2.36398
    -5.37000      0.01952      2.59399      0.01235      2.36521
    -5.36000      0.01957      2.59594      0.01237      2.36644
    -5.35000      0.01962      2.59790      0.01239      2.36768
    -5.34000      0.01967      2.59986      0.01241      2.36892
    -5.33000      0.01971      2.60183      0.01244      2.37016
    -5.32000      0.01976      2.60380      0.01246      2.37141
    -5.31000      0.01981      2.60578      0.01248      2.37266
    -5.30000      0.01986      2.60777      0.01251      2.37391
    -5.29000      0.01991      2.60975      0.01253      2.37516
    -5.28000      0.01996      2.61175      0.01255      2.37641
    -5.27000      0.02001      2.61374      0.01257      2.37767
    -5.26000      0.02006      2.61575      0.01260      2.37892
    -5.25000      0.02011      2.61775      0.01262      2.38019
    -5.24000      0.02016      2.61977      0.01264      2.38145
    -5.23000      0.02021      2.62178      0.01267      2.38271
    -5.22000      0.02026      2.62381      0.01269      2.38398
    -5.21000      0.02031      2.62584      0.01271      2.38525
    -5.20000      0.02036      2.62787      0.01274      2.38652
    -5.19000      0.02041      2.62991      0.01276      2.38780
    -5.18000      0.02046      2.63195      0.01279      2.38908
    -5.17000      0.02051      2.63400      0.01281      2.39036
    -5.16000      0.02057      2.63605      0.01283      2.39164
    -5.15000      0.02062      2.63811      0.01286      2.39292
    -5.14000      0.02067      2.64017      0.01288      2.39421
    -5.13000      0.02072      2.64224      0.01290      2.39550
    -5.12000      0.02077      2.64432      0.01293      2.39679
    -5.11000      0.02083      2.64639      0.01295      2.39808
    -5.10000      0.02088      2.64848      0.01298      2.39938
    -5.09000      0.02093      2.65057      0.01300      2.40068
    -5.08000      0.02098      2.65266      0.01303      2.40198
    -5.07000      0.02104      2.65476      0.01305      2.40328
    -5.06000      0.02109      2.65687      0.01308      2.40459
    -5.05000      0.02115      2.65898      0.01310      2.40590
    -5.04000      0.02120      2.66110      0.01312      2.40721
    -5.03000      0.02125      2.66322      0.01315      2.40852
    -5.02000      0.02131      2.66535      0.01317      2.40984
    -5.01000      0.02136      2.66748      0.01320      2.41116
    -5.00000      0.02142      2.66962      0.01322      2.41248
    -4.99000      0.02147      2.67176      0.01325      2.41380
    -4.98000      0.02153      2.67391      0.01327      2.41513
    -4.97000      0.02158      2.67607      0.01330      2.41645
    -4.96000      0.02164      2.67823      0.01332      2.41779
    -4.95000      0.02170      2.68039      0.01335      2.41912
    -4.94000      0.02175      2.68256      0.01338      2.42045
    -4.93000      0.02181      2.68474      0.01340      2.42179
    -4.92000      0.02186      2.68692      0.01343      2.42313
    -4.91000      0.02192      2.68911      0.01345      2.42448
    -4.90000      0.02198      2.69131      0.01348      2.42582
    -4.89000      0.02204      2.69351      0.01350      2.42717
    -4.88000      0.02209      2.69571      0.01353      2.42852
    -4.87000      0.02215      2.69792      0.01355      2.42988
    -4.86000      0.02221      2.70014      0.01358      2.43123
    -4.85000      0.02227      2.70236      0.01361      2.43259
    -4.84000      0.02232      2.70459      0.01363      2.43396
    -4.83000      0.02238      2.70683      0.01366      2.43532
    -4.82000      0.02244      2.70907      0.01369      2.43669
    -4.81000      0.02250      2.71131      0.01371      2.43806
    -4.80000      0.02256      2.71357      0.01374      2.43943
    -4.79000      0.02262      2.71583      0.01376      2.44080
    -4.78000      0.02268      2.71809      0.01379      2.44218
    -4.77000      0.02274      2.72036      0.01382      2.44356
    -4.76000      0.02280      2.72264      0.01384      2.44494
    -4.75000      0.02286      2.72492      0.01387      2.44633
    -4.74000      0.02292      2.72721      0.01390      2.44772
    -4.73000      0.02298      2.72950      0.01393      2.44911
    -4.72000      0.02304      2.73180      0.01395      2.45050
    -4.71000      0.02310      2.73411      0.01398      2.45190
    -4.70000      0.02317      2.73642      0.01401      2.45330
    -4.69000      0.02323      2.73874      0.01403      2.45470
    -4.68000      0.02329      2.74106      0.01406      2.45610
    -4.67000      0.02335      2.74340      0.01409      2.45751
    -4.66000      0.02342      2.74573      0.01412      2.45892
    -4.65000      0.02348      2.74808      0.01414      2.46033
    -4.64000      0.02354      2.75043      0.01417      2.46175
    -4.63000      0.02361      2.75278      0.01420      2.46317
    -4.62000      0.02367      2.75515      0.01423      2.46459
    -4.61000      0.02373      2.75752      0.01426      2.46601
    -4.60000      0.02380      2.75989      0.01428      2.46744
    -4.59000      0.02386      2.76227      0.01431      2.46887
    -4.58000      0.02393      2.76466      0.01434      2.47030
    -4.57000      0.02399      2.76706      0.01437      2.47174
    -4.56000      0.02406      2.76946      0.01440      2.47317
    -4.55000      0.02412      2.77187      0.01442      2.47462
    -4.54000      0.02419      2.77428      0.01445      2.47606
    -4.53000      0.02425      2.77670      0.01448      2.47751
    -4.52000      0.02432      2.77913      0.01451      2.47895
    -4.51000      0.02439      2.78156      0.01454      2.48041
    -4.50000      0.02445      2.78401      0.01457      2.48186
    -4.49000      0.02452      2.78645      0.01460      2.48332
    -4.48000      0.02459      2.78891      0.01463      2.48478
    -4.47000      0.02466      2.79137      0.01466      2.48624
    -4.46000      0.02472      2.79384      0.01468      2.48771
    -4.45000      0.02479      2.79631      0.01471      2.48918
    -4.44000      0.02486      2.79879      0.01474      2.49065
    -4.43000      0.02493      2.80128      0.01477      2.49213
    -4.42000      0.02500      2.80378      0.01480      2.49361
    -4.41000      0.02507      2.80628      0.01483      2.49509
    -4.40000      0.02514      2.80879      0.01486      2.49657
    -4.39000      0.02521      2.81131      0.01489      2.49806
    -4.38000      0.02528      2.81383      0.01492      2.49955
    -4.37000      0.02535      2.81636      0.01495      2.50105
    -4.36000      0.02542      2.81890      0.01498      2.50254
    -4.35000      0.02549      2.82144      0.01501      2.50404
    -4.34000      0.02556      2.82399      0.01504      2.50554
    -4.33000      0.02563      2.82655      0.01507      2.50705
    -4.32000      0.02571      2.82912      0.01510      2.50856
    -4.31000      0.02578      2.83169      0.01513      2.51007
    -4.30000      0.02585      2.83427      0.01516      2.51158
    -4.29000      0.02592      2.83686      0.01520      2.51310
    -4.28000      0.02600      2.83945      0.01523      2.51462
    -4.27000      0.02607      2.84206      0.01526      2.51615
    -4.26000      0.02615      2.84467      0.01529      2.51767
    -4.25000      0.02622      2.84728      0.01532      2.51920
    -4.24000      0.02629      2.84991      0.01535      2.52074
    -4.23000      0.02637      2.85254      0.01538      2.52227
    -4.22000      0.02644      2.85518      0.01541      2.52381
    -4.21000      0.02652      2.85783      0.01545      2.52535
    -4.20000      0.02660      2.86048      0.01548      2.52690
    -4.19000      0.02667      2.86314      0.01551      2.52845
    -4.18000      0.02675      2.86581      0.01554      2.53000
    -4.17000      0.02683      2.86849      0.01557      2.53156
    -4.16000      0.02690      2.87118      0.01560      2.53311
    -4.15000      0.02698      2.87387      0.01564      2.53468
    -4.14000      0.02706      2.87657      0.01567      2.53624
    -4.13000      0.02714      2.87928      0.01570      2.53781
    -4.12000      0.02721      2.88200      0.01573      2.53938
    -4.11000      0.02729      2.88472      0.01577      2.54096
    -4.10000      0.02737      2.88745      0.01580      2.54253
    -4.09000      0.02745      2.89019      0.01583      2.54411
    -4.08000      0.02753      2.89294      0.01586      2.54570
    -4.07000      0.02761      2.89570      0.01590      2.54729
    -4.06000      0.02769      2.89846      0.01593      2.54888
    -4.05000      0.02777      2.90123      0.01596      2.55047
    -4.04000      0.02785      2.90401      0.01600      2.55207
    -4.03000      0.02794      2.90680      0.01603      2.55367
    -4.02000      0.02802      2.90960      0.01606      2.55527
    -4.01000      0.02810      2.91240      0.01610      2.55688
    -4.00000      0.02818      2.91522      0.01613      2.55849
    -3.99000      0.02827      2.91804      0.01616      2.56011
    -3.98000      0.02835      2.92087      0.01620      2.56173
    -3.97000      0.02843      2.92370      0.01623      2.56335
    -3.96000      0.02852      2.92655      0.01627      2.56497
    -3.95000      0.02860      2.92940      0.01630      2.56660
    -3.94000      0.02869      2.93227      0.01633      2.56823
    -3.93000      0.02877      2.93514      0.01637      2.56987
    -3.92000      0.02886      2.93802      0.01640      2.57150
    -3.91000      0.02895      2.94091      0.01644      2.57315
    -3.90000      0.02903      2.94381      0.01647      2.57479
    -3.89000      0.02912      2.94671      0.01651      2.57644
    -3.88000      0.02921      2.94963      0.01654      2.57809
    -3.87000      0.02929      2.95255      0.01658      2.57975
    -3.86000      0.02938      2.95548      0.01661      2.58141
    -3.85000      0.02947      2.95843      0.01665      2.58307
    -3.84000      0.02956      2.96138      0.01668      2.58474
    -3.83000      0.02965      2.96433      0.01672      2.58641
    -3.82000      0.02974      2.96730      0.01676      2.58808
    -3.81000      0.02983      2.97028      0.01679      2.58976
    -3.80000      0.02992      2.97327      0.01683      2.59144
    -3.79000      0.03001      2.97626      0.01686      2.59312
    -3.78000      0.03010      2.97926      0.01690      2.59481
    -3.77000      0.03019      2.98228      0.01694      2.59650
    -3.76000      0.03028      2.98530      0.01697      2.59819
    -3.75000      0.03038      2.98833      0.01701      2.59989
    -3.74000      0.03047      2.99137      0.01704      2.60160
    -3.73000      0.03056      2.99442      0.01708      2.60330
    -3.72000      0.03066      2.99748      0.01712      2.60501
    -3.71000      0.03075      3.00055      0.01716      2.60672
    -3.70000      0.03085      3.00363      0.01719      2.60844
    -3.69000      0.03094      3.00672      0.01723      2.61016
    -3.68000      0.03104      3.00982      0.01727      2.61189
    -3.67000      0.03113      3.01292      0.01730      2.61361
    -3.66000      0.03123      3.01604      0.01734      2.61535
    -3.65000      0.03133      3.01917      0.01738      2.61708
    -3.64000      0.03142      3.02230      0.01742      2.61882
    -3.63000      0.03152      3.02545      0.01746      2.62056
    -3.62000      0.03162      3.02860      0.01749      2.62231
    -3.61000      0.03172      3.03177      0.01753      2.62406
    -3.60000      0.03182      3.03494      0.01757      2.62582
    -3.59000      0.03192      3.03813      0.01761      2.62758
    -3.58000      0.03202      3.04132      0.01765      2.62934
    -3.57000      0.03212      3.04453      0.01769      2.63110
    -3.56000      0.03222      3.04774      0.01772      2.63287
    -3.55000      0.03232      3.05097      0.01776      2.63465
    -3.54000      0.03242      3.05421      0.01780      2.63643
    -3.53000      0.03253      3.05745      0.01784      2.63821
    -3.52000      0.03263      3.06071      0.01788      2.63999
    -3.51000      0.03273      3.06397      0.01792      2.64178
    -3.50000      0.03284      3.06725      0.01796      2.64358
    -3.49000      0.03294      3.07054      0.01800      2.64537
    -3.48000      0.03305      3.07384      0.01804      2.64718
    -3.47000      0.03315      3.07714      0.01808      2.64898
    -3.46000      0.03326      3.08046      0.01812      2.65079
    -3.45000      0.03336      3.08379      0.01816      2.65260
    -3.44000      0.03347      3.08713      0.01820      2.65442
    -3.43000      0.03358      3.09048      0.01824      2.65624
    -3.42000      0.03369      3.09385      0.01828      2.65807
    -3.41000      0.03380      3.09722      0.01832      2.65990
    -3.40000      0.03391      3.10060      0.01836      2.66173
    -3.39000      0.03402      3.10400      0.01840      2.66357
    -3.38000      0.03413      3.10740      0.01845      2.66541
    -3.37000      0.03424      3.11082      0.01849      2.66726
    -3.36000      0.03435      3.11424      0.01853      2.66911
    -3.35000      0.03446      3.11768      0.01857      2.67096
    -3.34000      0.03457      3.12113      0.01861      2.67282
    -3.33000      0.03468      3.12459      0.01865      2.67469
    -3.32000      0.03480      3.12807      0.01870      2.67655
    -3.31000      0.03491      3.13155      0.01874      2.67842
    -3.30000      0.03503      3.13504      0.01878      2.68030
    -3.29000      0.03514      3.13855      0.01882      2.68218
    -3.28000      0.03526      3.14207      0.01887      2.68406
    -3.27000      0.03537      3.14560      0.01891      2.68595
    -3.26000      0.03549      3.14914      0.01895      2.68784
    -3.25000      0.03561      3.15269      0.01899      2.68974
    -3.24000      0.03573      3.15626      0.01904      2.69164
    -3.23000      0.03585      3.15983      0.01908      2.69355
    -3.22000      0.03596      3.16342      0.01912      2.69546
    -3.21000      0.03608      3.16702      0.01917      2.69737
    -3.20000      0.03620      3.17064      0.01921      2.69929
    -3.19000      0.03633      3.17426      0.01926      2.70121
    -3.18000      0.03645      3.17790      0.01930      2.70314
    -3.17000      0.03657      3.18155      0.01934      2.70507
    -3.16000      0.03669      3.18521      0.01939      2.70701
    -3.15000      0.03682      3.18888      0.01943      2.70895
    -3.14000      0.03694      3.19257      0.01948      2.71089
    -3.13000      0.03706      3.19626      0.01952      2.71284
    -3.12000      0.03719      3.19998      0.01957      2.71480
    -3.11000      0.03732      3.20370      0.01961      2.71676
    -3.10000      0.03744      3.20743      0.01966      2.71872
    -3.09000      0.03757      3.21118      0.01970      2.72069
    -3.08000      0.03770      3.21494      0.01975      2.72266
    -3.07000      0.03783      3.21872      0.01980      2.72464
    -3.06000      0.03796      3.22250      0.01984      2.72662
    -3.05000      0.03809      3.22630      0.01989      2.72860
    -3.04000      0.03822      3.23012      0.01994      2.73059
    -3.03000      0.03835      3.23394      0.01998      2.73259
    -3.02000      0.03848      3.23778      0.02003      2.73459
    -3.01000      0.03861      3.24163      0.02008      2.73659
    -3.00000      0.03875      3.24550      0.02012      2.73860
    -2.99000      0.03888      3.24938      0.02017      2.74062
    -2.98000      0.03901      3.25327      0.02022      2.74264
    -2.97000      0.03915      3.25718      0.02026      2.74466
    -2.96000      0.03929      3.26110      0.02031      2.74669
    -2.95000      0.03942      3.26503      0.02036      2.74872
    -2.94000      0.03956      3.26898      0.02041      2.75076
    -2.93000      0.03970      3.27294      0.02046      2.75280
    -2.92000      0.03984      3.27691      0.02050      2.75485
    -2.91000      0.03998      3.28090      0.02055      2.75690
    -2.90000      0.04012      3.28490      0.02060      2.75896
    -2.89000      0.04026      3.28892      0.02065      2.76102
    -2.88000      0.04040      3.29295      0.02070      2.76309
    -2.87000      0.04054      3.29699      0.02075      2.76516
    -2.86000      0.04069      3.30105      0.02080      2.76724
    -2.85000      0.04083      3.30513      0.02085      2.76932
    -2.84000      0.04098      3.30921      0.02090      2.77140
    -2.83000      0.04112      3.31332      0.02095      2.77350
    -2.82000      0.04127      3.31743      0.02100      2.77559
    -2.81000      0.04142      3.32156      0.02105      2.77769
    -2.80000      0.04156      3.32571      0.02110      2.77980
    -2.79000      0.04171      3.32987      0.02115      2.78191
    -2.78000      0.04186      3.33405      0.02120      2.78403
    -2.77000      0.04201      3.33824      0.02125      2.78615
    -2.76000      0.04216      3.34245      0.02130      2.78828
    -2.75000      0.04232      3.34667      0.02135      2.79041
    -2.74000      0.04247      3.35090      0.02141      2.79255
    -2.73000      0.04262      3.35516      0.02146      2.79469
    -2.72000      0.04278      3.35942      0.02151      2.79684
    -2.71000      0.04293      3.36371      0.02156      2.79899
    -2.70000      0.04309      3.36800      0.02161      2.80115
    -2.69000      0.04325      3.37232      0.02167      2.80331
    -2.68000      0.04341      3.37665      0.02172      2.80548
    -2.67000      0.04356      3.38099      0.02177      2.80765
    -2.66000      0.04372      3.38535      0.02183      2.80983
    -2.65000      0.04388      3.38973      0.02188      2.81202
    -2.64000      0.04405      3.39413      0.02193      2.81421
    -2.63000      0.04421      3.39854      0.02199      2.81640
    -2.62000      0.04437      3.40296      0.02204      2.81860
    -2.61000      0.04454      3.40740      0.02209      2.82081
    -2.60000      0.04470      3.41186      0.02215      2.82302
    -2.59000      0.04487      3.41634      0.02220      2.82524
    -2.58000      0.04503      3.42083      0.02226      2.82746
    -2.57000      0.04520      3.42534      0.02231      2.82969
    -2.56000      0.04537      3.42986      0.02237      2.83192
    -2.55000      0.04554      3.43441      0.02242      2.83416
    -2.54000      0.04571      3.43897      0.02248      2.83641
    -2.53000      0.04588      3.44354      0.02253      2.83865
    -2.52000      0.04606      3.44814      0.02259      2.84091
    -2.51000      0.04623      3.45275      0.02265      2.84317
    -2.50000      0.04641      3.45738      0.02270      2.84544
    -2.49000      0.04658      3.46202      0.02276      2.84771
    -2.48000      0.04676      3.46669      0.02282      2.84999
    -2.47000      0.04694      3.47137      0.02287      2.85227
    -2.46000      0.04711      3.47607      0.02293      2.85456
    -2.45000      0.04729      3.48078      0.02299      2.85686
    -2.44000      0.04747      3.48552      0.02305      2.85916
    -2.43000      0.04766      3.49027      0.02310      2.86147
    -2.42000      0.04784      3.49504      0.02316      2.86378
    -2.41000      0.04802      3.49983      0.02322      2.86610
    -2.40000      0.04821      3.50464      0.02328      2.86842
    -2.39000      0.04839      3.50947      0.02334      2.87075
    -2.38000      0.04858      3.51431      0.02340      2.87309
    -2.37000      0.04877      3.51918      0.02346      2.87543
    -2.36000      0.04896      3.52406      0.02352      2.87778
    -2.35000      0.04915      3.52896      0.02358      2.88013
    -2.34000      0.04934      3.53388      0.02364      2.88249
    -2.33000      0.04953      3.53882      0.02370      2.88486
    -2.32000      0.04973      3.54378      0.02376      2.88723
    -2.31000      0.04992      3.54876      0.02382      2.88960
    -2.30000      0.05012      3.55376      0.02388      2.89199
    -2.29000      0.05032      3.55877      0.02394      2.89438
    -2.28000      0.05051      3.56381      0.02400      2.89677
    -2.27000      0.05071      3.56887      0.02406      2.89918
    -2.26000      0.05091      3.57395      0.02412      2.90159
    -2.25000      0.05112      3.57904      0.02419      2.90400
    -2.24000      0.05132      3.58416      0.02425      2.90642
    -2.23000      0.05152      3.58930      0.02431      2.90885
    -2.22000      0.05173      3.59446      0.02437      2.91128
    -2.21000      0.05194      3.59964      0.02444      2.91372
    -2.20000      0.05214      3.60484      0.02450      2.91617
    -2.19000      0.05235      3.61006      0.02456      2.91862
    -2.18000      0.05256      3.61530      0.02463      2.92108
    -2.17000      0.05278      3.62056      0.02469      2.92354
    -2.16000      0.05299      3.62585      0.02475      2.92601
    -2.15000      0.05320      3.63115      0.02482      2.92849
    -2.14000      0.05342      3.63648      0.02488      2.93098
    -2.13000      0.05364      3.64183      0.02495      2.93347
    -2.12000      0.05385      3.64720      0.02501      2.93596
    -2.11000      0.05407      3.65259      0.02508      2.93847
    -2.10000      0.05430      3.65800      0.02515      2.94098
    -2.09000      0.05452      3.66344      0.02521      2.94350
    -2.08000      0.05474      3.66890      0.02528      2.94602
    -2.07000      0.05497      3.67438      0.02534      2.94855
    -2.06000      0.05519      3.67988      0.02541      2.95109
    -2.05000      0.05542      3.68541      0.02548      2.95363
    -2.04000      0.05565      3.69096      0.02555      2.95618
    -2.03000      0.05588      3.69653      0.02561      2.95874
    -2.02000      0.05611      3.70212      0.02568      2.96130
    -2.01000      0.05635      3.70774      0.02575      2.96387
    -2.00000      0.05658      3.71338      0.02582      2.96645
    -1.99000      0.05682      3.71905      0.02589      2.96903
    -1.98000      0.05706      3.72474      0.02596      2.97163
    -1.97000      0.05730      3.73045      0.02603      2.97422
    -1.96000      0.05754      3.73619      0.02610      2.97683
    -1.95000      0.05778      3.74195      0.02617      2.97944
    -1.94000      0.05802      3.74773      0.02624      2.98206
    -1.93000      0.05827      3.75354      0.02631      2.98468
    -1.92000      0.05852      3.75938      0.02638      2.98732
    -1.91000      0.05877      3.76523      0.02645      2.98996
    -1.90000      0.05902      3.77112      0.02652      2.99261
    -1.89000      0.05927      3.77703      0.02659      2.99526
    -1.88000      0.05952      3.78296      0.02666      2.99792
    -1.87000      0.05978      3.78892      0.02673      3.00059
    -1.86000      0.06003      3.79491      0.02681      3.00327
    -1.85000      0.06029      3.80092      0.02688      3.00595
    -1.84000      0.06055      3.80695      0.02695      3.00864
    -1.83000      0.06082      3.81302      0.02703      3.01134
    -1.82000      0.06108      3.81910      0.02710      3.01404
    -1.81000      0.06134      3.82522      0.02717      3.01676
    -1.80000      0.06161      3.83136      0.02725      3.01948
    -1.79000      0.06188      3.83753      0.02732      3.02220
    -1.78000      0.06215      3.84373      0.02740      3.02494
    -1.77000      0.06242      3.84995      0.02747      3.02768
    -1.76000      0.06270      3.85620      0.02755      3.03043
    -1.75000      0.06297      3.86248      0.02762      3.03319
    -1.74000      0.06325      3.86878      0.02770      3.03595
    -1.73000      0.06353      3.87512      0.02778      3.03873
    -1.72000      0.06381      3.88148      0.02785      3.04151
    -1.71000      0.06410      3.88787      0.02793      3.04430
    -1.70000      0.06438      3.89428      0.02801      3.04709
    -1.69000      0.06467      3.90073      0.02809      3.04990
    -1.68000      0.06496      3.90720      0.02816      3.05271
    -1.67000      0.06525      3.91371      0.02824      3.05553
    -1.66000      0.06554      3.92024      0.02832      3.05835
    -1.65000      0.06584      3.92680      0.02840      3.06119
    -1.64000      0.06613      3.93340      0.02848      3.06403
    -1.63000      0.06643      3.94002      0.02856      3.06688
    -1.62000      0.06674      3.94667      0.02864      3.06974
    -1.61000      0.06704      3.95335      0.02872      3.07261
    -1.60000      0.06734      3.96006      0.02880      3.07548
    -1.59000      0.06765      3.96681      0.02888      3.07837
    -1.58000      0.06796      3.97358      0.02896      3.08126
    -1.57000      0.06827      3.98038      0.02905      3.08416
    -1.56000      0.06859      3.98722      0.02913      3.08706
    -1.55000      0.06890      3.99409      0.02921      3.08998
    -1.54000      0.06922      4.00099      0.02929      3.09290
    -1.53000      0.06954      4.00792      0.02938      3.09584
    -1.52000      0.06986      4.01488      0.02946      3.09878
    -1.51000      0.07019      4.02187      0.02954      3.10173
    -1.50000      0.07051      4.02890      0.02963      3.10468
    -1.49000      0.07084      4.03596      0.02971      3.10765
    -1.48000      0.07117      4.04305      0.02980      3.11062
    -1.47000      0.07151      4.05018      0.02988      3.11361
    -1.46000      0.07184      4.05734      0.02997      3.11660
    -1.45000      0.07218      4.06453      0.03006      3.11960
    -1.44000      0.07252      4.07176      0.03014      3.12261
    -1.43000      0.07287      4.07902      0.03023      3.12562
    -1.42000      0.07321      4.08632      0.03032      3.12865
    -1.41000      0.07356      4.09365      0.03040      3.13168
    -1.40000      0.07391      4.10101      0.03049      3.13473
    -1.39000      0.07427      4.10842      0.03058      3.13778
    -1.38000      0.07462      4.11585      0.03067      3.14084
    -1.37000      0.07498      4.12332      0.03076      3.14391
    -1.36000      0.07534      4.13083      0.03085      3.14699
    -1.35000      0.07571      4.13837      0.03094      3.15008
    -1.34000      0.07607      4.14595      0.03103      3.15317
    -1.33000      0.07644      4.15357      0.03112      3.15628
    -1.32000      0.07681      4.16122      0.03121      3.15940
    -1.31000      0.07719      4.16891      0.03130      3.16252
    -1.30000      0.07756      4.17664      0.03139      3.16565
    -1.29000      0.07794      4.18441      0.03149      3.16880
    -1.28000      0.07833      4.19221      0.03158      3.17195
    -1.27000      0.07871      4.20006      0.03167      3.17511
    -1.26000      0.07910      4.20794      0.03177      3.17828
    -1.25000      0.07949      4.21586      0.03186      3.18146
    -1.24000      0.07989      4.22382      0.03195      3.18465
    -1.23000      0.08028      4.23181      0.03205      3.18785
    -1.22000      0.08068      4.23985      0.03215      3.19106
    -1.21000      0.08109      4.24793      0.03224      3.19427
    -1.20000      0.08149      4.25605      0.03234      3.19750
    -1.19000      0.08190      4.26421      0.03243      3.20074
    -1.18000      0.08232      4.27241      0.03253      3.20399
    -1.17000      0.08273      4.28065      0.03263      3.20724
    -1.16000      0.08315      4.28894      0.03273      3.21051
    -1.15000      0.08357      4.29726      0.03282      3.21378
    -1.14000      0.08400      4.30563      0.03292      3.21707
    -1.13000      0.08442      4.31404      0.03302      3.22037
    -1.12000      0.08486      4.32249      0.03312      3.22367
    -1.11000      0.08529      4.33099      0.03322      3.22699
    -1.10000      0.08573      4.33953      0.03332      3.23031
    -1.09000      0.08617      4.34811      0.03342      3.23365
    -1.08000      0.08661      4.35674      0.03353      3.23700
    -1.07000      0.08706      4.36541      0.03363      3.24035
    -1.06000      0.08752      4.37413      0.03373      3.24372
    -1.05000      0.08797      4.38289      0.03383      3.24710
    -1.04000      0.08843      4.39170      0.03394      3.25048
    -1.03000      0.08889      4.40055      0.03404      3.25388
    -1.02000      0.08936      4.40945      0.03415      3.25729
    -1.01000      0.08983      4.41840      0.03425      3.26070
    -1.00000      0.09030      4.42739      0.03436      3.26413
    -0.99000      0.09078      4.43644      0.03446      3.26757
    -0.98000      0.09126      4.44553      0.03457      3.27102
    -0.97000      0.09175      4.45466      0.03468      3.27448
    -0.96000      0.09223      4.46385      0.03478      3.27796
    -0.95000      0.09273      4.47308      0.03489      3.28144
    -0.94000      0.09322      4.48237      0.03500      3.28493
    -0.93000      0.09373      4.49170      0.03511      3.28843
    -0.92000      0.09423      4.50109      0.03522      3.29195
    -0.91000      0.09474      4.51052      0.03533      3.29547
    -0.90000      0.09525      4.52001      0.03544      3.29901
    -0.89000      0.09577      4.52954      0.03555      3.30256
    -0.88000      0.09629      4.53913      0.03566      3.30612
    -0.87000      0.09682      4.54877      0.03577      3.30969
    -0.86000      0.09735      4.55847      0.03589      3.31327
    -0.85000      0.09788      4.56821      0.03600      3.31686
    -0.84000      0.09842      4.57801      0.03611      3.32046
    -0.83000      0.09896      4.58787      0.03623      3.32408
    -0.82000      0.09951      4.59778      0.03634      3.32771
    -0.81000      0.10006      4.60774      0.03646      3.33134
    -0.80000      0.10062      4.61776      0.03657      3.33499
    -0.79000      0.10118      4.62783      0.03669      3.33865
    -0.78000      0.10175      4.63796      0.03681      3.34233
    -0.77000      0.10232      4.64815      0.03692      3.34601
    -0.76000      0.10289      4.65839      0.03704      3.34971
    -0.75000      0.10348      4.66870      0.03716      3.35342
    -0.74000      0.10406      4.67906      0.03728      3.35714
    -0.73000      0.10465      4.68948      0.03740      3.36087
    -0.72000      0.10525      4.69995      0.03752      3.36461
    -0.71000      0.10585      4.71049      0.03764      3.36837
    -0.70000      0.10645      4.72109      0.03776      3.37214
    -0.69000      0.10707      4.73175      0.03789      3.37592
    -0.68000      0.10768      4.74247      0.03801      3.37971
    -0.67000      0.10830      4.75325      0.03813      3.38352
    -0.66000      0.10893      4.76409      0.03826      3.38733
    -0.65000      0.10956      4.77500      0.03838      3.39116
    -0.64000      0.11020      4.78597      0.03851      3.39500
    -0.63000      0.11085      4.79700      0.03863      3.39886
    -0.62000      0.11150      4.80810      0.03876      3.40273
    -0.61000      0.11215      4.81926      0.03889      3.40661
    -0.60000      0.11281      4.83049      0.03901      3.41050
    -0.59000      0.11348      4.84179      0.03914      3.41441
    -0.58000      0.11415      4.85315      0.03927      3.41832
    -0.57000      0.11483      4.86458      0.03940      3.42226
    -0.56000      0.11552      4.87607      0.03953      3.42620
    -0.55000      0.11621      4.88764      0.03966      3.43016
    -0.54000      0.11690      4.89927      0.03979      3.43413
    -0.53000      0.11761      4.91098      0.03993      3.43811
    -0.52000      0.11832      4.92275      0.04006      3.44211
    -0.51000      0.11903      4.93460      0.04019      3.44612
    -0.50000      0.11976      4.94652      0.04033      3.45014
    -0.49000      0.12049      4.95851      0.04046      3.45418
    -0.48000      0.12122      4.97057      0.04060      3.45823
    -0.47000      0.12196      4.98271      0.04073      3.46229
    -0.46000      0.12271      4.99492      0.04087      3.46637
    -0.45000      0.12347      5.00720      0.04101      3.47046
    -0.44000      0.12423      5.01956      0.04115      3.47457
    -0.43000      0.12501      5.03200      0.04129      3.47869
    -0.42000      0.12578      5.04452      0.04143      3.48282
    -0.41000      0.12657      5.05711      0.04157      3.48697
    -0.40000      0.12736      5.06978      0.04171      3.49113
    -0.39000      0.12816      5.08253      0.04185      3.49530
    -0.38000      0.12897      5.09536      0.04199      3.49949
    -0.37000      0.12978      5.10827      0.04214      3.50370
    -0.36000      0.13061      5.12127      0.04228      3.50792
    -0.35000      0.13144      5.13434      0.04243      3.51215
    -0.34000      0.13228      5.14750      0.04257      3.51640
    -0.33000      0.13312      5.16075      0.04272      3.52066
    -0.32000      0.13398      5.17407      0.04286      3.52493
    -0.31000      0.13484      5.18749      0.04301      3.52923
    -0.30000      0.13571      5.20099      0.04316      3.53353
    -0.29000      0.13659      5.21457      0.04331      3.53785
    -0.28000      0.13748      5.22825      0.04346      3.54219
    -0.27000      0.13838      5.24201      0.04361      3.54654
    -0.26000      0.13929      5.25587      0.04376      3.55091
    -0.25000      0.14020      5.26981      0.04392      3.55529
    -0.24000      0.14113      5.28385      0.04407      3.55968
    -0.23000      0.14206      5.29797      0.04423      3.56410
    -0.22000      0.14300      5.31220      0.04438      3.56852
    -0.21000      0.14395      5.32651      0.04454      3.57297
    -0.20000      0.14492      5.34092      0.04469      3.57743
    -0.19000      0.14589      5.35543      0.04485      3.58190
    -0.18000      0.14687      5.37004      0.04501      3.58639
    -0.17000      0.14786      5.38474      0.04517      3.59090
    -0.16000      0.14886      5.39954      0.04533      3.59542
    -0.15000      0.14987      5.41444      0.04549      3.59996
    -0.14000      0.15089      5.42945      0.04565      3.60451
    -0.13000      0.15193      5.44455      0.04582      3.60908
    -0.12000      0.15297      5.45976      0.04598      3.61367
    -0.11000      0.15402      5.47508      0.04614      3.61827
    -0.10000      0.15509      5.49049      0.04631      3.62289
    -0.09000      0.15616      5.50602      0.04648      3.62753
    -0.08000      0.15725      5.52165      0.04664      3.63218
    -0.07000      0.15835      5.53739      0.04681      3.63685
    -0.06000      0.15946      5.55324      0.04698      3.64154
    -0.05000      0.16058      5.56921      0.04715      3.64624
    -0.04000      0.16171      5.58528      0.04732      3.65096
    -0.03000      0.16286      5.60147      0.04749      3.65570
    -0.02000      0.16401      5.61777      0.04767      3.66045
     -0.0100       0.1652       5.6342       0.0478       3.6652
     0.00000      0.16637      5.65072      0.04802      3.67002
      0.0100       0.1676       5.6674       0.0482       3.6748
     0.02000      0.16877      5.68415      0.04837      3.67965
     0.03000      0.16999      5.70105      0.04855      3.68449
     0.04000      0.17123      5.71806      0.04872      3.68935
     0.05000      0.17247      5.73520      0.04890      3.69423
     0.06000      0.17373      5.75247      0.04908      3.69912
     0.07000      0.17501      5.76986      0.04927      3.70404
     0.08000      0.17630      5.78737      0.04945      3.70897
     0.09000      0.17760      5.80502      0.04963      3.71392
     0.10000      0.17892      5.82280      0.04982      3.71889
     0.11000      0.18026      5.84071      0.05000      3.72388
     0.12000      0.18160      5.85875      0.05019      3.72888
     0.13000      0.18297      5.87693      0.05038      3.73391
     0.14000      0.18435      5.89524      0.05057      3.73895
     0.15000      0.18574      5.91369      0.05076      3.74402
     0.16000      0.18715      5.93228      0.05095      3.74910
     0.17000      0.18858      5.95101      0.05114      3.75420
     0.18000      0.19002      5.96989      0.05134      3.75932
     0.19000      0.19148      5.98891      0.05153      3.76446
     0.20000      0.19295      6.00807      0.05173      3.76962
     0.21000      0.19445      6.02739      0.05192      3.77480
     0.22000      0.19596      6.04685      0.05212      3.77999
     0.23000      0.19749      6.06646      0.05232      3.78521
     0.24000      0.19903      6.08622      0.05252      3.79045
     0.25000      0.20060      6.10615      0.05272      3.79571
     0.26000      0.20218      6.12622      0.05292      3.80099
     0.27000      0.20378      6.14646      0.05313      3.80628
     0.28000      0.20540      6.16685      0.05333      3.81160
     0.29000      0.20704      6.18741      0.05354      3.81694
     0.30000      0.20870      6.20813      0.05374      3.82230
     0.31000      0.21038      6.22901      0.05395      3.82768
     0.32000      0.21208      6.25007      0.05416      3.83309
     0.33000      0.21380      6.27129      0.05437      3.83851
     0.34000      0.21555      6.29269      0.05459      3.84395
     0.35000      0.21731      6.31426      0.05480      3.84942
     0.36000      0.21910      6.33601      0.05501      3.85490
     0.37000      0.22090      6.35793      0.05523      3.86041
     0.38000      0.22273      6.38004      0.05545      3.86594
     0.39000      0.22458      6.40233      0.05567      3.87149
     0.40000      0.22646      6.42480      0.05589      3.87707
     0.41000      0.22836      6.44746      0.05611      3.88266
     0.42000      0.23028      6.47031      0.05633      3.88828
     0.43000      0.23223      6.49336      0.05655      3.89392
     0.44000      0.23420      6.51660      0.05678      3.89958
     0.45000      0.23620      6.54003      0.05701      3.90527
     0.46000      0.23822      6.56367      0.05723      3.91097
     0.47000      0.24027      6.58750      0.05746      3.91670
     0.48000      0.24235      6.61155      0.05769      3.92246
     0.49000      0.24445      6.63579      0.05793      3.92823
     0.50000      0.24658      6.66025      0.05816      3.93403
     0.51000      0.24874      6.68492      0.05839      3.93985
     0.52000      0.25093      6.70981      0.05863      3.94570
     0.53000      0.25314      6.73492      0.05887      3.95157
     0.54000      0.25539      6.76024      0.05911      3.95747
     0.55000      0.25767      6.78580      0.05935      3.96338
     0.56000      0.25997      6.81157      0.05959      3.96933
     0.57000      0.26231      6.83758      0.05984      3.97529
     0.58000      0.26468      6.86383      0.06008      3.98128
     0.59000      0.26708      6.89030      0.06033      3.98730
     0.60000      0.26951      6.91702      0.06058      3.99334
     0.61000      0.27198      6.94398      0.06083      3.99940
     0.62000      0.27448      6.97119      0.06108      4.00549
     0.63000      0.27701      6.99865      0.06133      4.01161
     0.64000      0.27958      7.02636      0.06158      4.01775
     0.65000      0.28219      7.05433      0.06184      4.02391
     0.66000      0.28483      7.08255      0.06210      4.03010
     0.67000      0.28751      7.11105      0.06236      4.03632
     0.68000      0.29023      7.13980      0.06262      4.04257
     0.69000      0.29299      7.16883      0.06288      4.04884
     0.70000      0.29579      7.19814      0.06315      4.05513
     0.71000      0.29862      7.22772      0.06341      4.06145
     0.72000      0.30150      7.25759      0.06368      4.06780
     0.73000      0.30442      7.28775      0.06395      4.07418
     0.74000      0.30738      7.31819      0.06422      4.08058
     0.75000      0.31039      7.34893      0.06449      4.08701
     0.76000      0.31344      7.37998      0.06477      4.09347
     0.77000      0.31653      7.41132      0.06505      4.09995
     0.78000      0.31968      7.44298      0.06532      4.10646
     0.79000      0.32286      7.47495      0.06560      4.11301
     0.80000      0.32610      7.50723      0.06589      4.11957
     0.81000      0.32938      7.53984      0.06617      4.12617
     0.82000      0.33272      7.57278      0.06646      4.13280
     0.83000      0.33610      7.60605      0.06674      4.13945
     0.84000      0.33954      7.63965      0.06703      4.14613
     0.85000      0.34303      7.67360      0.06732      4.15284
     0.86000      0.34658      7.70790      0.06762      4.15958
     0.87000      0.35018      7.74255      0.06791      4.16635
     0.88000      0.35383      7.77756      0.06821      4.17315
     0.89000      0.35755      7.81293      0.06851      4.17998
     0.90000      0.36132      7.84868      0.06881      4.18684
     0.91000      0.36515      7.88480      0.06911      4.19373
     0.92000      0.36904      7.92130      0.06942      4.20065
     0.93000      0.37300      7.95819      0.06973      4.20760
     0.94000      0.37702      7.99547      0.07003      4.21458
     0.95000      0.38110      8.03316      0.07035      4.22159
     0.96000      0.38526      8.07125      0.07066      4.22864
     0.97000      0.38948      8.10976      0.07097      4.23571
     0.98000      0.39376      8.14868      0.07129      4.24282
     0.99000      0.39813      8.18804      0.07161      4.24996
     1.00000      0.40256      8.22782      0.07193      4.25713
     1.01000      0.40707      8.26805      0.07226      4.26433
     1.02000      0.41165      8.30873      0.07258      4.27156
     1.03000      0.41631      8.34986      0.07291      4.27883
     1.04000      0.42105      8.39146      0.07324      4.28613
     1.05000      0.42588      8.43353      0.07358      4.29346
     1.06000      0.43078      8.47608      0.07391      4.30083
     1.07000      0.43577      8.51912      0.07425      4.30823
     1.08000      0.44085      8.56265      0.07459      4.31567
     1.09000      0.44602      8.60670      0.07493      4.32313
     1.10000      0.45128      8.65125      0.07528      4.33064
     1.11000      0.45663      8.69633      0.07563      4.33817
     1.12000      0.46208      8.74194      0.07598      4.34575
     1.13000      0.46762      8.78809      0.07633      4.35335
     1.14000      0.47327      8.83479      0.07668      4.36100
     1.15000      0.47902      8.88206      0.07704      4.36867
     1.16000      0.48487      8.92990      0.07740      4.37639
     1.17000      0.49083      8.97832      0.07776      4.38414
     1.18000      0.49690      9.02733      0.07813      4.39192
     1.19000      0.50309      9.07694      0.07849      4.39974
     1.20000      0.50939      9.12717      0.07886      4.40760
     1.21000      0.51581      9.17803      0.07924      4.41550
     1.22000      0.52235      9.22952      0.07961      4.42343
     1.23000      0.52902      9.28166      0.07999      4.43140
     1.24000      0.53582      9.33447      0.08037      4.43941
     1.25000      0.54274      9.38795      0.08075      4.44746
     1.26000      0.54981      9.44212      0.08114      4.45555
     1.27000      0.55701      9.49698      0.08153      4.46367
     1.28000      0.56435      9.55257      0.08192      4.47183
     1.29000      0.57184      9.60888      0.08232      4.48003
     1.30000      0.57948      9.66593      0.08271      4.48828
     1.31000      0.58727      9.72375      0.08311      4.49656
     1.32000      0.59522      9.78233      0.08352      4.50488
     1.33000      0.60334      9.84171      0.08392      4.51324
     1.34000      0.61162      9.90189      0.08433      4.52164
     1.35000      0.62007      9.96289      0.08475      4.53009
     1.36000      0.62869     10.02472      0.08516      4.53857
     1.37000      0.63750     10.08742      0.08558      4.54710
     1.38000      0.64650     10.15098      0.08600      4.55567
     1.39000      0.65568     10.21544      0.08643      4.56428
     1.40000      0.66507     10.28080      0.08685      4.57293
     1.41000      0.67465     10.34710      0.08729      4.58163
     1.42000      0.68444     10.41434      0.08772      4.59037
     1.43000      0.69445     10.48256      0.08816      4.59915
     1.44000      0.70468     10.55176      0.08860      4.60798
     1.45000      0.71514     10.62197      0.08904      4.61685
     1.46000      0.72583     10.69322      0.08949      4.62576
     1.47000      0.73676     10.76553      0.08994      4.63472
     1.48000      0.74794     10.83891      0.09040      4.64373
     1.49000      0.75937     10.91340      0.09086      4.65278
     1.50000      0.77107     10.98902      0.09132      4.66188
     1.51000      0.78304     11.06580      0.09178      4.67102
     1.52000      0.79530     11.14376      0.09225      4.68021
     1.53000      0.80784     11.22293      0.09273      4.68945
     1.54000      0.82068     11.30333      0.09320      4.69873
     1.55000      0.83382     11.38500      0.09368      4.70806
     1.56000      0.84729     11.46797      0.09417      4.71744
     1.57000      0.86108     11.55227      0.09465      4.72687
     1.58000      0.87521     11.63792      0.09514      4.73635
     1.59000      0.88969     11.72497      0.09564      4.74587
     1.60000      0.90453     11.81344      0.09614      4.75545
     1.61000      0.91975     11.90337      0.09664      4.76508
     1.62000      0.93535     11.99480      0.09715      4.77475
     1.63000      0.95135     12.08776      0.09766      4.78448
     1.64000      0.96777     12.18230      0.09817      4.79426
     1.65000      0.98461     12.27845      0.09869      4.80409
     1.66000      1.00190     12.37626      0.09922      4.81397
     1.67000      1.01964     12.47576      0.09974      4.82390
     1.68000      1.03786     12.57701      0.10028      4.83389
     1.69000      1.05657     12.68004      0.10081      4.84393
     1.70000      1.07578     12.78491      0.10135      4.85402
     1.71000      1.09553     12.89166      0.10190      4.86417
     1.72000      1.11582     13.00034      0.10245      4.87437
     1.73000      1.13668     13.11101      0.10300      4.88463
     1.74000      1.15813     13.22373      0.10356      4.89494
     1.75000      1.18019     13.33854      0.10412      4.90531
     1.76000      1.20288     13.45550      0.10469      4.91574
     1.77000      1.22624     13.57469      0.10526      4.92622
     1.78000      1.25027     13.69615      0.10584      4.93676
     1.79000      1.27502     13.81996      0.10642      4.94735
     1.80000      1.30051     13.94618      0.10701      4.95801
     1.81000      1.32677     14.07489      0.10760      4.96872
     1.82000      1.35382     14.20615      0.10820      4.97950
     1.83000      1.38171     14.34004      0.10880      4.99033
     1.84000      1.41047     14.47665      0.10941      5.00122
     1.85000      1.44013     14.61605      0.11002      5.01218
     1.86000      1.47074     14.75834      0.11064      5.02319
     1.87000      1.50233     14.90359      0.11126      5.03427
     1.88000      1.53494     15.05189      0.11189      5.04541
     1.89000      1.56862     15.20338      0.11252      5.05661
     1.90000      1.60342     15.35810      0.11316      5.06788
     1.91000      1.63938     15.51619      0.11380      5.07921
     1.92000      1.67656     15.67776      0.11445      5.09060
     1.93000      1.71501     15.84291      0.11511      5.10206
     1.94000      1.75480     16.01176      0.11577      5.11358
     1.95000      1.79598     16.18444      0.11643      5.12517
     1.96000      1.83862     16.36109      0.11711      5.13683
     1.97000      1.88278     16.54183      0.11778      5.14856
     1.98000      1.92856     16.72680      0.11847      5.16035
     1.99000      1.97601     16.91616      0.11916      5.17221
     2.00000      2.02522     17.11006      0.11985      5.18414
     2.01000      2.07629     17.30865      0.12056      5.19614
     2.02000      2.12931     17.51213      0.12127      5.20821
     2.03000      2.18436     17.72064      0.12198      5.22035
     2.04000      2.24157     17.93440      0.12270      5.23256
     2.05000      2.30104     18.15358      0.12343      5.24485
     2.06000      2.36290     18.37841      0.12417      5.25721
     2.07000      2.42727     18.60908      0.12491      5.26964
     2.08000      2.49428     18.84583      0.12566      5.28214
     2.09000      2.56409     19.08890      0.12641      5.29472
     2.10000      2.63686     19.33853      0.12717      5.30738
     2.11000      2.71274     19.59499      0.12794      5.32011
     2.12000      2.79192     19.85856      0.12872      5.33292
     2.13000      2.87459     20.12952      0.12950      5.34581
     2.14000      2.96096     20.40819      0.13029      5.35877
     2.15000      3.05125     20.69489      0.13109      5.37182
     2.16000      3.14570     20.98995      0.13189      5.38494
     2.17000      3.24456     21.29374      0.13270      5.39814
     2.18000      3.34812     21.60664      0.13352      5.41143
     2.19000      3.45667     21.92906      0.13435      5.42480
     2.20000      3.57053     22.26140      0.13519      5.43825
     2.21000      3.69006     22.60414      0.13603      5.45178
     2.22000      3.81562     22.95773      0.13688      5.46540
     2.23000      3.94764     23.32269      0.13774      5.47910
     2.24000      4.08656     23.69956      0.13861      5.49289
     2.25000      4.23285     24.08888      0.13948      5.50677
     2.26000      4.38706     24.49131      0.14037      5.52074
     2.27000      4.54974     24.90740      0.14126      5.53479
     2.28000      4.72152     25.33787      0.14216      5.54893
     2.29000      4.90308     25.78344      0.14307      5.56316
     2.30000      5.09517     26.24487      0.14399      5.57749
     2.31000      5.29861     26.72297      0.14492      5.59190
     2.32000      5.51429     27.21861      0.14586      5.60641
     2.33000      5.74321     27.73270      0.14680      5.62101
     2.34000      5.98645     28.26622      0.14776      5.63571
     2.35000      6.24520     28.82021      0.14872      5.65050
     2.36000      6.52079     29.39577      0.14970      5.66539
     2.37000      6.81468     29.99409      0.15068      5.68038
     2.38000      7.12850     30.61641      0.15168      5.69546
     2.39000      7.46404     31.26407      0.15268      5.71064
     2.40000      7.82332     31.93847      0.15369      5.72593
     2.41000      8.20857     32.64113      0.15472      5.74132
     2.42000      8.62228     33.37363      0.15575      5.75680
     2.43000      9.06726     34.13766      0.15680      5.77240
     2.44000      9.54664     34.93501      0.15785      5.78809
     2.45000     10.06395     35.76753      0.15892      5.80390
     2.46000     10.62317     36.63720      0.16000      5.81980
     2.47000     11.22880     37.54605      0.16109      5.83582
     2.48000     11.88591     38.49620      0.16219      5.85195
     2.49000     12.60028     39.48982      0.16330      5.86818
     2.50000     13.37845     40.52911      0.16442      5.88453
     2.51000     14.22790     41.61624      0.16556      5.90099
     2.52000     15.15716     42.75332      0.16670      5.91756
     2.53000     16.17599     43.94234      0.16786      5.93425
     2.54000     17.29558     45.18500      0.16903      5.95105
     2.55000     18.52878     46.48262      0.17022      5.96797
     2.56000     19.89038     47.83592      0.17141      5.98501
     2.57000     21.39739     49.24478      0.17262      6.00217
     2.58000     23.06943     50.70783      0.17384      6.01945
     2.59000     24.92908     52.22196      0.17508      6.03685
     2.60000     27.00236     53.78174      0.17632      6.05438
     2.61000     29.31912     55.37843      0.17759      6.07203
     2.62000     31.91371     56.99903      0.17886      6.08980
     2.63000     34.82449     58.62416      0.18015      6.10771
     2.64000     38.09527     60.22680      0.18145      6.12574
     2.65000     41.77427     61.76915      0.18277      6.14390
     2.66000     45.91364     63.19937      0.18410      6.16220
     2.67000     50.56764     64.44741      0.18545      6.18063
     2.68000     55.78924     65.42007      0.18681      6.19919
     2.69000     61.62434     65.99547      0.18819      6.21789
     2.70000     68.10253     66.01781      0.18958      6.23672
     2.71000     75.22322     65.29365      0.19099      6.25570
     2.72000     82.93640     63.59253      0.19241      6.27482
     2.73000     91.11839     60.65569      0.19385      6.29408
     2.74000     99.54533     56.21835      0.19531      6.31348
      2.7500     107.8719      50.0500       0.1968       6.3330
      2.7600     115.6274      42.0137       0.1983       6.3527
      2.7700     122.2445      32.1365       0.1998       6.3726
      2.7800     127.1323      20.6682       0.2013       6.3926
      2.7900     129.7867       8.1002       0.2028       6.4127
      2.8000     129.9085      -4.8839       0.2044       6.4330
      2.8100     127.4838     -17.5224       0.2060       6.4535
      2.8200     122.7871     -29.1186       0.2076       6.4741
      2.8300     116.3080     -39.1601       0.2092       6.4949
      2.8400     108.6344     -47.3738       0.2108       6.5158
      2.8500     100.3397     -53.7142       0.2125       6.5369
     2.86000     91.90546    -58.30552      0.21417      6.55817
     2.87000     83.68913    -61.37244      0.21586      6.57960
     2.88000     75.92522    -63.17851      0.21757      6.60120
     2.89000     68.74570    -63.98422      0.21931      6.62298
     2.90000     62.20644    -64.02328      0.22107      6.64493
     2.91000     56.31176    -63.49272      0.22284      6.66705
     2.92000     51.03424    -62.55177      0.22464      6.68935
     2.93000     46.32906    -61.32525      0.22647      6.71183
     2.94000     42.14361    -59.90887      0.22831      6.73449
     2.95000     38.42359    -58.37461      0.23018      6.75734
     2.96000     35.11657    -56.77584      0.23207      6.78038
     2.97000     32.17388    -55.15153      0.23398      6.80360
     2.98000     29.55149    -53.52969      0.23592      6.82701
     2.99000     27.20998    -51.93000      0.23788      6.85062
     3.00000     25.11518    -50.36634      0.23987      6.87442
     3.01000     23.23664    -48.84766      0.24188      6.89843
     3.02000     21.54802    -47.37968      0.24392      6.92263
     3.03000     20.02642    -45.96569      0.24598      6.94704
     3.04000     18.65195    -44.60719      0.24807      6.97165
     3.05000     17.40738    -43.30442      0.25019      6.99647
     3.06000     16.27771    -42.05673      0.25234      7.02150
     3.07000     15.24991    -40.86283      0.25451      7.04675
     3.08000     14.31265    -39.72104      0.25671      7.07222
     3.09000     13.45605    -38.62939      0.25894      7.09790
     3.10000     12.67146    -37.58578      0.26120      7.12381
     3.11000     11.95133    -36.58803      0.26349      7.14994
     3.12000     11.28902    -35.63394      0.26581      7.17630
     3.13000     10.67871    -34.72134      0.26816      7.20290
     3.14000     10.11525    -33.84810      0.27055      7.22973
     3.15000      9.59410    -33.01218      0.27296      7.25679
     3.16000      9.11125    -32.21161      0.27541      7.28410
     3.17000      8.66313    -31.44451      0.27789      7.31165
     3.18000      8.24655    -30.70910      0.28041      7.33945
     3.19000      7.85870    -30.00368      0.28296      7.36750
     3.20000      7.49704    -29.32667      0.28555      7.39581
     3.21000      7.15933    -28.67654      0.28817      7.42437
     3.22000      6.84352    -28.05188      0.29083      7.45320
     3.23000      6.54781    -27.45135      0.29352      7.48229
     3.24000      6.27055    -26.87368      0.29626      7.51165
     3.25000      6.01025    -26.31770      0.29903      7.54128
     3.26000      5.76560    -25.78229      0.30184      7.57119
     3.27000      5.53537    -25.26640      0.30469      7.60138
     3.28000      5.31848    -24.76906      0.30759      7.63186
     3.29000      5.11392    -24.28933      0.31052      7.66262
     3.30000      4.92079    -23.82636      0.31350      7.69368
     3.31000      4.73826    -23.37933      0.31652      7.72503
     3.32000      4.56559    -22.94746      0.31959      7.75669
     3.33000      4.40208    -22.53003      0.32270      7.78865
     3.34000      4.24710    -22.12637      0.32585      7.82092
     3.35000      4.10007    -21.73580      0.32906      7.85351
     3.36000      3.96048    -21.35779      0.33231      7.88641
     3.37000      3.82783    -20.99173      0.33561      7.91964
     3.38000      3.70167    -20.63708      0.33896      7.95320
     3.39000      3.58158    -20.29333      0.34236      7.98710
     3.40000      3.46720    -19.96003      0.34582      8.02133
     3.41000      3.35816    -19.63669      0.34932      8.05591
     3.42000      3.25415    -19.32291      0.35288      8.09083
     3.43000      3.15485    -19.01827      0.35650      8.12611
     3.44000      3.06000    -18.72240      0.36017      8.16176
     3.45000      2.96932    -18.43493      0.36390      8.19776
     3.46000      2.88259    -18.15552      0.36769      8.23414
     3.47000      2.79958    -17.88384      0.37154      8.27090
     3.48000      2.72008    -17.61959      0.37545      8.30804
     3.49000      2.64389    -17.36246      0.37943      8.34558
     3.50000      2.57084    -17.11220      0.38346      8.38350
     3.51000      2.50076    -16.86852      0.38757      8.42183
     3.52000      2.43348    -16.63118      0.39174      8.46057
     3.53000      2.36887    -16.39995      0.39597      8.49972
     3.54000      2.30679    -16.17458      0.40028      8.53930
     3.55000      2.24709    -15.95487      0.40466      8.57930
     3.56000      2.18968    -15.74061      0.40911      8.61975
     3.57000      2.13442    -15.53161      0.41364      8.66063
     3.58000      2.08122    -15.32767      0.41824      8.70197
     3.59000      2.02997    -15.12861      0.42293      8.74376
     3.60000      1.98058    -14.93428      0.42769      8.78602
     3.61000      1.93297    -14.74450      0.43253      8.82875
     3.62000      1.88704    -14.55910      0.43746      8.87197
     3.63000      1.84272    -14.37799      0.44247      8.91567
     3.64000      1.79994    -14.20095      0.44757      8.95988
     3.65000      1.75863    -14.02791      0.45276      9.00459
     3.66000      1.71871    -13.85868      0.45804      9.04982
     3.67000      1.68014    -13.69320      0.46342      9.09557
     3.68000      1.64283    -13.53129      0.46889      9.14186
     3.69000      1.60676    -13.37289      0.47446      9.18869
     3.70000      1.57186    -13.21784      0.48013      9.23608
     3.71000      1.53807    -13.06608      0.48590      9.28403
     3.72000      1.50536    -12.91746      0.49178      9.33255
     3.73000      1.47368    -12.77194      0.49777      9.38166
     3.74000      1.44299    -12.62937      0.50387      9.43137
     3.75000      1.41324    -12.48971      0.51009      9.48167
     3.76000      1.38439    -12.35283      0.51642      9.53260
     3.77000      1.35642    -12.21869      0.52287      9.58416
     3.78000      1.32929    -12.08718      0.52944      9.63636
     3.79000      1.30296    -11.95824      0.53614      9.68920
     3.80000      1.27740    -11.83178      0.54297      9.74272
     3.81000      1.25258    -11.70775      0.54993      9.79691
     3.82000      1.22848    -11.58606      0.55703      9.85180
     3.83000      1.20506    -11.46667      0.56427      9.90738
     3.84000      1.18231    -11.34949      0.57165      9.96369
     3.85000      1.16019    -11.23449      0.57918     10.02073
     3.86000      1.13868    -11.12157      0.58686     10.07852
     3.87000      1.11777    -11.01072      0.59470     10.13706
     3.88000      1.09742    -10.90184      0.60269     10.19639
     3.89000      1.07763    -10.79492      0.61085     10.25651
     3.90000      1.05836    -10.68987      0.61918     10.31744
     3.91000      1.03960    -10.58665      0.62769     10.37919
     3.92000      1.02134    -10.48525      0.63637     10.44178
     3.93000      1.00355    -10.38558      0.64523     10.50524
     3.94000      0.98623    -10.28762      0.65428     10.56957
     3.95000      0.96934    -10.19131      0.66353     10.63480
     3.96000      0.95289    -10.09663      0.67298     10.70094
     3.97000      0.93685    -10.00351      0.68263     10.76802
     3.98000      0.92121     -9.91194      0.69249     10.83605
     3.99000      0.90595     -9.82186      0.70257     10.90507
     4.00000      0.89108     -9.73326      0.71288     10.97507
     4.01000      0.87656     -9.64607      0.72342     11.04610
     4.02000      0.86240     -9.56030      0.73419     11.11816
     4.03000      0.84857     -9.47587      0.74521     11.19130
     4.04000      0.83508     -9.39279      0.75648     11.26551
     4.05000      0.82190     -9.31099      0.76802     11.34085
     4.06000      0.80904     -9.23047      0.77982     11.41731
     4.07000      0.79647     -9.15118      0.79190     11.49495
     4.08000      0.78419     -9.07312      0.80427     11.57378
     4.09000      0.77219     -8.99623      0.81693     11.65383
     4.10000      0.76047     -8.92050      0.82990     11.73512
     4.11000      0.74901     -8.84590      0.84318     11.81770
     4.12000      0.73780     -8.77242      0.85678     11.90158
     4.13000      0.72685     -8.70000      0.87073     11.98681
     4.14000      0.71614     -8.62866      0.88502     12.07340
     4.15000      0.70566     -8.55835      0.89967     12.16141
     4.16000      0.69541     -8.48905      0.91469     12.25085
     4.17000      0.68538     -8.42074      0.93009     12.34178
     4.18000      0.67557     -8.35342      0.94589     12.43420
     4.19000      0.66596     -8.28703      0.96211     12.52820
     4.20000      0.65656     -8.22158      0.97874     12.62377
     4.21000      0.64736     -8.15703      0.99582     12.72099
     4.22000      0.63835     -8.09339      1.01336     12.81988
     4.23000      0.62952     -8.03061      1.03137     12.92049
     4.24000      0.62087     -7.96870      1.04986     13.02286
     4.25000      0.61241     -7.90761      1.06887     13.12705
     4.26000      0.60411     -7.84736      1.08840     13.23309
     4.27000      0.59598     -7.78791      1.10849     13.34106
     4.28000      0.58802     -7.72924      1.12914     13.45100
     4.29000      0.58021     -7.67136      1.15037     13.56293
     4.30000      0.57255     -7.61423      1.17223     13.67695
     4.31000      0.56505     -7.55785      1.19471     13.79309
     4.32000      0.55769     -7.50220      1.21786     13.91145
     4.33000      0.55048     -7.44727      1.24170     14.03204
     4.34000      0.54340     -7.39303      1.26625     14.15498
     4.35000      0.53646     -7.33949      1.29155     14.28028
     4.36000      0.52966     -7.28662      1.31762     14.40806
     4.37000      0.52298     -7.23442      1.34450     14.53836
     4.38000      0.51642     -7.18286      1.37222     14.67130
     4.39000      0.50999     -7.13195      1.40082     14.80690
     4.40000      0.50368     -7.08165      1.43034     14.94529
     4.41000      0.49748     -7.03199      1.46080     15.08653
     4.42000      0.49140     -6.98292      1.49227     15.23074
     4.43000      0.48543     -6.93445      1.52477     15.37796
     4.44000      0.47956     -6.88655      1.55837     15.52835
     4.45000      0.47381     -6.83924      1.59310     15.68195
     4.46000      0.46815     -6.79248      1.62902     15.83894
     4.47000      0.46260     -6.74628      1.66618     15.99935
     4.48000      0.45714     -6.70061      1.70465     16.16336
     4.49000      0.45178     -6.65549      1.74448     16.33105
     4.50000      0.44651     -6.61088      1.78574     16.50258
     4.51000      0.44133     -6.56680      1.82850     16.67804
     4.52000      0.43625     -6.52321      1.87284     16.85761
     4.53000      0.43125     -6.48013      1.91882     17.04140
     4.54000      0.42634     -6.43753      1.96655     17.22960
     4.55000      0.42151     -6.39542      2.01610     17.42231
     4.56000      0.41676     -6.35377      2.06758     17.61977
     4.57000      0.41209     -6.31260      2.12107     17.82209
     4.58000      0.40750     -6.27187      2.17670     18.02951
     4.59000      0.40298     -6.23161      2.23456     18.24215
     4.60000      0.39854     -6.19177      2.29480     18.46029
     4.61000      0.39417     -6.15238      2.35753     18.68408
     4.62000      0.38988     -6.11342      2.42292     18.91379
     4.63000      0.38565     -6.07487      2.49109     19.14964
     4.64000      0.38149     -6.03674      2.56221     19.39183
     4.65000      0.37740     -5.99901      2.63646     19.64069
     4.66000      0.37338     -5.96170      2.71402     19.89644
     4.67000      0.36941     -5.92477      2.79511     20.15941
     4.68000      0.36552     -5.88823      2.87991     20.42986
     4.69000      0.36168     -5.85207      2.96869     20.70817
     4.70000      0.35790     -5.81629      3.06168     20.99460
     4.71000      0.35418     -5.78088      3.15917     21.28960
     4.72000      0.35052     -5.74584      3.26143     21.59347
     4.73000      0.34691     -5.71116      3.36880     21.90668
     4.74000      0.34337     -5.67683      3.48161     22.22956
     4.75000      0.33987     -5.64284      3.60026     22.56268
     4.76000      0.33643     -5.60921      3.72513     22.90640
     4.77000      0.33304     -5.57590      3.85669     23.26134
     4.78000      0.32970     -5.54294      3.99539     23.62791
     4.79000      0.32641     -5.51030      4.14181     24.00680
     4.80000      0.32317     -5.47798      4.29647     24.39850
     4.81000      0.31997     -5.44598      4.46006     24.80377
     4.82000      0.31683     -5.41430      4.63322     25.22316
     4.83000      0.31373     -5.38292      4.81678     25.65753
     4.84000      0.31068     -5.35186      5.01151     26.10750
     4.85000      0.30767     -5.32108      5.21841     26.57405
     4.86000      0.30470     -5.29061      5.43843     27.05788
     4.87000      0.30178     -5.26043      5.67277     27.56007
     4.88000      0.29889     -5.23054      5.92262     28.08146
     4.89000      0.29605     -5.20092      6.18945     28.62324
     4.90000      0.29325     -5.17159      6.47473     29.18634
     4.91000      0.29049     -5.14253      6.78028     29.77210
     4.92000      0.28777     -5.11375      7.10793     30.38160
     4.93000      0.28509     -5.08523      7.45997     31.01633
     4.94000      0.28244     -5.05698      7.83869     31.67744
     4.95000      0.27983     -5.02899      8.24696     32.36662
     4.96000      0.27726     -5.00126      8.68773     33.08512
     4.97000      0.27472     -4.97377      9.16462     33.83476
     4.98000      0.27221     -4.94655      9.68141     34.61690
     4.99000      0.26974     -4.91956     10.24275     35.43343
     5.00000      0.26731     -4.89282     10.85364     36.28587
     5.01000      0.26490     -4.86632     11.51976     37.17566
     5.02000      0.26253     -4.84005     12.24796     38.10463
     5.03000      0.26019     -4.81402     13.04557     39.07385
     5.04000      0.25788     -4.78822     13.92155     40.08475
     5.05000      0.25560     -4.76265     14.88557     41.13776
     5.06000      0.25336     -4.73730     15.94942     42.23339
     5.07000      0.25114     -4.71217     17.12594     43.37070
     5.08000      0.24895     -4.68726     18.43067     44.54833
     5.09000      0.24679     -4.66257     19.88059     45.76260
     5.10000      0.24465     -4.63809     21.49613     47.00851
     5.11000      0.24255     -4.61383     23.29950     48.27732
     5.12000      0.24047     -4.58976     25.31704     49.55722
     5.13000      0.23842     -4.56591     27.57695     50.83025
     5.14000      0.23639     -4.54225     30.11172     52.07232
     5.15000      0.23439     -4.51880     32.95464     53.24935
     5.16000      0.23242     -4.49554     36.14172     54.31619
     5.17000      0.23047     -4.47248     39.70572     55.21205
     5.18000      0.22854     -4.44961     43.67610     55.85849
     5.19000      0.22664     -4.42694     48.06821     56.15539
     5.20000      0.22476     -4.40444     52.87922     55.98020
     5.21000      0.22291     -4.38214     58.06999     55.18935
     5.22000      0.22107     -4.36001     63.55636     53.62551
     5.23000      0.21927     -4.33807     69.18765     51.13544
     5.24000      0.21748     -4.31631     74.74419     47.59539
     5.25000      0.21571     -4.29472     79.93436     42.95237
     5.26000      0.21397     -4.27331     84.42824     37.25919
     5.27000      0.21225     -4.25207     87.90321     30.70732
     5.28000      0.21054     -4.23100     90.11874     23.61494
     5.29000      0.20886     -4.21010     90.97504     16.38920
     5.30000      0.20720     -4.18936     90.54553      9.43886
     5.31000      0.20556     -4.16879     89.05679      3.09986
     5.32000      0.20393     -4.14838     86.82875     -2.43155
     5.33000      0.20233     -4.12813     84.20094     -7.10708
     5.34000      0.20075     -4.10803     81.46432    -11.01229
     5.35000      0.19918     -4.08810     78.82261    -14.31715
     5.36000      0.19763     -4.06832     76.37243    -17.23178
     5.37000      0.19610     -4.04869     74.10966    -19.95612
     5.38000      0.19459     -4.02922     71.94728    -22.64315
     5.39000      0.19309     -4.00989     69.74601    -25.37234
     5.40000      0.19162     -3.99071     67.35760    -28.13480
     5.41000      0.19016     -3.97168     64.66427    -30.84537
     5.42000      0.18871     -3.95279     61.61413    -33.36816
     5.43000      0.18728     -3.93404     58.22922    -35.56056
     5.44000      0.18587     -3.91544     54.59761    -37.30791
     5.45000      0.18448     -3.89698     50.84133    -38.54869
     5.46000      0.18310     -3.87865     47.09058    -39.27559
     5.47000      0.18173     -3.86046     43.45571    -39.52603
     5.48000      0.18038     -3.84241     40.02050    -39.36422
     5.49000      0.17905     -3.82448     36.83574    -38.86538
     5.50000      0.17773     -3.80669     33.92789    -38.10406
     5.51000      0.17642     -3.78903     31.30165    -37.14684
     5.52000      0.17513     -3.77151     28.95021    -36.05015
     5.53000      0.17385     -3.75410     26.85728    -34.85875
     5.54000      0.17259     -3.73683     25.00411    -33.60800
     5.55000      0.17134     -3.71967     23.36942    -32.32387
     5.56000      0.17011     -3.70265     21.93358    -31.02620
     5.57000      0.16888     -3.68574     20.67738    -29.72849
     5.58000      0.16768     -3.66896     19.58443    -28.44093
     5.59000      0.16648     -3.65229     18.63977    -27.16969
     5.60000      0.16530     -3.63575     17.83129    -25.91951
     5.61000      0.16412     -3.61932     17.14848    -24.69266
     5.62000      0.16297     -3.60301     16.58337    -23.49112
     5.63000      0.16182     -3.58681     16.12956    -22.31544
     5.64000      0.16068     -3.57072     15.78288    -21.16667
     5.65000      0.15956     -3.55475     15.54064    -20.04515
     5.66000      0.15845     -3.53889     15.40211    -18.95240
     5.67000      0.15735     -3.52313     15.36812    -17.88996
     5.68000      0.15626     -3.50749     15.44112    -16.86130
     5.69000      0.15519     -3.49196     15.62512    -15.87087
     5.70000      0.15412     -3.47653     15.92531    -14.92610
     5.71000      0.15307     -3.46120     16.34810    -14.03682
     5.72000      0.15202     -3.44599     16.90005    -13.21735
     5.73000      0.15099     -3.43087     17.58754    -12.48639
     5.74000      0.14997     -3.41585     18.41471    -11.86894
     5.75000      0.14896     -3.40094     19.38133    -11.39664
     5.76000      0.14795     -3.38613     20.48025    -11.10789
     5.77000      0.14696     -3.37142     21.69201    -11.04724
     5.78000      0.14598     -3.35681     22.98149    -11.26206
     5.79000      0.14501     -3.34229     24.29199    -11.79632
     5.80000      0.14404     -3.32787     25.54463    -12.68130
     5.81000      0.14309     -3.31354     26.63972    -13.92249
     5.82000      0.14215     -3.29931     27.46873    -15.48862
     5.83000      0.14121     -3.28518     27.93100    -17.30364
     5.84000      0.14029     -3.27113     27.95673    -19.25321
     5.85000      0.13937     -3.25718     27.52423    -21.19945
     5.86000      0.13847     -3.24332     26.66571    -23.00881
     5.87000      0.13757     -3.22955     25.45883    -24.57375
     5.88000      0.13668     -3.21586     24.00607    -25.82943
     5.89000      0.13580     -3.20227     22.41456    -26.75341
     5.90000      0.13492     -3.18876     20.77775    -27.35900
     5.91000      0.13406     -3.17534     19.16877    -27.68151
     5.92000      0.13320     -3.16200     17.63682    -27.76715
     5.93000      0.13236     -3.14875     16.21203    -27.66361
     5.94000      0.13152     -3.13558     14.90819    -27.41494
     5.95000      0.13069     -3.12250     13.72920    -27.05903
     5.96000      0.12986     -3.10950     12.67136    -26.62670
     5.97000      0.12905     -3.09658     11.72782    -26.14258
     5.98000      0.12824     -3.08374     10.88923    -25.62539
     5.99000      0.12744     -3.07098     10.14626    -25.08969
     6.00000      0.12664     -3.05830      9.48932    -24.54607
     6.01000      0.12586     -3.04570      8.90994    -24.00277
     6.02000      0.12508     -3.03318      8.40014    -23.46568
     6.03000      0.12431     -3.02074      7.95319    -22.93960
     6.04000      0.12354     -3.00837      7.56295    -22.42804
     6.05000      0.12279     -2.99607      7.22430    -21.93433
     6.06000      0.12203     -2.98386      6.93249    -21.46119
     6.07000      0.12129     -2.97171      6.68331    -21.01166
     6.08000      0.12055     -2.95964      6.47240    -20.58866
     6.09000      0.11982     -2.94765      6.29523    -20.19557
     6.10000      0.11910     -2.93572      6.14642    -19.83555
     6.11000      0.11838     -2.92387      6.01949    -19.51167
     6.12000      0.11767     -2.91209      5.90664    -19.22595
     6.13000      0.11697     -2.90038      5.79875    -18.97849
     6.14000      0.11627     -2.88874      5.68625    -18.76683
     6.15000      0.11558     -2.87716      5.56018    -18.58513
     6.16000      0.11489     -2.86566      5.41398    -18.42476
     6.17000      0.11422     -2.85422      5.24458    -18.27519
     6.18000      0.11354     -2.84286      5.05312    -18.12611
     6.19000      0.11287     -2.83155      4.84412    -17.96899
     6.20000      0.11221     -2.82032      4.62432    -17.79841
     6.21000      0.11156     -2.80915      4.40078    -17.61209
     6.22000      0.11091     -2.79805      4.17994    -17.41046
     6.23000      0.11026     -2.78701      3.96661    -17.19562
     6.24000      0.10962     -2.77603      3.76411    -16.97060
     6.25000      0.10899     -2.76512      3.57420    -16.73851
     6.26000      0.10836     -2.75427      3.39764    -16.50236
     6.27000      0.10774     -2.74348      3.23429    -16.26457
     6.28000      0.10712     -2.73276      3.08365    -16.02725
     6.29000      0.10651     -2.72209      2.94484    -15.79186
     6.30000      0.10591     -2.71149      2.81694    -15.55963
     6.31000      0.10530     -2.70095      2.69895    -15.33129
     6.32000      0.10471     -2.69046      2.58995    -15.10749
     6.33000      0.10412     -2.68004      2.48902    -14.88851
     6.34000      0.10353     -2.66967      2.39538    -14.67461
     6.35000      0.10295     -2.65936      2.30827    -14.46585
     6.36000      0.10237     -2.64912      2.22708    -14.26227
     6.37000      0.10180     -2.63892      2.15120    -14.06379
     6.38000      0.10123     -2.62879      2.08013    -13.87037
     6.39000      0.10067     -2.61871      2.01342    -13.68185
     6.40000      0.10012     -2.60868      1.95067    -13.49814
     6.41000      0.09956     -2.59871      1.89152    -13.31906
     6.42000      0.09901     -2.58880      1.83567    -13.14449
     6.43000      0.09847     -2.57894      1.78283    -12.97425
     6.44000      0.09793     -2.56914      1.73276    -12.80823
     6.45000      0.09740     -2.55938      1.68523    -12.64622
     6.46000      0.09687     -2.54968      1.64005    -12.48811
     6.47000      0.09634     -2.54004      1.59705    -12.33379
     6.48000      0.09582     -2.53045      1.55605    -12.18305
     6.49000      0.09530     -2.52090      1.51693    -12.03584
     6.50000      0.09479     -2.51141      1.47955    -11.89195
     6.51000      0.09428     -2.50197      1.44380    -11.75133
     6.52000      0.09377     -2.49258      1.40955    -11.61381
     6.53000      0.09327     -2.48325      1.37674    -11.47932
     6.54000      0.09277     -2.47396      1.34525    -11.34772
     6.55000      0.09228     -2.46472      1.31501    -11.21894
     6.56000      0.09179     -2.45553      1.28595    -11.09285
     6.57000      0.09131     -2.44639      1.25799    -10.96939
     6.58000      0.09082     -2.43729      1.23108    -10.84844
     6.59000      0.09035     -2.42825      1.20516    -10.72996
     6.60000      0.08987     -2.41925      1.18017    -10.61382
     6.61000      0.08940     -2.41030      1.15607    -10.49998
     6.62000      0.08894     -2.40139      1.13281    -10.38833
     6.63000      0.08847     -2.39253      1.11034    -10.27884
     6.64000      0.08801     -2.38372      1.08862    -10.17141
     6.65000      0.08756     -2.37495      1.06763    -10.06601
     6.66000      0.08711     -2.36623      1.04732     -9.96254
     6.67000      0.08666     -2.35756      1.02766     -9.86098
     6.68000      0.08621     -2.34892      1.00862     -9.76123
     6.69000      0.08577     -2.34034      0.99018     -9.66328
     6.70000      0.08533     -2.33179      0.97230     -9.56704
     6.71000      0.08490     -2.32329      0.95497     -9.47249
     6.72000      0.08446     -2.31483      0.93815     -9.37955
     6.73000      0.08404     -2.30642      0.92183     -9.28821
     6.74000      0.08361     -2.29805      0.90599     -9.19840
     6.75000      0.08319     -2.28972      0.89060     -9.11009
     6.76000      0.08277     -2.28143      0.87565     -9.02323
     6.77000      0.08235     -2.27319      0.86112     -8.93780
     6.78000      0.08194     -2.26498      0.84700     -8.85373
     6.79000      0.08153     -2.25682      0.83326     -8.77101
     6.80000      0.08113     -2.24870      0.81989     -8.68959
     6.81000      0.08072     -2.24061      0.80689     -8.60944
     6.82000      0.08032     -2.23257      0.79423     -8.53053
     6.83000      0.07992     -2.22457      0.78190     -8.45282
     6.84000      0.07953     -2.21661      0.76989     -8.37631
     6.85000      0.07914     -2.20868      0.75819     -8.30093
     6.86000      0.07875     -2.20080      0.74680     -8.22667
     6.87000      0.07836     -2.19295      0.73568     -8.15350
     6.88000      0.07798     -2.18514      0.72485     -8.08140
     6.89000      0.07760     -2.17737      0.71429     -8.01033
     6.90000      0.07722     -2.16964      0.70398     -7.94029
     6.91000      0.07685     -2.16195      0.69393     -7.87122
     6.92000      0.07648     -2.15429      0.68412     -7.80313
     6.93000      0.07611     -2.14667      0.67454     -7.73597
     6.94000      0.07574     -2.13909      0.66520     -7.66974
     6.95000      0.07538     -2.13154      0.65607     -7.60441
     6.96000      0.07502     -2.12403      0.64715     -7.53996
     6.97000      0.07466     -2.11655      0.63844     -7.47636
     6.98000      0.07430     -2.10912      0.62994     -7.41361
     6.99000      0.07395     -2.10171      0.62162     -7.35168
     7.00000      0.07360     -2.09434      0.61350     -7.29055
     7.01000      0.07325     -2.08701      0.60556     -7.23020
     7.02000      0.07290     -2.07971      0.59779     -7.17063
     7.03000      0.07256     -2.07244      0.59020     -7.11180
     7.04000      0.07222     -2.06521      0.58278     -7.05371
     7.05000      0.07188     -2.05802      0.57551     -6.99633
     7.06000      0.07154     -2.05085      0.56841     -6.93966
     7.07000      0.07121     -2.04372      0.56146     -6.88368
     7.08000      0.07087     -2.03663      0.55466     -6.82837
     7.09000      0.07054     -2.02957      0.54801     -6.77372
     7.10000      0.07022     -2.02254      0.54150     -6.71972
     7.11000      0.06989     -2.01554      0.53512     -6.66634
     7.12000      0.06957     -2.00857      0.52888     -6.61359
     7.13000      0.06925     -2.00164      0.52277     -6.56144
     7.14000      0.06893     -1.99474      0.51679     -6.50989
     7.15000      0.06862     -1.98787      0.51094     -6.45891
     7.16000      0.06830     -1.98103      0.50520     -6.40851
     7.17000      0.06799     -1.97422      0.49958     -6.35866
     7.18000      0.06768     -1.96744      0.49408     -6.30937
     7.19000      0.06737     -1.96070      0.48869     -6.26060
     7.20000      0.06707     -1.95398      0.48341     -6.21235
     7.21000      0.06676     -1.94730      0.47824     -6.16463
     7.22000      0.06646     -1.94064      0.47317     -6.11741
     7.23000      0.06616     -1.93402      0.46821     -6.07068
     7.24000      0.06587     -1.92742      0.46334     -6.02443
     7.25000      0.06557     -1.92086      0.45858     -5.97866
     7.26000      0.06528     -1.91432      0.45391     -5.93335
     7.27000      0.06499     -1.90782      0.44933     -5.88851
     7.28000      0.06470     -1.90134      0.44484     -5.84410
     7.29000      0.06441     -1.89489      0.44045     -5.80013
     7.30000      0.06412     -1.88847      0.43614     -5.75659
     7.31000      0.06384     -1.88208      0.43192     -5.71348
     7.32000      0.06356     -1.87571      0.42778     -5.67077
     7.33000      0.06328     -1.86938      0.42372     -5.62848
     7.34000      0.06300     -1.86307      0.41975     -5.58657
     7.35000      0.06272     -1.85679      0.41585     -5.54505
     7.36000      0.06245     -1.85054      0.41203     -5.50392
     7.37000      0.06218     -1.84431      0.40829     -5.46316
     7.38000      0.06191     -1.83811      0.40463     -5.42276
     7.39000      0.06164     -1.83194      0.40103     -5.38272
     7.40000      0.06137     -1.82580      0.39751     -5.34303
     7.41000      0.06110     -1.81968      0.39406     -5.30369
     7.42000      0.06084     -1.81359      0.39068     -5.26469
     7.43000      0.06058     -1.80752      0.38737     -5.22602
     7.44000      0.06032     -1.80149      0.38413     -5.18766
     7.45000      0.06006     -1.79547      0.38095     -5.14963
     7.46000      0.05980     -1.78948      0.37784     -5.11191
     7.47000      0.05955     -1.78352      0.37480     -5.07449
     7.48000      0.05929     -1.77759      0.37181     -5.03737
     7.49000      0.05904     -1.77168      0.36889     -5.00055
     7.50000      0.05879     -1.76579      0.36603     -4.96401
     7.51000      0.05854     -1.75993      0.36324     -4.92775
     7.52000      0.05829     -1.75409      0.36050     -4.89176
     7.53000      0.05805     -1.74828      0.35782     -4.85605
     7.54000      0.05780     -1.74249      0.35520     -4.82059
     7.55000      0.05756     -1.73673      0.35264     -4.78539
     7.56000      0.05732     -1.73099      0.35013     -4.75044
     7.57000      0.05708     -1.72527      0.34769     -4.71574
     7.58000      0.05684     -1.71958      0.34530     -4.68128
     7.59000      0.05660     -1.71392      0.34296     -4.64705
     7.60000      0.05637     -1.70827      0.34068     -4.61306
     7.61000      0.05614     -1.70265      0.33846     -4.57928
     7.62000      0.05590     -1.69706      0.33628     -4.54573
     7.63000      0.05567     -1.69148      0.33417     -4.51238
     7.64000      0.05544     -1.68593      0.33210     -4.47925
     7.65000      0.05521     -1.68040      0.33009     -4.44632
     7.66000      0.05499     -1.67490      0.32814     -4.41359
     7.67000      0.05476     -1.66941      0.32623     -4.38104
     7.68000      0.05454     -1.66395      0.32438     -4.34869
     7.69000      0.05432     -1.65851      0.32258     -4.31651
     7.70000      0.05409     -1.65310      0.32083     -4.28452
     7.71000      0.05388     -1.64771      0.31914     -4.25269
     7.72000      0.05366     -1.64233      0.31749     -4.22104
     7.73000      0.05344     -1.63698      0.31590     -4.18954
     7.74000      0.05322     -1.63165      0.31436     -4.15821
     7.75000      0.05301     -1.62635      0.31288     -4.12702
     7.76000      0.05280     -1.62106      0.31144     -4.09598
     7.77000      0.05258     -1.61580      0.31006     -4.06508
     7.78000      0.05237     -1.61055      0.30873     -4.03432
     7.79000      0.05216     -1.60533      0.30746     -4.00369
     7.80000      0.05196     -1.60013      0.30623     -3.97318
     7.81000      0.05175     -1.59495      0.30506     -3.94280
     7.82000      0.05154     -1.58979      0.30395     -3.91253
     7.83000      0.05134     -1.58465      0.30288     -3.88237
     7.84000      0.05114     -1.57953      0.30188     -3.85232
     7.85000      0.05093     -1.57443      0.30093     -3.82237
     7.86000      0.05073     -1.56935      0.30003     -3.79251
     7.87000      0.05053     -1.56429      0.29919     -3.76274
     7.88000      0.05033     -1.55925      0.29841     -3.73306
     7.89000      0.05014     -1.55423      0.29769     -3.70345
     7.90000      0.04994     -1.54923      0.29702     -3.67392
     7.91000      0.04975     -1.54425      0.29642     -3.64444
     7.92000      0.04955     -1.53929      0.29588     -3.61504
     7.93000      0.04936     -1.53435      0.29540     -3.58569
     7.94000      0.04917     -1.52942      0.29498     -3.55638
     7.95000      0.04898     -1.52452      0.29463     -3.52713
     7.96000      0.04879     -1.51964      0.29434     -3.49790
     7.97000      0.04860     -1.51477      0.29412     -3.46871
     7.98000      0.04841     -1.50992      0.29397     -3.43954
     7.99000      0.04823     -1.50510      0.29389     -3.41040
     8.00000      0.04804     -1.50028      0.29389     -3.38125
     8.01000      0.04786     -1.49549      0.29396     -3.35212
     8.02000      0.04767     -1.49072      0.29410     -3.32298
     8.03000      0.04749     -1.48597      0.29433     -3.29383
     8.04000      0.04731     -1.48123      0.29464     -3.26467
     8.05000      0.04713     -1.47651      0.29503     -3.23548
     8.06000      0.04695     -1.47181      0.29551     -3.20625
     8.07000      0.04677     -1.46713      0.29608     -3.17699
     8.08000      0.04660     -1.46246      0.29674     -3.14767
     8.09000      0.04642     -1.45781      0.29750     -3.11830
     8.10000      0.04625     -1.45318      0.29836     -3.08885
     8.11000      0.04607     -1.44857      0.29932     -3.05934
     8.12000      0.04590     -1.44398      0.30040     -3.02973
     8.13000      0.04573     -1.43940      0.30159     -3.00003
     8.14000      0.04556     -1.43484      0.30289     -2.97023
     8.15000      0.04539     -1.43029      0.30433     -2.94031
     8.16000      0.04522     -1.42577      0.30589     -2.91025
     8.17000      0.04505     -1.42126      0.30759     -2.88007
     8.18000      0.04488     -1.41676      0.30943     -2.84973
     8.19000      0.04472     -1.41228      0.31143     -2.81923
     8.20000      0.04455     -1.40782      0.31359     -2.78856
     8.21000      0.04439     -1.40338      0.31591     -2.75770
     8.22000      0.04422     -1.39895      0.31841     -2.72663
     8.23000      0.04406     -1.39454      0.32111     -2.69536
     8.24000      0.04390     -1.39015      0.32401     -2.66385
     8.25000      0.04374     -1.38577      0.32712     -2.63210
     8.26000      0.04358     -1.38140      0.33046     -2.60009
     8.27000      0.04342     -1.37706      0.33405     -2.56782
     8.28000      0.04326     -1.37273      0.33790     -2.53525
     8.29000      0.04310     -1.36841      0.34204     -2.50238
     8.30000      0.04295     -1.36411      0.34648     -2.46921
     8.31000      0.04279     -1.35983      0.35125     -2.43570
     8.32000      0.04264     -1.35556      0.35637     -2.40187
     8.33000      0.04248     -1.35130      0.36187     -2.36769
     8.34000      0.04233     -1.34707      0.36778     -2.33318
     8.35000      0.04218     -1.34284      0.37412     -2.29832
     8.36000      0.04203     -1.33864      0.38092     -2.26313
     8.37000      0.04188     -1.33444      0.38819     -2.22761
     8.38000      0.04173     -1.33027      0.39595     -2.19181
     8.39000      0.04158     -1.32610      0.40419     -2.15572
     8.40000      0.04143     -1.32196      0.41288     -2.11939
     8.41000      0.04128     -1.31782      0.42198     -2.08280
     8.42000      0.04114     -1.31370      0.43141     -2.04595
     8.43000      0.04099     -1.30960      0.44110     -2.00878
     8.44000      0.04085     -1.30551      0.45097     -1.97119
     8.45000      0.04070     -1.30144      0.46097     -1.93302
     8.46000      0.04056     -1.29738      0.47110     -1.89407
     8.47000      0.04041     -1.29333      0.48143     -1.85415
     8.48000      0.04027     -1.28930      0.49209     -1.81307
     8.49000      0.04013     -1.28528      0.50325     -1.77069
     8.50000      0.03999     -1.28128      0.51510     -1.72692
     8.51000      0.03985     -1.27729      0.52784     -1.68169
     8.52000      0.03971     -1.27331      0.54164     -1.63497
     8.53000      0.03957     -1.26935      0.55666     -1.58675
     8.54000      0.03944     -1.26540      0.57306     -1.53701
     8.55000      0.03930     -1.26147      0.59097     -1.48571
     8.56000      0.03916     -1.25755      0.61055     -1.43284
     8.57000      0.03903     -1.25364      0.63195     -1.37834
     8.58000      0.03889     -1.24975      0.65533     -1.32218
     8.59000      0.03876     -1.24587      0.68088     -1.26425
     8.60000      0.03863     -1.24200      0.70882     -1.20453
     8.61000      0.03849     -1.23815      0.73938     -1.14290
     8.62000      0.03836     -1.23431      0.77285     -1.07931
     8.63000      0.03823     -1.23048      0.80954     -1.01367
     8.64000      0.03810     -1.22666      0.84982     -0.94592
     8.65000      0.03797     -1.22286      0.89411     -0.87598
     8.66000      0.03784     -1.21907      0.94289     -0.80382
     8.67000      0.03771     -1.21530      0.99670     -0.72945
     8.68000      0.03758     -1.21154      1.05621     -0.65286
     8.69000      0.03745     -1.20779      1.12211     -0.57416
     8.70000      0.03733     -1.20405      1.19526     -0.49350
     8.71000      0.03720     -1.20033      1.27658     -0.41118
     8.72000      0.03708     -1.19661      1.36714     -0.32760
     8.73000      0.03695     -1.19291      1.46810     -0.24341
     8.74000      0.03683     -1.18923      1.58076     -0.15948
     8.75000      0.03670     -1.18555      1.70644     -0.07707
    8.760       0.3658E-1    -1.182        1.847       0.2183E-2
     8.77000      0.03646     -1.17824      2.00230      0.07605
     8.78000      0.03634     -1.17460      2.17476      0.14173
     8.79000      0.03622     -1.17098      2.36437      0.19571
     8.80000      0.03610     -1.16736      2.57082      0.23391
     8.81000      0.03598     -1.16376      2.79245      0.25178
     8.82000      0.03586     -1.16017      3.02612      0.24484
     8.83000      0.03574     -1.15660      3.26669      0.20938
     8.84000      0.03562     -1.15303      3.50754      0.14344
     8.85000      0.03550     -1.14948      3.74107      0.04788
     8.86000      0.03538     -1.14593      3.96045     -0.07324
     8.87000      0.03527     -1.14240      4.16124     -0.21283
     8.88000      0.03515     -1.13888      4.34316     -0.36255
     8.89000      0.03504     -1.13538      4.51036     -0.51496
     8.90000      0.03492     -1.13188      4.67071     -0.66615
     8.91000      0.03481     -1.12839      4.83347     -0.81709
     8.92000      0.03470     -1.12492      5.00690     -0.97421
     8.93000      0.03458     -1.12146      5.19557     -1.14837
     8.94000      0.03447     -1.11801      5.39869     -1.35326
     8.95000      0.03436     -1.11457      5.60871     -1.60279
     8.96000      0.03425     -1.11114      5.81127     -1.90837
     8.97000      0.03414     -1.10772      5.98599     -2.27533
     8.98000      0.03403     -1.10432      6.10950     -2.70044
     8.99000      0.03392     -1.10092      6.15949     -3.16985
     9.00000      0.03381     -1.09754      6.12006     -3.66071
     9.01000      0.03370     -1.09416      5.98576     -4.14441
     9.02000      0.03359     -1.09080      5.76296     -4.59289
     9.03000      0.03348     -1.08745      5.46803     -4.98350
     9.04000      0.03337     -1.08411      5.12308     -5.30259
     9.05000      0.03327     -1.08078      4.75095     -5.54601
     9.06000      0.03316     -1.07746      4.37195     -5.71705
     9.07000      0.03306     -1.07415      4.00152     -5.82398
     9.08000      0.03295     -1.07085      3.65030     -5.87723
     9.09000      0.03285     -1.06756      3.32433     -5.88760
     9.10000      0.03274     -1.06428      3.02651     -5.86497
     9.11000      0.03264     -1.06102      2.75716     -5.81784
     9.12000      0.03254     -1.05776      2.51536     -5.75313
     9.13000      0.03243     -1.05451      2.29914     -5.67629
     9.14000      0.03233     -1.05128      2.10632     -5.59156
     9.15000      0.03223     -1.04805      1.93446     -5.50207
     9.16000      0.03213     -1.04483      1.78130     -5.41020
     9.17000      0.03203     -1.04163      1.64463     -5.31765
     9.18000      0.03193     -1.03843      1.52253     -5.22567
     9.19000      0.03183     -1.03524      1.41320     -5.13509
     9.20000      0.03173     -1.03207      1.31514     -5.04653
     9.21000      0.03163     -1.02890      1.22694     -4.96035
     9.22000      0.03153     -1.02574      1.14744     -4.87682
     9.23000      0.03143     -1.02260      1.07560     -4.79603
     9.24000      0.03134     -1.01946      1.01052     -4.71806
     9.25000      0.03124     -1.01633      0.95142     -4.64290
     9.26000      0.03114     -1.01322      0.89762     -4.57051
     9.27000      0.03105     -1.01011      0.84852     -4.50079
     9.28000      0.03095     -1.00701      0.80363     -4.43370
     9.29000      0.03086     -1.00392      0.76247     -4.36910
     9.30000      0.03076     -1.00084      0.72466     -4.30692
     9.31000      0.03067     -0.99777      0.68985     -4.24701
     9.32000      0.03057     -0.99471      0.65774     -4.18930
     9.33000      0.03048     -0.99166      0.62806     -4.13366
     9.34000      0.03039     -0.98862      0.60057     -4.08001
     9.35000      0.03029     -0.98559      0.57507     -4.02821
     9.36000      0.03020     -0.98256      0.55138     -3.97821
     9.37000      0.03011     -0.97955      0.52931     -3.92988
     9.38000      0.03002     -0.97654      0.50874     -3.88317
     9.39000      0.02993     -0.97355      0.48952     -3.83796
     9.40000      0.02984     -0.97056      0.47155     -3.79420
     9.41000      0.02975     -0.96758      0.45471     -3.75181
     9.42000      0.02966     -0.96461      0.43892     -3.71071
     9.43000      0.02957     -0.96165      0.42408     -3.67084
     9.44000      0.02948     -0.95870      0.41012     -3.63215
     9.45000      0.02939     -0.95576      0.39698     -3.59457
     9.46000      0.02930     -0.95283      0.38459     -3.55804
     9.47000      0.02921     -0.94990      0.37289     -3.52253
     9.48000      0.02913     -0.94699      0.36183     -3.48797
     9.49000      0.02904     -0.94408      0.35137     -3.45433
     9.50000      0.02895     -0.94118      0.34146     -3.42156
     9.51000      0.02887     -0.93829      0.33206     -3.38962
     9.52000      0.02878     -0.93541      0.32314     -3.35848
     9.53000      0.02870     -0.93254      0.31467     -3.32809
     9.54000      0.02861     -0.92967      0.30661     -3.29843
     9.55000      0.02853     -0.92682      0.29895     -3.26946
     9.56000      0.02844     -0.92397      0.29164     -3.24115
     9.57000      0.02836     -0.92113      0.28468     -3.21348
     9.58000      0.02827     -0.91830      0.27803     -3.18641
     9.59000      0.02819     -0.91548      0.27168     -3.15993
     9.60000      0.02811     -0.91267      0.26562     -3.13401
     9.61000      0.02803     -0.90986      0.25982     -3.10862
     9.62000      0.02794     -0.90706      0.25426     -3.08375
     9.63000      0.02786     -0.90428      0.24894     -3.05938
     9.64000      0.02778     -0.90149      0.24384     -3.03547
     9.65000      0.02770     -0.89872      0.23895     -3.01203
     9.66000      0.02762     -0.89596      0.23426     -2.98903
     9.67000      0.02754     -0.89320      0.22975     -2.96645
     9.68000      0.02746     -0.89045      0.22542     -2.94428
     9.69000      0.02738     -0.88771      0.22125     -2.92250
     9.70000      0.02730     -0.88498      0.21725     -2.90110
     9.71000      0.02722     -0.88225      0.21339     -2.88007
     9.72000      0.02714     -0.87954      0.20967     -2.85939
     9.73000      0.02706     -0.87683      0.20609     -2.83905
     9.74000      0.02699     -0.87412      0.20264     -2.81904
     9.75000      0.02691     -0.87143      0.19930     -2.79935
     9.76000      0.02683     -0.86874      0.19609     -2.77996
     9.77000      0.02676     -0.86607      0.19298     -2.76088
     9.78000      0.02668     -0.86340      0.18998     -2.74208
     9.79000      0.02660     -0.86073      0.18708     -2.72356
     9.80000      0.02653     -0.85808      0.18428     -2.70531
     9.81000      0.02645     -0.85543      0.18157     -2.68732
     9.82000      0.02638     -0.85279      0.17894     -2.66959
     9.83000      0.02630     -0.85016      0.17640     -2.65209
     9.84000      0.02623     -0.84753      0.17393     -2.63485
     9.85000      0.02615     -0.84491      0.17155     -2.61782
     9.86000      0.02608     -0.84230      0.16923     -2.60103
     9.87000      0.02600     -0.83970      0.16699     -2.58445
     9.88000      0.02593     -0.83710      0.16481     -2.56808
     9.89000      0.02586     -0.83452      0.16270     -2.55192
     9.90000      0.02579     -0.83193      0.16065     -2.53596
     9.91000      0.02571     -0.82936      0.15866     -2.52019
     9.92000      0.02564     -0.82679      0.15672     -2.50461
     9.93000      0.02557     -0.82423      0.15484     -2.48921
     9.94000      0.02550     -0.82168      0.15301     -2.47399
     9.95000      0.02543     -0.81914      0.15123     -2.45895
     9.96000      0.02536     -0.81660      0.14951     -2.44407
     9.97000      0.02528     -0.81407      0.14782     -2.42936
     9.98000      0.02521     -0.81154      0.14619     -2.41481
     9.99000      0.02514     -0.80903      0.14459     -2.40041
    10.00000      0.02507     -0.80652      0.14304     -2.38617
# 
# 03/14/2019 at 10:15 YAMBO @ bacalhau [start]
# 03/14/2019 at 10:15                  [end]
#  
# Timing   [Min/Max/Average]: 12s/12s/12s
#
# .-Input file : yambo.in
# | optics                         # [R OPT] Optics
# | bse                            # [R BSE] Bethe Salpeter Equation.
# | bss                            # [R BSS] Bethe Salpeter Equation solver
# | em1s                           # [R Xs] Static Inverse Dielectric Matrix
# | BoseTemp= 0.000000     eV      # Bosonic Temperature
# | FFTGvecs=  3473        RL      # [FFT] Plane-waves
# | X_Threads= 1                   # [OPENMP/X] Number of threads for response functions
# | DIP_Threads= 1                 # [OPENMP/X] Number of threads for dipoles
# | K_Threads= 1                   # [OPENMP/BSK] Number of threads for response functions
# | Chimod= "HARTREE"              # [X] IP/Hartree/ALDA/LRC/PF/BSfxc
# | BSEmod= "resonant"             # [BSE] resonant/retarded/coupling
# | BSKmod= "SEX"                  # [BSE] IP/Hartree/HF/ALDA/SEX/BSfxc
# | BSSmod= "s"                    # [BSS] (h)aydock/(d)iagonalization/(i)nversion/(t)ddft`
# | BSENGexx=  51          RL      # [BSK] Exchange components
# | BSENGBlk=  51          RL      # [BSK] Screened interaction block size
# | #WehCpl                        # [BSK] eh interaction included also in coupling
# | % BSEQptR
# |   1 |  4 |                     # [BSK] Transferred momenta range
# | %
# | % BSEBands
# |   3 | 10 |                     # [BSK] Bands range
# | %
# | % BEnRange
# | -10.00000 | 10.00000 | eV      # [BSS] Energy range
# | %
# | % BDmRange
# |   0.10000 |  0.10000 | eV      # [BSS] Damping range
# | %
# | BEnSteps= 2001                 # [BSS] Energy steps
# | % BLongDir
# | 0.5774E-5 |0.5774E-5 |0.5774E-5 |        # [BSS] [cc] Electric Field
# | %
# | BSSNEig=  5                    # [SLEPC] Number of eigenvalues to compute
# | % BndsRnXs
# |    1 |  60 |                   # [Xs] Polarization function bands
# | %
# | NGsBlkXs=  51          RL      # [Xs] Response block size
# | % DmRngeXs
# | 0.1000E-2 |0.1000E-2 | eV      # [Xs] Damping range
# | %
# | % LongDrXs
# | 0.1000E-4 | 0.000    | 0.000    |        # [Xs] [cc] Electric Field
# | %
