#                                                           
#   __   __     _        __  __       ____      U  ___  u   
#   \ \ / / U  /"\  U u |" \/ "| u U | __") u    \/"_ \/    
#    \ V /   \/ _ \/   \| |\/| |/   \|  _ \/     | | | |    
#   U_|"|_u  / ___ \    | |  | |     | |_) | .-,_| |_| |    
#     |_|   /_/   \_\   |_|  |_|     |____/   \_)-\___/     
# .-,//|(_   \\    >>  <<,-,,-.     _|| \\_        \\       
#  \_) (__) (__)  (__)  (./  \.)   (__) (__)      (__)      
#                                                           
#                                                           
#        Version 4.3.0 Revision 15341 Hash c146fb2          
#                      MPI+SLK Build                        
#                http://www.yambo-code.org                  
#
# Absorption @ Q(2) [iku] : 0.500000  0.250000  0.000000
#
#
# - Energies      are Teter 93(XC)
# - Wavefunctions are Teter 93(XC)
#
# - The Green`s function is Resonant -
#
#   BSK|Identifier              :6838
#      |Dimension               :96
#      |Bands                   :3 - 10
#      |Exchange           [res]: yes
#      |Correlation        [res]: yes
#      |Kernel`s coupling       : no
#      |Exchange           [cpl]: no
#      |Correlation        [cpl]: no
#      |W interaction is bare   : no
#      |ALDA kernel in R-space  : no
#      |RL vectors    [exchange]:51
#      |RL vectors [correlation]:51
#      |E/h energy range    [ev]:-1.000000 - -1.000000
#      |Coupling range     [o/o]: 100.0000 -  100.0000
#    W |Interaction is diagonal : no
#      |Matrix size             :51
#      |Bands                   :1 - 60
#      |e/h energy range    [ev]:-1.000000 - -1.000000
#      |Poles              [o/o]: 100.0000
#      |RL vectors in the sum   :3473
#      |[r,Vnl] included        : yes
#      |Field direction         :0.1000E-4  0.000000  0.000000
#      |Coulomb Cutoff          :none
#      |xc-Kernel               :none
#   RIM|RL components      [col]:0
#      |Random points      [col]:0
#
#    E/ev[1]      EPS-Im[2]    EPS-Re[3]    EPSo-Im[4]   EPSo-Re[5]
#
   -10.00       0.9782E-3     1.144       0.7494E-3     1.126   
   -9.990       0.9796E-3     1.144       0.7503E-3     1.126   
   -9.980       0.9809E-3     1.144       0.7512E-3     1.126   
   -9.970       0.9823E-3     1.145       0.7522E-3     1.126   
   -9.960       0.9836E-3     1.145       0.7531E-3     1.126   
   -9.950       0.9850E-3     1.145       0.7540E-3     1.127   
   -9.940       0.9864E-3     1.145       0.7549E-3     1.127   
   -9.930       0.9877E-3     1.145       0.7558E-3     1.127   
   -9.920       0.9891E-3     1.145       0.7567E-3     1.127   
   -9.910       0.9905E-3     1.145       0.7576E-3     1.127   
   -9.900       0.9918E-3     1.145       0.7586E-3     1.127   
   -9.890       0.9932E-3     1.145       0.7595E-3     1.127   
   -9.880       0.9946E-3     1.145       0.7604E-3     1.127   
   -9.870       0.9960E-3     1.146       0.7613E-3     1.127   
   -9.860       0.9974E-3     1.146       0.7623E-3     1.127   
   -9.850       0.9987E-3     1.146       0.7632E-3     1.127   
   -9.840       0.1000E-2     1.146       0.7641E-3     1.127   
   -9.830       0.1002E-2     1.146       0.7650E-3     1.127   
   -9.820       0.1003E-2     1.146       0.7660E-3     1.128   
   -9.810       0.1004E-2     1.146       0.7669E-3     1.128   
   -9.800       0.1006E-2     1.146       0.7679E-3     1.128   
   -9.790       0.1007E-2     1.146       0.7688E-3     1.128   
   -9.780       0.1009E-2     1.146       0.7697E-3     1.128   
   -9.770       0.1010E-2     1.147       0.7707E-3     1.128   
   -9.760       0.1011E-2     1.147       0.7716E-3     1.128   
   -9.750       0.1013E-2     1.147       0.7726E-3     1.128   
   -9.740       0.1014E-2     1.147       0.7735E-3     1.128   
   -9.730       0.1016E-2     1.147       0.7745E-3     1.128   
   -9.720       0.1017E-2     1.147       0.7754E-3     1.128   
   -9.710       0.1018E-2     1.147       0.7764E-3     1.128   
   -9.700       0.1020E-2     1.147       0.7773E-3     1.128   
   -9.690       0.1021E-2     1.147       0.7783E-3     1.129   
   -9.680       0.1023E-2     1.147       0.7792E-3     1.129   
   -9.670       0.1024E-2     1.148       0.7802E-3     1.129   
   -9.660       0.1026E-2     1.148       0.7812E-3     1.129   
   -9.650       0.1027E-2     1.148       0.7821E-3     1.129   
   -9.640       0.1029E-2     1.148       0.7831E-3     1.129   
   -9.630       0.1030E-2     1.148       0.7840E-3     1.129   
   -9.620       0.1031E-2     1.148       0.7850E-3     1.129   
   -9.610       0.1033E-2     1.148       0.7860E-3     1.129   
   -9.600       0.1034E-2     1.148       0.7870E-3     1.129   
   -9.590       0.1036E-2     1.148       0.7879E-3     1.129   
   -9.580       0.1037E-2     1.148       0.7889E-3     1.129   
   -9.570       0.1039E-2     1.149       0.7899E-3     1.129   
   -9.560       0.1040E-2     1.149       0.7909E-3     1.130   
   -9.550       0.1042E-2     1.149       0.7919E-3     1.130   
   -9.540       0.1043E-2     1.149       0.7928E-3     1.130   
   -9.530       0.1045E-2     1.149       0.7938E-3     1.130   
   -9.520       0.1046E-2     1.149       0.7948E-3     1.130   
   -9.510       0.1048E-2     1.149       0.7958E-3     1.130   
   -9.500       0.1049E-2     1.149       0.7968E-3     1.130   
   -9.490       0.1051E-2     1.149       0.7978E-3     1.130   
   -9.480       0.1052E-2     1.150       0.7988E-3     1.130   
   -9.470       0.1054E-2     1.150       0.7998E-3     1.130   
   -9.460       0.1055E-2     1.150       0.8008E-3     1.130   
   -9.450       0.1057E-2     1.150       0.8018E-3     1.130   
   -9.440       0.1058E-2     1.150       0.8028E-3     1.131   
   -9.430       0.1060E-2     1.150       0.8038E-3     1.131   
   -9.420       0.1061E-2     1.150       0.8048E-3     1.131   
   -9.410       0.1063E-2     1.150       0.8058E-3     1.131   
   -9.400       0.1064E-2     1.150       0.8068E-3     1.131   
   -9.390       0.1066E-2     1.150       0.8078E-3     1.131   
   -9.380       0.1067E-2     1.151       0.8088E-3     1.131   
   -9.370       0.1069E-2     1.151       0.8098E-3     1.131   
   -9.360       0.1070E-2     1.151       0.8109E-3     1.131   
   -9.350       0.1072E-2     1.151       0.8119E-3     1.131   
   -9.340       0.1074E-2     1.151       0.8129E-3     1.131   
   -9.330       0.1075E-2     1.151       0.8139E-3     1.131   
   -9.320       0.1077E-2     1.151       0.8150E-3     1.131   
   -9.310       0.1078E-2     1.151       0.8160E-3     1.132   
   -9.300       0.1080E-2     1.151       0.8170E-3     1.132   
   -9.290       0.1081E-2     1.152       0.8180E-3     1.132   
   -9.280       0.1083E-2     1.152       0.8191E-3     1.132   
   -9.270       0.1084E-2     1.152       0.8201E-3     1.132   
   -9.260       0.1086E-2     1.152       0.8212E-3     1.132   
   -9.250       0.1088E-2     1.152       0.8222E-3     1.132   
   -9.240       0.1089E-2     1.152       0.8232E-3     1.132   
   -9.230       0.1091E-2     1.152       0.8243E-3     1.132   
   -9.220       0.1092E-2     1.152       0.8253E-3     1.132   
   -9.210       0.1094E-2     1.152       0.8264E-3     1.132   
   -9.200       0.1096E-2     1.153       0.8274E-3     1.132   
   -9.190       0.1097E-2     1.153       0.8285E-3     1.133   
   -9.180       0.1099E-2     1.153       0.8295E-3     1.133   
   -9.170       0.1100E-2     1.153       0.8306E-3     1.133   
   -9.160       0.1102E-2     1.153       0.8316E-3     1.133   
   -9.150       0.1104E-2     1.153       0.8327E-3     1.133   
   -9.140       0.1105E-2     1.153       0.8338E-3     1.133   
   -9.130       0.1107E-2     1.153       0.8348E-3     1.133   
   -9.120       0.1108E-2     1.153       0.8359E-3     1.133   
   -9.110       0.1110E-2     1.153       0.8370E-3     1.133   
   -9.100       0.1112E-2     1.154       0.8380E-3     1.133   
   -9.090       0.1113E-2     1.154       0.8391E-3     1.133   
   -9.080       0.1115E-2     1.154       0.8402E-3     1.133   
   -9.070       0.1117E-2     1.154       0.8413E-3     1.134   
   -9.060       0.1118E-2     1.154       0.8423E-3     1.134   
   -9.050       0.1120E-2     1.154       0.8434E-3     1.134   
   -9.040       0.1122E-2     1.154       0.8445E-3     1.134   
   -9.030       0.1123E-2     1.154       0.8456E-3     1.134   
   -9.020       0.1125E-2     1.155       0.8467E-3     1.134   
   -9.010       0.1127E-2     1.155       0.8478E-3     1.134   
   -9.000       0.1128E-2     1.155       0.8488E-3     1.134   
   -8.990       0.1130E-2     1.155       0.8499E-3     1.134   
   -8.980       0.1132E-2     1.155       0.8510E-3     1.134   
   -8.970       0.1133E-2     1.155       0.8521E-3     1.134   
   -8.960       0.1135E-2     1.155       0.8532E-3     1.134   
   -8.950       0.1137E-2     1.155       0.8543E-3     1.135   
   -8.940       0.1138E-2     1.155       0.8554E-3     1.135   
   -8.930       0.1140E-2     1.156       0.8565E-3     1.135   
   -8.920       0.1142E-2     1.156       0.8577E-3     1.135   
   -8.910       0.1143E-2     1.156       0.8588E-3     1.135   
   -8.900       0.1145E-2     1.156       0.8599E-3     1.135   
   -8.890       0.1147E-2     1.156       0.8610E-3     1.135   
   -8.880       0.1149E-2     1.156       0.8621E-3     1.135   
   -8.870       0.1150E-2     1.156       0.8632E-3     1.135   
   -8.860       0.1152E-2     1.156       0.8644E-3     1.135   
   -8.850       0.1154E-2     1.156       0.8655E-3     1.135   
   -8.840       0.1155E-2     1.157       0.8666E-3     1.136   
   -8.830       0.1157E-2     1.157       0.8677E-3     1.136   
   -8.820       0.1159E-2     1.157       0.8689E-3     1.136   
   -8.810       0.1161E-2     1.157       0.8700E-3     1.136   
   -8.800       0.1162E-2     1.157       0.8711E-3     1.136   
   -8.790       0.1164E-2     1.157       0.8723E-3     1.136   
   -8.780       0.1166E-2     1.157       0.8734E-3     1.136   
   -8.770       0.1168E-2     1.157       0.8745E-3     1.136   
   -8.760       0.1169E-2     1.157       0.8757E-3     1.136   
   -8.750       0.1171E-2     1.158       0.8768E-3     1.136   
   -8.740       0.1173E-2     1.158       0.8780E-3     1.136   
   -8.730       0.1175E-2     1.158       0.8791E-3     1.136   
   -8.720       0.1177E-2     1.158       0.8803E-3     1.137   
   -8.710       0.1178E-2     1.158       0.8814E-3     1.137   
   -8.700       0.1180E-2     1.158       0.8826E-3     1.137   
   -8.690       0.1182E-2     1.158       0.8838E-3     1.137   
   -8.680       0.1184E-2     1.158       0.8849E-3     1.137   
   -8.670       0.1185E-2     1.159       0.8861E-3     1.137   
   -8.660       0.1187E-2     1.159       0.8873E-3     1.137   
   -8.650       0.1189E-2     1.159       0.8884E-3     1.137   
   -8.640       0.1191E-2     1.159       0.8896E-3     1.137   
   -8.630       0.1193E-2     1.159       0.8908E-3     1.137   
   -8.620       0.1195E-2     1.159       0.8920E-3     1.137   
   -8.610       0.1196E-2     1.159       0.8931E-3     1.138   
   -8.600       0.1198E-2     1.159       0.8943E-3     1.138   
   -8.590       0.1200E-2     1.159       0.8955E-3     1.138   
   -8.580       0.1202E-2     1.160       0.8967E-3     1.138   
   -8.570       0.1204E-2     1.160       0.8979E-3     1.138   
   -8.560       0.1206E-2     1.160       0.8991E-3     1.138   
   -8.550       0.1207E-2     1.160       0.9003E-3     1.138   
   -8.540       0.1209E-2     1.160       0.9015E-3     1.138   
   -8.530       0.1211E-2     1.160       0.9027E-3     1.138   
   -8.520       0.1213E-2     1.160       0.9039E-3     1.138   
   -8.510       0.1215E-2     1.160       0.9051E-3     1.138   
   -8.500       0.1217E-2     1.161       0.9063E-3     1.139   
   -8.490       0.1219E-2     1.161       0.9075E-3     1.139   
   -8.480       0.1220E-2     1.161       0.9087E-3     1.139   
   -8.470       0.1222E-2     1.161       0.9099E-3     1.139   
   -8.460       0.1224E-2     1.161       0.9111E-3     1.139   
   -8.450       0.1226E-2     1.161       0.9123E-3     1.139   
   -8.440       0.1228E-2     1.161       0.9135E-3     1.139   
   -8.430       0.1230E-2     1.161       0.9148E-3     1.139   
   -8.420       0.1232E-2     1.162       0.9160E-3     1.139   
   -8.410       0.1234E-2     1.162       0.9172E-3     1.139   
   -8.400       0.1236E-2     1.162       0.9185E-3     1.139   
   -8.390       0.1238E-2     1.162       0.9197E-3     1.140   
   -8.380       0.1240E-2     1.162       0.9209E-3     1.140   
   -8.370       0.1241E-2     1.162       0.9222E-3     1.140   
   -8.360       0.1243E-2     1.162       0.9234E-3     1.140   
   -8.350       0.1245E-2     1.162       0.9246E-3     1.140   
   -8.340       0.1247E-2     1.163       0.9259E-3     1.140   
   -8.330       0.1249E-2     1.163       0.9271E-3     1.140   
   -8.320       0.1251E-2     1.163       0.9284E-3     1.140   
   -8.310       0.1253E-2     1.163       0.9296E-3     1.140   
   -8.300       0.1255E-2     1.163       0.9309E-3     1.140   
   -8.290       0.1257E-2     1.163       0.9322E-3     1.140   
   -8.280       0.1259E-2     1.163       0.9334E-3     1.141   
   -8.270       0.1261E-2     1.163       0.9347E-3     1.141   
   -8.260       0.1263E-2     1.164       0.9360E-3     1.141   
   -8.250       0.1265E-2     1.164       0.9372E-3     1.141   
   -8.240       0.1267E-2     1.164       0.9385E-3     1.141   
   -8.230       0.1269E-2     1.164       0.9398E-3     1.141   
   -8.220       0.1271E-2     1.164       0.9410E-3     1.141   
   -8.210       0.1273E-2     1.164       0.9423E-3     1.141   
   -8.200       0.1275E-2     1.164       0.9436E-3     1.141   
   -8.190       0.1277E-2     1.164       0.9449E-3     1.141   
   -8.180       0.1279E-2     1.165       0.9462E-3     1.142   
   -8.170       0.1281E-2     1.165       0.9475E-3     1.142   
   -8.160       0.1283E-2     1.165       0.9488E-3     1.142   
   -8.150       0.1285E-2     1.165       0.9501E-3     1.142   
   -8.140       0.1287E-2     1.165       0.9514E-3     1.142   
   -8.130       0.1289E-2     1.165       0.9527E-3     1.142   
   -8.120       0.1291E-2     1.165       0.9540E-3     1.142   
   -8.110       0.1293E-2     1.165       0.9553E-3     1.142   
   -8.100       0.1295E-2     1.166       0.9566E-3     1.142   
   -8.090       0.1297E-2     1.166       0.9579E-3     1.142   
   -8.080       0.1299E-2     1.166       0.9592E-3     1.142   
   -8.070       0.1302E-2     1.166       0.9605E-3     1.143   
   -8.060       0.1304E-2     1.166       0.9618E-3     1.143   
   -8.050       0.1306E-2     1.166       0.9632E-3     1.143   
   -8.040       0.1308E-2     1.166       0.9645E-3     1.143   
   -8.030       0.1310E-2     1.167       0.9658E-3     1.143   
   -8.020       0.1312E-2     1.167       0.9671E-3     1.143   
   -8.010       0.1314E-2     1.167       0.9685E-3     1.143   
   -8.000       0.1316E-2     1.167       0.9698E-3     1.143   
   -7.990       0.1318E-2     1.167       0.9712E-3     1.143   
   -7.980       0.1320E-2     1.167       0.9725E-3     1.143   
   -7.970       0.1323E-2     1.167       0.9738E-3     1.144   
   -7.960       0.1325E-2     1.167       0.9752E-3     1.144   
   -7.950       0.1327E-2     1.168       0.9765E-3     1.144   
   -7.940       0.1329E-2     1.168       0.9779E-3     1.144   
   -7.930       0.1331E-2     1.168       0.9793E-3     1.144   
   -7.920       0.1333E-2     1.168       0.9806E-3     1.144   
   -7.910       0.1335E-2     1.168       0.9820E-3     1.144   
   -7.900       0.1338E-2     1.168       0.9833E-3     1.144   
   -7.890       0.1340E-2     1.168       0.9847E-3     1.144   
   -7.880       0.1342E-2     1.169       0.9861E-3     1.144   
   -7.870       0.1344E-2     1.169       0.9875E-3     1.145   
   -7.860       0.1346E-2     1.169       0.9888E-3     1.145   
   -7.850       0.1348E-2     1.169       0.9902E-3     1.145   
   -7.840       0.1351E-2     1.169       0.9916E-3     1.145   
   -7.830       0.1353E-2     1.169       0.9930E-3     1.145   
   -7.820       0.1355E-2     1.169       0.9944E-3     1.145   
   -7.810       0.1357E-2     1.169       0.9958E-3     1.145   
   -7.800       0.1359E-2     1.170       0.9972E-3     1.145   
   -7.790       0.1362E-2     1.170       0.9986E-3     1.145   
   -7.780       0.1364E-2     1.170       0.1000E-2     1.145   
   -7.770       0.1366E-2     1.170       0.1001E-2     1.145   
   -7.760       0.1368E-2     1.170       0.1003E-2     1.146   
   -7.750       0.1371E-2     1.170       0.1004E-2     1.146   
   -7.740       0.1373E-2     1.170       0.1006E-2     1.146   
   -7.730       0.1375E-2     1.171       0.1007E-2     1.146   
   -7.720       0.1377E-2     1.171       0.1008E-2     1.146   
   -7.710       0.1380E-2     1.171       0.1010E-2     1.146   
   -7.700       0.1382E-2     1.171       0.1011E-2     1.146   
   -7.690       0.1384E-2     1.171       0.1013E-2     1.146   
   -7.680       0.1386E-2     1.171       0.1014E-2     1.146   
   -7.670       0.1389E-2     1.171       0.1016E-2     1.147   
   -7.660       0.1391E-2     1.172       0.1017E-2     1.147   
   -7.650       0.1393E-2     1.172       0.1018E-2     1.147   
   -7.640       0.1396E-2     1.172       0.1020E-2     1.147   
   -7.630       0.1398E-2     1.172       0.1021E-2     1.147   
   -7.620       0.1400E-2     1.172       0.1023E-2     1.147   
   -7.610       0.1403E-2     1.172       0.1024E-2     1.147   
   -7.600       0.1405E-2     1.172       0.1026E-2     1.147   
   -7.590       0.1407E-2     1.172       0.1027E-2     1.147   
   -7.580       0.1410E-2     1.173       0.1029E-2     1.147   
   -7.570       0.1412E-2     1.173       0.1030E-2     1.148   
   -7.560       0.1414E-2     1.173       0.1032E-2     1.148   
   -7.550       0.1417E-2     1.173       0.1033E-2     1.148   
   -7.540       0.1419E-2     1.173       0.1034E-2     1.148   
   -7.530       0.1421E-2     1.173       0.1036E-2     1.148   
   -7.520       0.1424E-2     1.173       0.1037E-2     1.148   
   -7.510       0.1426E-2     1.174       0.1039E-2     1.148   
   -7.500       0.1429E-2     1.174       0.1040E-2     1.148   
   -7.490       0.1431E-2     1.174       0.1042E-2     1.148   
   -7.480       0.1433E-2     1.174       0.1043E-2     1.148   
   -7.470       0.1436E-2     1.174       0.1045E-2     1.149   
   -7.460       0.1438E-2     1.174       0.1046E-2     1.149   
   -7.450       0.1441E-2     1.174       0.1048E-2     1.149   
   -7.440       0.1443E-2     1.175       0.1049E-2     1.149   
   -7.430       0.1445E-2     1.175       0.1051E-2     1.149   
   -7.420       0.1448E-2     1.175       0.1052E-2     1.149   
   -7.410       0.1450E-2     1.175       0.1054E-2     1.149   
   -7.400       0.1453E-2     1.175       0.1055E-2     1.149   
   -7.390       0.1455E-2     1.175       0.1057E-2     1.149   
   -7.380       0.1458E-2     1.176       0.1059E-2     1.150   
   -7.370       0.1460E-2     1.176       0.1060E-2     1.150   
   -7.360       0.1463E-2     1.176       0.1062E-2     1.150   
   -7.350       0.1465E-2     1.176       0.1063E-2     1.150   
   -7.340       0.1468E-2     1.176       0.1065E-2     1.150   
   -7.330       0.1470E-2     1.176       0.1066E-2     1.150   
   -7.320       0.1473E-2     1.176       0.1068E-2     1.150   
   -7.310       0.1475E-2     1.177       0.1069E-2     1.150   
   -7.300       0.1478E-2     1.177       0.1071E-2     1.150   
   -7.290       0.1480E-2     1.177       0.1072E-2     1.150   
   -7.280       0.1483E-2     1.177       0.1074E-2     1.151   
   -7.270       0.1485E-2     1.177       0.1076E-2     1.151   
   -7.260       0.1488E-2     1.177       0.1077E-2     1.151   
   -7.250       0.1490E-2     1.177       0.1079E-2     1.151   
   -7.240       0.1493E-2     1.178       0.1080E-2     1.151   
   -7.230       0.1495E-2     1.178       0.1082E-2     1.151   
   -7.220       0.1498E-2     1.178       0.1083E-2     1.151   
   -7.210       0.1501E-2     1.178       0.1085E-2     1.151   
   -7.200       0.1503E-2     1.178       0.1087E-2     1.151   
   -7.190       0.1506E-2     1.178       0.1088E-2     1.152   
   -7.180       0.1508E-2     1.178       0.1090E-2     1.152   
   -7.170       0.1511E-2     1.179       0.1091E-2     1.152   
   -7.160       0.1514E-2     1.179       0.1093E-2     1.152   
   -7.150       0.1516E-2     1.179       0.1095E-2     1.152   
   -7.140       0.1519E-2     1.179       0.1096E-2     1.152   
   -7.130       0.1521E-2     1.179       0.1098E-2     1.152   
   -7.120       0.1524E-2     1.179       0.1099E-2     1.152   
   -7.110       0.1527E-2     1.180       0.1101E-2     1.152   
   -7.100       0.1529E-2     1.180       0.1103E-2     1.153   
   -7.090       0.1532E-2     1.180       0.1104E-2     1.153   
   -7.080       0.1535E-2     1.180       0.1106E-2     1.153   
   -7.070       0.1537E-2     1.180       0.1108E-2     1.153   
   -7.060       0.1540E-2     1.180       0.1109E-2     1.153   
   -7.050       0.1543E-2     1.180       0.1111E-2     1.153   
   -7.040       0.1545E-2     1.181       0.1113E-2     1.153   
   -7.030       0.1548E-2     1.181       0.1114E-2     1.153   
   -7.020       0.1551E-2     1.181       0.1116E-2     1.153   
   -7.010       0.1554E-2     1.181       0.1118E-2     1.154   
   -7.000       0.1556E-2     1.181       0.1119E-2     1.154   
   -6.990       0.1559E-2     1.181       0.1121E-2     1.154   
   -6.980       0.1562E-2     1.182       0.1123E-2     1.154   
   -6.970       0.1564E-2     1.182       0.1124E-2     1.154   
   -6.960       0.1567E-2     1.182       0.1126E-2     1.154   
   -6.950       0.1570E-2     1.182       0.1128E-2     1.154   
   -6.940       0.1573E-2     1.182       0.1129E-2     1.154   
   -6.930       0.1576E-2     1.182       0.1131E-2     1.154   
   -6.920       0.1578E-2     1.182       0.1133E-2     1.155   
   -6.910       0.1581E-2     1.183       0.1134E-2     1.155   
   -6.900       0.1584E-2     1.183       0.1136E-2     1.155   
   -6.890       0.1587E-2     1.183       0.1138E-2     1.155   
   -6.880       0.1589E-2     1.183       0.1139E-2     1.155   
   -6.870       0.1592E-2     1.183       0.1141E-2     1.155   
   -6.860       0.1595E-2     1.183       0.1143E-2     1.155   
   -6.850       0.1598E-2     1.184       0.1145E-2     1.155   
   -6.840       0.1601E-2     1.184       0.1146E-2     1.155   
   -6.830       0.1604E-2     1.184       0.1148E-2     1.156   
   -6.820       0.1607E-2     1.184       0.1150E-2     1.156   
   -6.810       0.1609E-2     1.184       0.1152E-2     1.156   
   -6.800       0.1612E-2     1.184       0.1153E-2     1.156   
   -6.790       0.1615E-2     1.185       0.1155E-2     1.156   
   -6.780       0.1618E-2     1.185       0.1157E-2     1.156   
   -6.770       0.1621E-2     1.185       0.1159E-2     1.156   
   -6.760       0.1624E-2     1.185       0.1160E-2     1.156   
   -6.750       0.1627E-2     1.185       0.1162E-2     1.156   
   -6.740       0.1630E-2     1.185       0.1164E-2     1.157   
   -6.730       0.1633E-2     1.186       0.1166E-2     1.157   
   -6.720       0.1636E-2     1.186       0.1167E-2     1.157   
   -6.710       0.1638E-2     1.186       0.1169E-2     1.157   
   -6.700       0.1641E-2     1.186       0.1171E-2     1.157   
   -6.690       0.1644E-2     1.186       0.1173E-2     1.157   
   -6.680       0.1647E-2     1.186       0.1174E-2     1.157   
   -6.670       0.1650E-2     1.187       0.1176E-2     1.157   
   -6.660       0.1653E-2     1.187       0.1178E-2     1.158   
   -6.650       0.1656E-2     1.187       0.1180E-2     1.158   
   -6.640       0.1659E-2     1.187       0.1182E-2     1.158   
   -6.630       0.1662E-2     1.187       0.1184E-2     1.158   
   -6.620       0.1665E-2     1.187       0.1185E-2     1.158   
   -6.610       0.1668E-2     1.188       0.1187E-2     1.158   
   -6.600       0.1671E-2     1.188       0.1189E-2     1.158   
   -6.590       0.1674E-2     1.188       0.1191E-2     1.158   
   -6.580       0.1677E-2     1.188       0.1193E-2     1.158   
   -6.570       0.1681E-2     1.188       0.1194E-2     1.159   
   -6.560       0.1684E-2     1.188       0.1196E-2     1.159   
   -6.550       0.1687E-2     1.189       0.1198E-2     1.159   
   -6.540       0.1690E-2     1.189       0.1200E-2     1.159   
   -6.530       0.1693E-2     1.189       0.1202E-2     1.159   
   -6.520       0.1696E-2     1.189       0.1204E-2     1.159   
   -6.510       0.1699E-2     1.189       0.1206E-2     1.159   
   -6.500       0.1702E-2     1.189       0.1207E-2     1.159   
   -6.490       0.1705E-2     1.190       0.1209E-2     1.160   
   -6.480       0.1708E-2     1.190       0.1211E-2     1.160   
   -6.470       0.1712E-2     1.190       0.1213E-2     1.160   
   -6.460       0.1715E-2     1.190       0.1215E-2     1.160   
   -6.450       0.1718E-2     1.190       0.1217E-2     1.160   
   -6.440       0.1721E-2     1.190       0.1219E-2     1.160   
   -6.430       0.1724E-2     1.191       0.1221E-2     1.160   
   -6.420       0.1727E-2     1.191       0.1223E-2     1.160   
   -6.410       0.1731E-2     1.191       0.1224E-2     1.161   
   -6.400       0.1734E-2     1.191       0.1226E-2     1.161   
   -6.390       0.1737E-2     1.191       0.1228E-2     1.161   
   -6.380       0.1740E-2     1.191       0.1230E-2     1.161   
   -6.370       0.1744E-2     1.192       0.1232E-2     1.161   
   -6.360       0.1747E-2     1.192       0.1234E-2     1.161   
   -6.350       0.1750E-2     1.192       0.1236E-2     1.161   
   -6.340       0.1753E-2     1.192       0.1238E-2     1.161   
   -6.330       0.1757E-2     1.192       0.1240E-2     1.162   
   -6.320       0.1760E-2     1.192       0.1242E-2     1.162   
   -6.310       0.1763E-2     1.193       0.1244E-2     1.162   
   -6.300       0.1766E-2     1.193       0.1246E-2     1.162   
   -6.290       0.1770E-2     1.193       0.1248E-2     1.162   
   -6.280       0.1773E-2     1.193       0.1250E-2     1.162   
   -6.270       0.1776E-2     1.193       0.1252E-2     1.162   
   -6.260       0.1780E-2     1.194       0.1254E-2     1.162   
   -6.250       0.1783E-2     1.194       0.1256E-2     1.163   
   -6.240       0.1786E-2     1.194       0.1258E-2     1.163   
   -6.230       0.1790E-2     1.194       0.1260E-2     1.163   
   -6.220       0.1793E-2     1.194       0.1262E-2     1.163   
   -6.210       0.1797E-2     1.194       0.1264E-2     1.163   
   -6.200       0.1800E-2     1.195       0.1266E-2     1.163   
   -6.190       0.1803E-2     1.195       0.1268E-2     1.163   
   -6.180       0.1807E-2     1.195       0.1270E-2     1.163   
   -6.170       0.1810E-2     1.195       0.1272E-2     1.164   
   -6.160       0.1814E-2     1.195       0.1274E-2     1.164   
   -6.150       0.1817E-2     1.196       0.1276E-2     1.164   
   -6.140       0.1821E-2     1.196       0.1278E-2     1.164   
   -6.130       0.1824E-2     1.196       0.1280E-2     1.164   
   -6.120       0.1828E-2     1.196       0.1282E-2     1.164   
   -6.110       0.1831E-2     1.196       0.1284E-2     1.164   
   -6.100       0.1835E-2     1.196       0.1286E-2     1.164   
   -6.090       0.1838E-2     1.197       0.1288E-2     1.165   
   -6.080       0.1842E-2     1.197       0.1290E-2     1.165   
   -6.070       0.1845E-2     1.197       0.1292E-2     1.165   
   -6.060       0.1849E-2     1.197       0.1294E-2     1.165   
   -6.050       0.1852E-2     1.197       0.1296E-2     1.165   
   -6.040       0.1856E-2     1.198       0.1298E-2     1.165   
   -6.030       0.1859E-2     1.198       0.1300E-2     1.165   
   -6.020       0.1863E-2     1.198       0.1303E-2     1.165   
   -6.010       0.1866E-2     1.198       0.1305E-2     1.166   
   -6.000       0.1870E-2     1.198       0.1307E-2     1.166   
   -5.990       0.1874E-2     1.198       0.1309E-2     1.166   
   -5.980       0.1877E-2     1.199       0.1311E-2     1.166   
   -5.970       0.1881E-2     1.199       0.1313E-2     1.166   
   -5.960       0.1885E-2     1.199       0.1315E-2     1.166   
   -5.950       0.1888E-2     1.199       0.1317E-2     1.166   
   -5.940       0.1892E-2     1.199       0.1320E-2     1.167   
   -5.930       0.1896E-2     1.200       0.1322E-2     1.167   
   -5.920       0.1899E-2     1.200       0.1324E-2     1.167   
   -5.910       0.1903E-2     1.200       0.1326E-2     1.167   
   -5.900       0.1907E-2     1.200       0.1328E-2     1.167   
   -5.890       0.1910E-2     1.200       0.1330E-2     1.167   
   -5.880       0.1914E-2     1.201       0.1333E-2     1.167   
   -5.870       0.1918E-2     1.201       0.1335E-2     1.167   
   -5.860       0.1922E-2     1.201       0.1337E-2     1.168   
   -5.850       0.1925E-2     1.201       0.1339E-2     1.168   
   -5.840       0.1929E-2     1.201       0.1341E-2     1.168   
   -5.830       0.1933E-2     1.202       0.1343E-2     1.168   
   -5.820       0.1937E-2     1.202       0.1346E-2     1.168   
   -5.810       0.1941E-2     1.202       0.1348E-2     1.168   
   -5.800       0.1944E-2     1.202       0.1350E-2     1.168   
   -5.790       0.1948E-2     1.202       0.1352E-2     1.169   
   -5.780       0.1952E-2     1.202       0.1355E-2     1.169   
   -5.770       0.1956E-2     1.203       0.1357E-2     1.169   
   -5.760       0.1960E-2     1.203       0.1359E-2     1.169   
   -5.750       0.1964E-2     1.203       0.1361E-2     1.169   
   -5.740       0.1968E-2     1.203       0.1363E-2     1.169   
   -5.730       0.1971E-2     1.203       0.1366E-2     1.169   
   -5.720       0.1975E-2     1.204       0.1368E-2     1.169   
   -5.710       0.1979E-2     1.204       0.1370E-2     1.170   
   -5.700       0.1983E-2     1.204       0.1373E-2     1.170   
   -5.690       0.1987E-2     1.204       0.1375E-2     1.170   
   -5.680       0.1991E-2     1.204       0.1377E-2     1.170   
   -5.670       0.1995E-2     1.205       0.1379E-2     1.170   
   -5.660       0.1999E-2     1.205       0.1382E-2     1.170   
   -5.650       0.2003E-2     1.205       0.1384E-2     1.170   
   -5.640       0.2007E-2     1.205       0.1386E-2     1.171   
   -5.630       0.2011E-2     1.205       0.1389E-2     1.171   
   -5.620       0.2015E-2     1.206       0.1391E-2     1.171   
   -5.610       0.2019E-2     1.206       0.1393E-2     1.171   
   -5.600       0.2023E-2     1.206       0.1396E-2     1.171   
   -5.590       0.2027E-2     1.206       0.1398E-2     1.171   
   -5.580       0.2031E-2     1.206       0.1400E-2     1.171   
   -5.570       0.2036E-2     1.207       0.1403E-2     1.172   
   -5.560       0.2040E-2     1.207       0.1405E-2     1.172   
   -5.550       0.2044E-2     1.207       0.1407E-2     1.172   
   -5.540       0.2048E-2     1.207       0.1410E-2     1.172   
   -5.530       0.2052E-2     1.207       0.1412E-2     1.172   
   -5.520       0.2056E-2     1.208       0.1414E-2     1.172   
   -5.510       0.2060E-2     1.208       0.1417E-2     1.172   
   -5.500       0.2065E-2     1.208       0.1419E-2     1.173   
   -5.490       0.2069E-2     1.208       0.1422E-2     1.173   
   -5.480       0.2073E-2     1.209       0.1424E-2     1.173   
   -5.470       0.2077E-2     1.209       0.1426E-2     1.173   
   -5.460       0.2081E-2     1.209       0.1429E-2     1.173   
   -5.450       0.2086E-2     1.209       0.1431E-2     1.173   
   -5.440       0.2090E-2     1.209       0.1434E-2     1.173   
   -5.430       0.2094E-2     1.210       0.1436E-2     1.174   
   -5.420       0.2099E-2     1.210       0.1439E-2     1.174   
   -5.410       0.2103E-2     1.210       0.1441E-2     1.174   
   -5.400       0.2107E-2     1.210       0.1444E-2     1.174   
   -5.390       0.2112E-2     1.210       0.1446E-2     1.174   
   -5.380       0.2116E-2     1.211       0.1448E-2     1.174   
   -5.370       0.2120E-2     1.211       0.1451E-2     1.174   
   -5.360       0.2125E-2     1.211       0.1453E-2     1.175   
   -5.350       0.2129E-2     1.211       0.1456E-2     1.175   
   -5.340       0.2133E-2     1.211       0.1458E-2     1.175   
   -5.330       0.2138E-2     1.212       0.1461E-2     1.175   
   -5.320       0.2142E-2     1.212       0.1463E-2     1.175   
   -5.310       0.2147E-2     1.212       0.1466E-2     1.175   
   -5.300       0.2151E-2     1.212       0.1468E-2     1.175   
   -5.290       0.2156E-2     1.213       0.1471E-2     1.176   
   -5.280       0.2160E-2     1.213       0.1473E-2     1.176   
   -5.270       0.2165E-2     1.213       0.1476E-2     1.176   
   -5.260       0.2169E-2     1.213       0.1479E-2     1.176   
   -5.250       0.2174E-2     1.213       0.1481E-2     1.176   
   -5.240       0.2178E-2     1.214       0.1484E-2     1.176   
   -5.230       0.2183E-2     1.214       0.1486E-2     1.176   
   -5.220       0.2187E-2     1.214       0.1489E-2     1.177   
   -5.210       0.2192E-2     1.214       0.1491E-2     1.177   
   -5.200       0.2197E-2     1.214       0.1494E-2     1.177   
   -5.190       0.2201E-2     1.215       0.1497E-2     1.177   
   -5.180       0.2206E-2     1.215       0.1499E-2     1.177   
   -5.170       0.2210E-2     1.215       0.1502E-2     1.177   
   -5.160       0.2215E-2     1.215       0.1504E-2     1.178   
   -5.150       0.2220E-2     1.216       0.1507E-2     1.178   
   -5.140       0.2225E-2     1.216       0.1510E-2     1.178   
   -5.130       0.2229E-2     1.216       0.1512E-2     1.178   
   -5.120       0.2234E-2     1.216       0.1515E-2     1.178   
   -5.110       0.2239E-2     1.216       0.1518E-2     1.178   
   -5.100       0.2243E-2     1.217       0.1520E-2     1.178   
   -5.090       0.2248E-2     1.217       0.1523E-2     1.179   
   -5.080       0.2253E-2     1.217       0.1526E-2     1.179   
   -5.070       0.2258E-2     1.217       0.1528E-2     1.179   
   -5.060       0.2263E-2     1.218       0.1531E-2     1.179   
   -5.050       0.2267E-2     1.218       0.1534E-2     1.179   
   -5.040       0.2272E-2     1.218       0.1536E-2     1.179   
   -5.030       0.2277E-2     1.218       0.1539E-2     1.179   
   -5.020       0.2282E-2     1.219       0.1542E-2     1.180   
   -5.010       0.2287E-2     1.219       0.1545E-2     1.180   
   -5.000       0.2292E-2     1.219       0.1547E-2     1.180   
   -4.990       0.2297E-2     1.219       0.1550E-2     1.180   
   -4.980       0.2302E-2     1.219       0.1553E-2     1.180   
   -4.970       0.2307E-2     1.220       0.1555E-2     1.180   
   -4.960       0.2312E-2     1.220       0.1558E-2     1.181   
   -4.950       0.2317E-2     1.220       0.1561E-2     1.181   
   -4.940       0.2322E-2     1.220       0.1564E-2     1.181   
   -4.930       0.2327E-2     1.221       0.1567E-2     1.181   
   -4.920       0.2332E-2     1.221       0.1569E-2     1.181   
   -4.910       0.2337E-2     1.221       0.1572E-2     1.181   
   -4.900       0.2342E-2     1.221       0.1575E-2     1.182   
   -4.890       0.2347E-2     1.222       0.1578E-2     1.182   
   -4.880       0.2352E-2     1.222       0.1581E-2     1.182   
   -4.870       0.2357E-2     1.222       0.1583E-2     1.182   
   -4.860       0.2362E-2     1.222       0.1586E-2     1.182   
   -4.850       0.2368E-2     1.222       0.1589E-2     1.182   
   -4.840       0.2373E-2     1.223       0.1592E-2     1.182   
   -4.830       0.2378E-2     1.223       0.1595E-2     1.183   
   -4.820       0.2383E-2     1.223       0.1598E-2     1.183   
   -4.810       0.2388E-2     1.223       0.1601E-2     1.183   
   -4.800       0.2394E-2     1.224       0.1603E-2     1.183   
   -4.790       0.2399E-2     1.224       0.1606E-2     1.183   
   -4.780       0.2404E-2     1.224       0.1609E-2     1.183   
   -4.770       0.2409E-2     1.224       0.1612E-2     1.184   
   -4.760       0.2415E-2     1.225       0.1615E-2     1.184   
   -4.750       0.2420E-2     1.225       0.1618E-2     1.184   
   -4.740       0.2426E-2     1.225       0.1621E-2     1.184   
   -4.730       0.2431E-2     1.225       0.1624E-2     1.184   
   -4.720       0.2436E-2     1.226       0.1627E-2     1.184   
   -4.710       0.2442E-2     1.226       0.1630E-2     1.185   
   -4.700       0.2447E-2     1.226       0.1633E-2     1.185   
   -4.690       0.2453E-2     1.226       0.1636E-2     1.185   
   -4.680       0.2458E-2     1.227       0.1639E-2     1.185   
   -4.670       0.2464E-2     1.227       0.1642E-2     1.185   
   -4.660       0.2469E-2     1.227       0.1645E-2     1.185   
   -4.650       0.2475E-2     1.227       0.1648E-2     1.186   
   -4.640       0.2480E-2     1.228       0.1651E-2     1.186   
   -4.630       0.2486E-2     1.228       0.1654E-2     1.186   
   -4.620       0.2491E-2     1.228       0.1657E-2     1.186   
   -4.610       0.2497E-2     1.228       0.1660E-2     1.186   
   -4.600       0.2502E-2     1.229       0.1663E-2     1.186   
   -4.590       0.2508E-2     1.229       0.1666E-2     1.187   
   -4.580       0.2514E-2     1.229       0.1669E-2     1.187   
   -4.570       0.2519E-2     1.229       0.1672E-2     1.187   
   -4.560       0.2525E-2     1.230       0.1675E-2     1.187   
   -4.550       0.2531E-2     1.230       0.1678E-2     1.187   
   -4.540       0.2537E-2     1.230       0.1681E-2     1.187   
   -4.530       0.2542E-2     1.230       0.1684E-2     1.188   
   -4.520       0.2548E-2     1.231       0.1688E-2     1.188   
   -4.510       0.2554E-2     1.231       0.1691E-2     1.188   
   -4.500       0.2560E-2     1.231       0.1694E-2     1.188   
   -4.490       0.2566E-2     1.231       0.1697E-2     1.188   
   -4.480       0.2571E-2     1.232       0.1700E-2     1.188   
   -4.470       0.2577E-2     1.232       0.1703E-2     1.189   
   -4.460       0.2583E-2     1.232       0.1706E-2     1.189   
   -4.450       0.2589E-2     1.232       0.1710E-2     1.189   
   -4.440       0.2595E-2     1.233       0.1713E-2     1.189   
   -4.430       0.2601E-2     1.233       0.1716E-2     1.189   
   -4.420       0.2607E-2     1.233       0.1719E-2     1.189   
   -4.410       0.2613E-2     1.233       0.1722E-2     1.190   
   -4.400       0.2619E-2     1.234       0.1726E-2     1.190   
   -4.390       0.2625E-2     1.234       0.1729E-2     1.190   
   -4.380       0.2631E-2     1.234       0.1732E-2     1.190   
   -4.370       0.2637E-2     1.234       0.1735E-2     1.190   
   -4.360       0.2643E-2     1.235       0.1739E-2     1.190   
   -4.350       0.2650E-2     1.235       0.1742E-2     1.191   
   -4.340       0.2656E-2     1.235       0.1745E-2     1.191   
   -4.330       0.2662E-2     1.236       0.1749E-2     1.191   
   -4.320       0.2668E-2     1.236       0.1752E-2     1.191   
   -4.310       0.2674E-2     1.236       0.1755E-2     1.191   
   -4.300       0.2681E-2     1.236       0.1759E-2     1.191   
   -4.290       0.2687E-2     1.237       0.1762E-2     1.192   
   -4.280       0.2693E-2     1.237       0.1765E-2     1.192   
   -4.270       0.2699E-2     1.237       0.1769E-2     1.192   
   -4.260       0.2706E-2     1.237       0.1772E-2     1.192   
   -4.250       0.2712E-2     1.238       0.1775E-2     1.192   
   -4.240       0.2718E-2     1.238       0.1779E-2     1.193   
   -4.230       0.2725E-2     1.238       0.1782E-2     1.193   
   -4.220       0.2731E-2     1.238       0.1785E-2     1.193   
   -4.210       0.2738E-2     1.239       0.1789E-2     1.193   
   -4.200       0.2744E-2     1.239       0.1792E-2     1.193   
   -4.190       0.2751E-2     1.239       0.1796E-2     1.193   
   -4.180       0.2757E-2     1.240       0.1799E-2     1.194   
   -4.170       0.2764E-2     1.240       0.1803E-2     1.194   
   -4.160       0.2770E-2     1.240       0.1806E-2     1.194   
   -4.150       0.2777E-2     1.240       0.1810E-2     1.194   
   -4.140       0.2784E-2     1.241       0.1813E-2     1.194   
   -4.130       0.2790E-2     1.241       0.1817E-2     1.195   
   -4.120       0.2797E-2     1.241       0.1820E-2     1.195   
   -4.110       0.2804E-2     1.242       0.1824E-2     1.195   
   -4.100       0.2810E-2     1.242       0.1827E-2     1.195   
   -4.090       0.2817E-2     1.242       0.1831E-2     1.195   
   -4.080       0.2824E-2     1.242       0.1834E-2     1.195   
   -4.070       0.2831E-2     1.243       0.1838E-2     1.196   
   -4.060       0.2837E-2     1.243       0.1841E-2     1.196   
   -4.050       0.2844E-2     1.243       0.1845E-2     1.196   
   -4.040       0.2851E-2     1.244       0.1848E-2     1.196   
   -4.030       0.2858E-2     1.244       0.1852E-2     1.196   
   -4.020       0.2865E-2     1.244       0.1856E-2     1.197   
   -4.010       0.2872E-2     1.244       0.1859E-2     1.197   
   -4.000       0.2879E-2     1.245       0.1863E-2     1.197   
   -3.990       0.2886E-2     1.245       0.1867E-2     1.197   
   -3.980       0.2893E-2     1.245       0.1870E-2     1.197   
   -3.970       0.2900E-2     1.246       0.1874E-2     1.197   
   -3.960       0.2907E-2     1.246       0.1878E-2     1.198   
   -3.950       0.2914E-2     1.246       0.1881E-2     1.198   
   -3.940       0.2921E-2     1.246       0.1885E-2     1.198   
   -3.930       0.2928E-2     1.247       0.1889E-2     1.198   
   -3.920       0.2936E-2     1.247       0.1892E-2     1.198   
   -3.910       0.2943E-2     1.247       0.1896E-2     1.199   
   -3.900       0.2950E-2     1.248       0.1900E-2     1.199   
   -3.890       0.2957E-2     1.248       0.1904E-2     1.199   
   -3.880       0.2964E-2     1.248       0.1907E-2     1.199   
   -3.870       0.2972E-2     1.248       0.1911E-2     1.199   
   -3.860       0.2979E-2     1.249       0.1915E-2     1.200   
   -3.850       0.2987E-2     1.249       0.1919E-2     1.200   
   -3.840       0.2994E-2     1.249       0.1923E-2     1.200   
   -3.830       0.3001E-2     1.250       0.1926E-2     1.200   
   -3.820       0.3009E-2     1.250       0.1930E-2     1.200   
   -3.810       0.3016E-2     1.250       0.1934E-2     1.201   
   -3.800       0.3024E-2     1.251       0.1938E-2     1.201   
   -3.790       0.3031E-2     1.251       0.1942E-2     1.201   
   -3.780       0.3039E-2     1.251       0.1946E-2     1.201   
   -3.770       0.3047E-2     1.251       0.1950E-2     1.201   
   -3.760       0.3054E-2     1.252       0.1953E-2     1.202   
   -3.750       0.3062E-2     1.252       0.1957E-2     1.202   
   -3.740       0.3069E-2     1.252       0.1961E-2     1.202   
   -3.730       0.3077E-2     1.253       0.1965E-2     1.202   
   -3.720       0.3085E-2     1.253       0.1969E-2     1.202   
   -3.710       0.3093E-2     1.253       0.1973E-2     1.202   
   -3.700       0.3101E-2     1.254       0.1977E-2     1.203   
   -3.690       0.3108E-2     1.254       0.1981E-2     1.203   
   -3.680       0.3116E-2     1.254       0.1985E-2     1.203   
   -3.670       0.3124E-2     1.255       0.1989E-2     1.203   
   -3.660       0.3132E-2     1.255       0.1993E-2     1.203   
   -3.650       0.3140E-2     1.255       0.1997E-2     1.204   
   -3.640       0.3148E-2     1.255       0.2001E-2     1.204   
   -3.630       0.3156E-2     1.256       0.2005E-2     1.204   
   -3.620       0.3164E-2     1.256       0.2009E-2     1.204   
   -3.610       0.3172E-2     1.256       0.2014E-2     1.204   
   -3.600       0.3180E-2     1.257       0.2018E-2     1.205   
   -3.590       0.3188E-2     1.257       0.2022E-2     1.205   
   -3.580       0.3197E-2     1.257       0.2026E-2     1.205   
   -3.570       0.3205E-2     1.258       0.2030E-2     1.205   
   -3.560       0.3213E-2     1.258       0.2034E-2     1.205   
   -3.550       0.3221E-2     1.258       0.2038E-2     1.206   
   -3.540       0.3230E-2     1.259       0.2043E-2     1.206   
   -3.530       0.3238E-2     1.259       0.2047E-2     1.206   
   -3.520       0.3246E-2     1.259       0.2051E-2     1.206   
   -3.510       0.3255E-2     1.260       0.2055E-2     1.207   
   -3.500       0.3263E-2     1.260       0.2059E-2     1.207   
   -3.490       0.3272E-2     1.260       0.2064E-2     1.207   
   -3.480       0.3280E-2     1.261       0.2068E-2     1.207   
   -3.470       0.3289E-2     1.261       0.2072E-2     1.207   
   -3.460       0.3297E-2     1.261       0.2077E-2     1.208   
   -3.450       0.3306E-2     1.262       0.2081E-2     1.208   
   -3.440       0.3315E-2     1.262       0.2085E-2     1.208   
   -3.430       0.3323E-2     1.262       0.2089E-2     1.208   
   -3.420       0.3332E-2     1.263       0.2094E-2     1.208   
   -3.410       0.3341E-2     1.263       0.2098E-2     1.209   
   -3.400       0.3350E-2     1.263       0.2103E-2     1.209   
   -3.390       0.3358E-2     1.264       0.2107E-2     1.209   
   -3.380       0.3367E-2     1.264       0.2111E-2     1.209   
   -3.370       0.3376E-2     1.264       0.2116E-2     1.209   
   -3.360       0.3385E-2     1.265       0.2120E-2     1.210   
   -3.350       0.3394E-2     1.265       0.2125E-2     1.210   
   -3.340       0.3403E-2     1.265       0.2129E-2     1.210   
   -3.330       0.3412E-2     1.266       0.2134E-2     1.210   
   -3.320       0.3421E-2     1.266       0.2138E-2     1.210   
   -3.310       0.3430E-2     1.266       0.2143E-2     1.211   
   -3.300       0.3439E-2     1.267       0.2147E-2     1.211   
   -3.290       0.3449E-2     1.267       0.2152E-2     1.211   
   -3.280       0.3458E-2     1.267       0.2156E-2     1.211   
   -3.270       0.3467E-2     1.268       0.2161E-2     1.212   
   -3.260       0.3476E-2     1.268       0.2165E-2     1.212   
   -3.250       0.3486E-2     1.268       0.2170E-2     1.212   
   -3.240       0.3495E-2     1.269       0.2175E-2     1.212   
   -3.230       0.3505E-2     1.269       0.2179E-2     1.212   
   -3.220       0.3514E-2     1.269       0.2184E-2     1.213   
   -3.210       0.3524E-2     1.270       0.2188E-2     1.213   
   -3.200       0.3533E-2     1.270       0.2193E-2     1.213   
   -3.190       0.3543E-2     1.271       0.2198E-2     1.213   
   -3.180       0.3552E-2     1.271       0.2203E-2     1.214   
   -3.170       0.3562E-2     1.271       0.2207E-2     1.214   
   -3.160       0.3572E-2     1.272       0.2212E-2     1.214   
   -3.150       0.3581E-2     1.272       0.2217E-2     1.214   
   -3.140       0.3591E-2     1.272       0.2221E-2     1.214   
   -3.130       0.3601E-2     1.273       0.2226E-2     1.215   
   -3.120       0.3611E-2     1.273       0.2231E-2     1.215   
   -3.110       0.3621E-2     1.273       0.2236E-2     1.215   
   -3.100       0.3631E-2     1.274       0.2241E-2     1.215   
   -3.090       0.3641E-2     1.274       0.2246E-2     1.216   
   -3.080       0.3651E-2     1.274       0.2250E-2     1.216   
   -3.070       0.3661E-2     1.275       0.2255E-2     1.216   
   -3.060       0.3671E-2     1.275       0.2260E-2     1.216   
   -3.050       0.3681E-2     1.276       0.2265E-2     1.216   
   -3.040       0.3691E-2     1.276       0.2270E-2     1.217   
   -3.030       0.3702E-2     1.276       0.2275E-2     1.217   
   -3.020       0.3712E-2     1.277       0.2280E-2     1.217   
   -3.010       0.3722E-2     1.277       0.2285E-2     1.217   
   -3.000       0.3733E-2     1.277       0.2290E-2     1.218   
   -2.990       0.3743E-2     1.278       0.2295E-2     1.218   
   -2.980       0.3753E-2     1.278       0.2300E-2     1.218   
   -2.970       0.3764E-2     1.279       0.2305E-2     1.218   
   -2.960       0.3775E-2     1.279       0.2310E-2     1.218   
   -2.950       0.3785E-2     1.279       0.2315E-2     1.219   
   -2.940       0.3796E-2     1.280       0.2320E-2     1.219   
   -2.930       0.3807E-2     1.280       0.2325E-2     1.219   
   -2.920       0.3817E-2     1.280       0.2330E-2     1.219   
   -2.910       0.3828E-2     1.281       0.2336E-2     1.220   
   -2.900       0.3839E-2     1.281       0.2341E-2     1.220   
   -2.890       0.3850E-2     1.282       0.2346E-2     1.220   
   -2.880       0.3861E-2     1.282       0.2351E-2     1.220   
   -2.870       0.3872E-2     1.282       0.2356E-2     1.221   
   -2.860       0.3883E-2     1.283       0.2362E-2     1.221   
   -2.850       0.3894E-2     1.283       0.2367E-2     1.221   
   -2.840       0.3905E-2     1.284       0.2372E-2     1.221   
   -2.830       0.3916E-2     1.284       0.2377E-2     1.222   
   -2.820       0.3927E-2     1.284       0.2383E-2     1.222   
   -2.810       0.3939E-2     1.285       0.2388E-2     1.222   
   -2.800       0.3950E-2     1.285       0.2393E-2     1.222   
   -2.790       0.3961E-2     1.285       0.2399E-2     1.222   
   -2.780       0.3973E-2     1.286       0.2404E-2     1.223   
   -2.770       0.3984E-2     1.286       0.2409E-2     1.223   
   -2.760       0.3996E-2     1.287       0.2415E-2     1.223   
   -2.750       0.4007E-2     1.287       0.2420E-2     1.223   
   -2.740       0.4019E-2     1.287       0.2426E-2     1.224   
   -2.730       0.4031E-2     1.288       0.2431E-2     1.224   
   -2.720       0.4042E-2     1.288       0.2437E-2     1.224   
   -2.710       0.4054E-2     1.289       0.2442E-2     1.224   
   -2.700       0.4066E-2     1.289       0.2448E-2     1.225   
   -2.690       0.4078E-2     1.290       0.2453E-2     1.225   
   -2.680       0.4090E-2     1.290       0.2459E-2     1.225   
   -2.670       0.4102E-2     1.290       0.2465E-2     1.225   
   -2.660       0.4114E-2     1.291       0.2470E-2     1.226   
   -2.650       0.4126E-2     1.291       0.2476E-2     1.226   
   -2.640       0.4138E-2     1.292       0.2481E-2     1.226   
   -2.630       0.4150E-2     1.292       0.2487E-2     1.226   
   -2.620       0.4163E-2     1.292       0.2493E-2     1.227   
   -2.610       0.4175E-2     1.293       0.2499E-2     1.227   
   -2.600       0.4187E-2     1.293       0.2504E-2     1.227   
   -2.590       0.4200E-2     1.294       0.2510E-2     1.227   
   -2.580       0.4212E-2     1.294       0.2516E-2     1.228   
   -2.570       0.4225E-2     1.294       0.2522E-2     1.228   
   -2.560       0.4238E-2     1.295       0.2527E-2     1.228   
   -2.550       0.4250E-2     1.295       0.2533E-2     1.228   
   -2.540       0.4263E-2     1.296       0.2539E-2     1.229   
     -2.5300       0.0043       1.2962       0.0025       1.2289
     -2.5200       0.0043       1.2966       0.0026       1.2292
     -2.5100       0.0043       1.2970       0.0026       1.2294
     -2.5000       0.0043       1.2975       0.0026       1.2297
     -2.4900       0.0043       1.2979       0.0026       1.2299
     -2.4800       0.0043       1.2983       0.0026       1.2302
     -2.4700       0.0044       1.2988       0.0026       1.2305
     -2.4600       0.0044       1.2992       0.0026       1.2307
     -2.4500       0.0044       1.2996       0.0026       1.2310
     -2.4400       0.0044       1.3001       0.0026       1.2312
     -2.4300       0.0044       1.3005       0.0026       1.2315
     -2.4200       0.0044       1.3010       0.0026       1.2317
     -2.4100       0.0044       1.3014       0.0026       1.2320
     -2.4000       0.0044       1.3018       0.0026       1.2323
     -2.3900       0.0045       1.3023       0.0026       1.2325
     -2.3800       0.0045       1.3027       0.0026       1.2328
     -2.3700       0.0045       1.3032       0.0026       1.2331
     -2.3600       0.0045       1.3036       0.0026       1.2333
     -2.3500       0.0045       1.3041       0.0027       1.2336
     -2.3400       0.0045       1.3045       0.0027       1.2339
     -2.3300       0.0045       1.3050       0.0027       1.2341
     -2.3200       0.0046       1.3054       0.0027       1.2344
     -2.3100       0.0046       1.3059       0.0027       1.2347
     -2.3000       0.0046       1.3064       0.0027       1.2349
     -2.2900       0.0046       1.3068       0.0027       1.2352
     -2.2800       0.0046       1.3073       0.0027       1.2355
     -2.2700       0.0046       1.3077       0.0027       1.2357
     -2.2600       0.0046       1.3082       0.0027       1.2360
     -2.2500       0.0047       1.3087       0.0027       1.2363
     -2.2400       0.0047       1.3091       0.0027       1.2365
     -2.2300       0.0047       1.3096       0.0027       1.2368
     -2.2200       0.0047       1.3101       0.0027       1.2371
     -2.2100       0.0047       1.3105       0.0027       1.2374
     -2.2000       0.0047       1.3110       0.0028       1.2376
     -2.1900       0.0047       1.3115       0.0028       1.2379
     -2.1800       0.0048       1.3120       0.0028       1.2382
     -2.1700       0.0048       1.3124       0.0028       1.2385
     -2.1600       0.0048       1.3129       0.0028       1.2388
     -2.1500       0.0048       1.3134       0.0028       1.2390
     -2.1400       0.0048       1.3139       0.0028       1.2393
     -2.1300       0.0048       1.3144       0.0028       1.2396
     -2.1200       0.0049       1.3149       0.0028       1.2399
     -2.1100       0.0049       1.3153       0.0028       1.2401
     -2.1000       0.0049       1.3158       0.0028       1.2404
     -2.0900       0.0049       1.3163       0.0028       1.2407
     -2.0800       0.0049       1.3168       0.0028       1.2410
     -2.0700       0.0049       1.3173       0.0028       1.2413
     -2.0600       0.0050       1.3178       0.0028       1.2416
     -2.0500       0.0050       1.3183       0.0029       1.2418
     -2.0400       0.0050       1.3188       0.0029       1.2421
     -2.0300       0.0050       1.3193       0.0029       1.2424
     -2.0200       0.0050       1.3198       0.0029       1.2427
     -2.0100       0.0050       1.3203       0.0029       1.2430
     -2.0000       0.0050       1.3208       0.0029       1.2433
     -1.9900       0.0051       1.3213       0.0029       1.2436
     -1.9800       0.0051       1.3218       0.0029       1.2439
     -1.9700       0.0051       1.3223       0.0029       1.2442
     -1.9600       0.0051       1.3228       0.0029       1.2444
     -1.9500       0.0051       1.3233       0.0029       1.2447
     -1.9400       0.0052       1.3238       0.0029       1.2450
     -1.9300       0.0052       1.3244       0.0029       1.2453
     -1.9200       0.0052       1.3249       0.0029       1.2456
     -1.9100       0.0052       1.3254       0.0030       1.2459
     -1.9000       0.0052       1.3259       0.0030       1.2462
     -1.8900       0.0052       1.3264       0.0030       1.2465
     -1.8800       0.0053       1.3270       0.0030       1.2468
     -1.8700       0.0053       1.3275       0.0030       1.2471
     -1.8600       0.0053       1.3280       0.0030       1.2474
     -1.8500       0.0053       1.3286       0.0030       1.2477
     -1.8400       0.0053       1.3291       0.0030       1.2480
     -1.8300       0.0053       1.3296       0.0030       1.2483
     -1.8200       0.0054       1.3302       0.0030       1.2486
     -1.8100       0.0054       1.3307       0.0030       1.2489
     -1.8000       0.0054       1.3312       0.0030       1.2492
     -1.7900       0.0054       1.3318       0.0030       1.2495
     -1.7800       0.0054       1.3323       0.0031       1.2498
     -1.7700       0.0055       1.3329       0.0031       1.2501
     -1.7600       0.0055       1.3334       0.0031       1.2504
     -1.7500       0.0055       1.3339       0.0031       1.2507
     -1.7400       0.0055       1.3345       0.0031       1.2510
     -1.7300       0.0055       1.3350       0.0031       1.2514
     -1.7200       0.0055       1.3356       0.0031       1.2517
     -1.7100       0.0056       1.3362       0.0031       1.2520
     -1.7000       0.0056       1.3367       0.0031       1.2523
     -1.6900       0.0056       1.3373       0.0031       1.2526
     -1.6800       0.0056       1.3378       0.0031       1.2529
     -1.6700       0.0056       1.3384       0.0031       1.2532
     -1.6600       0.0057       1.3390       0.0031       1.2535
     -1.6500       0.0057       1.3395       0.0032       1.2539
     -1.6400       0.0057       1.3401       0.0032       1.2542
     -1.6300       0.0057       1.3407       0.0032       1.2545
     -1.6200       0.0057       1.3412       0.0032       1.2548
     -1.6100       0.0058       1.3418       0.0032       1.2551
     -1.6000       0.0058       1.3424       0.0032       1.2554
     -1.5900       0.0058       1.3430       0.0032       1.2558
     -1.5800       0.0058       1.3436       0.0032       1.2561
     -1.5700       0.0058       1.3441       0.0032       1.2564
     -1.5600       0.0059       1.3447       0.0032       1.2567
     -1.5500       0.0059       1.3453       0.0032       1.2570
     -1.5400       0.0059       1.3459       0.0033       1.2574
     -1.5300       0.0059       1.3465       0.0033       1.2577
     -1.5200       0.0060       1.3471       0.0033       1.2580
     -1.5100       0.0060       1.3477       0.0033       1.2584
     -1.5000       0.0060       1.3483       0.0033       1.2587
     -1.4900       0.0060       1.3489       0.0033       1.2590
     -1.4800       0.0060       1.3495       0.0033       1.2593
     -1.4700       0.0061       1.3501       0.0033       1.2597
     -1.4600       0.0061       1.3507       0.0033       1.2600
     -1.4500       0.0061       1.3513       0.0033       1.2603
     -1.4400       0.0061       1.3519       0.0033       1.2607
     -1.4300       0.0062       1.3525       0.0033       1.2610
     -1.4200       0.0062       1.3531       0.0034       1.2613
     -1.4100       0.0062       1.3538       0.0034       1.2617
     -1.4000       0.0062       1.3544       0.0034       1.2620
     -1.3900       0.0062       1.3550       0.0034       1.2623
     -1.3800       0.0063       1.3556       0.0034       1.2627
     -1.3700       0.0063       1.3563       0.0034       1.2630
     -1.3600       0.0063       1.3569       0.0034       1.2634
     -1.3500       0.0063       1.3575       0.0034       1.2637
     -1.3400       0.0064       1.3582       0.0034       1.2640
     -1.3300       0.0064       1.3588       0.0034       1.2644
     -1.3200       0.0064       1.3594       0.0034       1.2647
     -1.3100       0.0064       1.3601       0.0035       1.2651
     -1.3000       0.0065       1.3607       0.0035       1.2654
     -1.2900       0.0065       1.3614       0.0035       1.2658
     -1.2800       0.0065       1.3620       0.0035       1.2661
     -1.2700       0.0065       1.3627       0.0035       1.2665
     -1.2600       0.0066       1.3633       0.0035       1.2668
     -1.2500       0.0066       1.3640       0.0035       1.2672
     -1.2400       0.0066       1.3646       0.0035       1.2675
     -1.2300       0.0066       1.3653       0.0035       1.2679
     -1.2200       0.0067       1.3660       0.0035       1.2682
     -1.2100       0.0067       1.3666       0.0036       1.2686
     -1.2000       0.0067       1.3673       0.0036       1.2689
     -1.1900       0.0067       1.3680       0.0036       1.2693
     -1.1800       0.0068       1.3686       0.0036       1.2697
     -1.1700       0.0068       1.3693       0.0036       1.2700
     -1.1600       0.0068       1.3700       0.0036       1.2704
     -1.1500       0.0068       1.3707       0.0036       1.2707
     -1.1400       0.0069       1.3714       0.0036       1.2711
     -1.1300       0.0069       1.3720       0.0036       1.2715
     -1.1200       0.0069       1.3727       0.0036       1.2718
     -1.1100       0.0069       1.3734       0.0037       1.2722
     -1.1000       0.0070       1.3741       0.0037       1.2726
     -1.0900       0.0070       1.3748       0.0037       1.2729
     -1.0800       0.0070       1.3755       0.0037       1.2733
     -1.0700       0.0071       1.3762       0.0037       1.2737
     -1.0600       0.0071       1.3769       0.0037       1.2740
     -1.0500       0.0071       1.3776       0.0037       1.2744
     -1.0400       0.0071       1.3784       0.0037       1.2748
     -1.0300       0.0072       1.3791       0.0037       1.2751
     -1.0200       0.0072       1.3798       0.0038       1.2755
     -1.0100       0.0072       1.3805       0.0038       1.2759
     -1.0000       0.0073       1.3812       0.0038       1.2763
     -0.9900       0.0073       1.3820       0.0038       1.2767
     -0.9800       0.0073       1.3827       0.0038       1.2770
     -0.9700       0.0073       1.3834       0.0038       1.2774
     -0.9600       0.0074       1.3841       0.0038       1.2778
     -0.9500       0.0074       1.3849       0.0038       1.2782
     -0.9400       0.0074       1.3856       0.0038       1.2786
     -0.9300       0.0075       1.3864       0.0038       1.2789
     -0.9200       0.0075       1.3871       0.0039       1.2793
     -0.9100       0.0075       1.3879       0.0039       1.2797
     -0.9000       0.0076       1.3886       0.0039       1.2801
     -0.8900       0.0076       1.3894       0.0039       1.2805
     -0.8800       0.0076       1.3901       0.0039       1.2809
     -0.8700       0.0076       1.3909       0.0039       1.2813
     -0.8600       0.0077       1.3917       0.0039       1.2817
     -0.8500       0.0077       1.3924       0.0039       1.2821
     -0.8400       0.0077       1.3932       0.0040       1.2825
     -0.8300       0.0078       1.3940       0.0040       1.2828
     -0.8200       0.0078       1.3948       0.0040       1.2832
     -0.8100       0.0078       1.3955       0.0040       1.2836
     -0.8000       0.0079       1.3963       0.0040       1.2840
     -0.7900       0.0079       1.3971       0.0040       1.2844
     -0.7800       0.0079       1.3979       0.0040       1.2848
     -0.7700       0.0080       1.3987       0.0040       1.2852
     -0.7600       0.0080       1.3995       0.0040       1.2856
     -0.7500       0.0080       1.4003       0.0041       1.2861
     -0.7400       0.0081       1.4011       0.0041       1.2865
     -0.7300       0.0081       1.4019       0.0041       1.2869
     -0.7200       0.0081       1.4027       0.0041       1.2873
     -0.7100       0.0082       1.4035       0.0041       1.2877
     -0.7000       0.0082       1.4044       0.0041       1.2881
     -0.6900       0.0082       1.4052       0.0041       1.2885
     -0.6800       0.0083       1.4060       0.0041       1.2889
     -0.6700       0.0083       1.4068       0.0042       1.2893
     -0.6600       0.0084       1.4077       0.0042       1.2898
     -0.6500       0.0084       1.4085       0.0042       1.2902
     -0.6400       0.0084       1.4093       0.0042       1.2906
     -0.6300       0.0085       1.4102       0.0042       1.2910
     -0.6200       0.0085       1.4110       0.0042       1.2914
     -0.6100       0.0085       1.4119       0.0042       1.2919
     -0.6000       0.0086       1.4127       0.0042       1.2923
     -0.5900       0.0086       1.4136       0.0043       1.2927
     -0.5800       0.0087       1.4145       0.0043       1.2931
     -0.5700       0.0087       1.4153       0.0043       1.2936
     -0.5600       0.0087       1.4162       0.0043       1.2940
     -0.5500       0.0088       1.4171       0.0043       1.2944
     -0.5400       0.0088       1.4179       0.0043       1.2949
     -0.5300       0.0088       1.4188       0.0043       1.2953
     -0.5200       0.0089       1.4197       0.0044       1.2957
     -0.5100       0.0089       1.4206       0.0044       1.2962
     -0.5000       0.0090       1.4215       0.0044       1.2966
     -0.4900       0.0090       1.4224       0.0044       1.2970
     -0.4800       0.0090       1.4233       0.0044       1.2975
     -0.4700       0.0091       1.4242       0.0044       1.2979
     -0.4600       0.0091       1.4251       0.0044       1.2984
     -0.4500       0.0092       1.4260       0.0045       1.2988
     -0.4400       0.0092       1.4269       0.0045       1.2992
     -0.4300       0.0093       1.4279       0.0045       1.2997
     -0.4200       0.0093       1.4288       0.0045       1.3001
     -0.4100       0.0093       1.4297       0.0045       1.3006
     -0.4000       0.0094       1.4307       0.0045       1.3010
     -0.3900       0.0094       1.4316       0.0045       1.3015
     -0.3800       0.0095       1.4325       0.0046       1.3020
     -0.3700       0.0095       1.4335       0.0046       1.3024
     -0.3600       0.0096       1.4344       0.0046       1.3029
     -0.3500       0.0096       1.4354       0.0046       1.3033
     -0.3400       0.0096       1.4364       0.0046       1.3038
     -0.3300       0.0097       1.4373       0.0046       1.3042
     -0.3200       0.0097       1.4383       0.0046       1.3047
     -0.3100       0.0098       1.4393       0.0047       1.3052
     -0.3000       0.0098       1.4403       0.0047       1.3056
     -0.2900       0.0099       1.4412       0.0047       1.3061
     -0.2800       0.0099       1.4422       0.0047       1.3066
     -0.2700       0.0100       1.4432       0.0047       1.3070
     -0.2600       0.0100       1.4442       0.0047       1.3075
     -0.2500       0.0101       1.4452       0.0047       1.3080
     -0.2400       0.0101       1.4462       0.0048       1.3085
     -0.2300       0.0102       1.4472       0.0048       1.3089
     -0.2200       0.0102       1.4483       0.0048       1.3094
     -0.2100       0.0103       1.4493       0.0048       1.3099
     -0.2000       0.0103       1.4503       0.0048       1.3104
     -0.1900       0.0104       1.4513       0.0048       1.3109
     -0.1800       0.0104       1.4524       0.0049       1.3114
     -0.1700       0.0105       1.4534       0.0049       1.3118
     -0.1600       0.0105       1.4545       0.0049       1.3123
     -0.1500       0.0106       1.4555       0.0049       1.3128
     -0.1400       0.0106       1.4566       0.0049       1.3133
     -0.1300       0.0107       1.4576       0.0049       1.3138
     -0.1200       0.0107       1.4587       0.0050       1.3143
     -0.1100       0.0108       1.4598       0.0050       1.3148
     -0.1000       0.0108       1.4609       0.0050       1.3153
     -0.0900       0.0109       1.4620       0.0050       1.3158
     -0.0800       0.0109       1.4630       0.0050       1.3163
     -0.0700       0.0110       1.4641       0.0050       1.3168
     -0.0600       0.0111       1.4652       0.0051       1.3173
     -0.0500       0.0111       1.4664       0.0051       1.3178
     -0.0400       0.0112       1.4675       0.0051       1.3183
     -0.0300       0.0112       1.4686       0.0051       1.3188
     -0.0200       0.0113       1.4697       0.0051       1.3193
     -0.0100       0.0113       1.4708       0.0051       1.3198
      0.0000       0.0114       1.4720       0.0052       1.3204
      0.0100       0.0115       1.4731       0.0052       1.3209
      0.0200       0.0115       1.4743       0.0052       1.3214
      0.0300       0.0116       1.4754       0.0052       1.3219
      0.0400       0.0116       1.4766       0.0052       1.3224
      0.0500       0.0117       1.4777       0.0053       1.3230
      0.0600       0.0118       1.4789       0.0053       1.3235
      0.0700       0.0118       1.4801       0.0053       1.3240
      0.0800       0.0119       1.4813       0.0053       1.3245
      0.0900       0.0120       1.4825       0.0053       1.3251
      0.1000       0.0120       1.4837       0.0053       1.3256
      0.1100       0.0121       1.4849       0.0054       1.3261
      0.1200       0.0121       1.4861       0.0054       1.3267
      0.1300       0.0122       1.4873       0.0054       1.3272
      0.1400       0.0123       1.4885       0.0054       1.3278
      0.1500       0.0123       1.4897       0.0054       1.3283
      0.1600       0.0124       1.4910       0.0055       1.3289
      0.1700       0.0125       1.4922       0.0055       1.3294
      0.1800       0.0125       1.4935       0.0055       1.3299
      0.1900       0.0126       1.4947       0.0055       1.3305
      0.2000       0.0127       1.4960       0.0055       1.3310
      0.2100       0.0128       1.4973       0.0056       1.3316
      0.2200       0.0128       1.4985       0.0056       1.3322
      0.2300       0.0129       1.4998       0.0056       1.3327
      0.2400       0.0130       1.5011       0.0056       1.3333
      0.2500       0.0130       1.5024       0.0056       1.3338
      0.2600       0.0131       1.5037       0.0057       1.3344
      0.2700       0.0132       1.5050       0.0057       1.3350
      0.2800       0.0133       1.5063       0.0057       1.3355
      0.2900       0.0133       1.5077       0.0057       1.3361
      0.3000       0.0134       1.5090       0.0057       1.3367
      0.3100       0.0135       1.5104       0.0058       1.3373
      0.3200       0.0136       1.5117       0.0058       1.3378
      0.3300       0.0136       1.5131       0.0058       1.3384
      0.3400       0.0137       1.5144       0.0058       1.3390
      0.3500       0.0138       1.5158       0.0058       1.3396
      0.3600       0.0139       1.5172       0.0059       1.3402
      0.3700       0.0140       1.5186       0.0059       1.3408
      0.3800       0.0140       1.5200       0.0059       1.3413
      0.3900       0.0141       1.5214       0.0059       1.3419
      0.4000       0.0142       1.5228       0.0060       1.3425
      0.4100       0.0143       1.5242       0.0060       1.3431
      0.4200       0.0144       1.5256       0.0060       1.3437
      0.4300       0.0144       1.5271       0.0060       1.3443
      0.4400       0.0145       1.5285       0.0060       1.3449
      0.4500       0.0146       1.5300       0.0061       1.3455
      0.4600       0.0147       1.5314       0.0061       1.3461
      0.4700       0.0148       1.5329       0.0061       1.3467
      0.4800       0.0149       1.5344       0.0061       1.3474
      0.4900       0.0150       1.5359       0.0062       1.3480
      0.5000       0.0151       1.5374       0.0062       1.3486
      0.5100       0.0152       1.5389       0.0062       1.3492
      0.5200       0.0152       1.5404       0.0062       1.3498
      0.5300       0.0153       1.5419       0.0063       1.3505
      0.5400       0.0154       1.5435       0.0063       1.3511
      0.5500       0.0155       1.5450       0.0063       1.3517
      0.5600       0.0156       1.5466       0.0063       1.3523
      0.5700       0.0157       1.5481       0.0064       1.3530
      0.5800       0.0158       1.5497       0.0064       1.3536
      0.5900       0.0159       1.5513       0.0064       1.3542
      0.6000       0.0160       1.5529       0.0064       1.3549
      0.6100       0.0161       1.5545       0.0065       1.3555
      0.6200       0.0162       1.5561       0.0065       1.3562
      0.6300       0.0163       1.5577       0.0065       1.3568
      0.6400       0.0164       1.5594       0.0065       1.3575
      0.6500       0.0165       1.5610       0.0066       1.3581
      0.6600       0.0166       1.5627       0.0066       1.3588
      0.6700       0.0167       1.5643       0.0066       1.3594
      0.6800       0.0168       1.5660       0.0066       1.3601
      0.6900       0.0170       1.5677       0.0067       1.3608
      0.7000       0.0171       1.5694       0.0067       1.3614
      0.7100       0.0172       1.5711       0.0067       1.3621
      0.7200       0.0173       1.5728       0.0067       1.3628
      0.7300       0.0174       1.5745       0.0068       1.3635
      0.7400       0.0175       1.5763       0.0068       1.3641
      0.7500       0.0176       1.5780       0.0068       1.3648
      0.7600       0.0178       1.5798       0.0068       1.3655
      0.7700       0.0179       1.5816       0.0069       1.3662
      0.7800       0.0180       1.5834       0.0069       1.3669
      0.7900       0.0181       1.5852       0.0069       1.3676
      0.8000       0.0182       1.5870       0.0070       1.3683
      0.8100       0.0184       1.5888       0.0070       1.3690
      0.8200       0.0185       1.5906       0.0070       1.3697
      0.8300       0.0186       1.5925       0.0070       1.3704
      0.8400       0.0187       1.5944       0.0071       1.3711
      0.8500       0.0189       1.5962       0.0071       1.3718
      0.8600       0.0190       1.5981       0.0071       1.3725
      0.8700       0.0191       1.6000       0.0072       1.3732
      0.8800       0.0193       1.6019       0.0072       1.3739
      0.8900       0.0194       1.6039       0.0072       1.3746
      0.9000       0.0195       1.6058       0.0073       1.3754
      0.9100       0.0197       1.6078       0.0073       1.3761
      0.9200       0.0198       1.6097       0.0073       1.3768
      0.9300       0.0199       1.6117       0.0073       1.3775
      0.9400       0.0201       1.6137       0.0074       1.3783
      0.9500       0.0202       1.6157       0.0074       1.3790
      0.9600       0.0204       1.6177       0.0074       1.3798
      0.9700       0.0205       1.6198       0.0075       1.3805
      0.9800       0.0207       1.6218       0.0075       1.3812
      0.9900       0.0208       1.6239       0.0075       1.3820
      1.0000       0.0210       1.6260       0.0076       1.3828
      1.0100       0.0211       1.6281       0.0076       1.3835
      1.0200       0.0213       1.6302       0.0076       1.3843
      1.0300       0.0214       1.6323       0.0077       1.3850
      1.0400       0.0216       1.6345       0.0077       1.3858
      1.0500       0.0218       1.6366       0.0077       1.3866
      1.0600       0.0219       1.6388       0.0078       1.3873
      1.0700       0.0221       1.6410       0.0078       1.3881
      1.0800       0.0222       1.6432       0.0078       1.3889
      1.0900       0.0224       1.6454       0.0079       1.3897
      1.1000       0.0226       1.6477       0.0079       1.3905
      1.1100       0.0228       1.6499       0.0079       1.3913
      1.1200       0.0229       1.6522       0.0080       1.3921
      1.1300       0.0231       1.6545       0.0080       1.3929
      1.1400       0.0233       1.6568       0.0080       1.3937
      1.1500       0.0235       1.6591       0.0081       1.3945
      1.1600       0.0237       1.6615       0.0081       1.3953
      1.1700       0.0238       1.6639       0.0081       1.3961
      1.1800       0.0240       1.6662       0.0082       1.3969
      1.1900       0.0242       1.6686       0.0082       1.3977
      1.2000       0.0244       1.6711       0.0083       1.3985
      1.2100       0.0246       1.6735       0.0083       1.3994
      1.2200       0.0248       1.6760       0.0083       1.4002
      1.2300       0.0250       1.6785       0.0084       1.4010
      1.2400       0.0252       1.6810       0.0084       1.4019
      1.2500       0.0254       1.6835       0.0084       1.4027
      1.2600       0.0256       1.6860       0.0085       1.4036
      1.2700       0.0258       1.6886       0.0085       1.4044
      1.2800       0.0260       1.6912       0.0086       1.4053
      1.2900       0.0263       1.6938       0.0086       1.4061
      1.3000       0.0265       1.6964       0.0086       1.4070
      1.3100       0.0267       1.6990       0.0087       1.4079
      1.3200       0.0269       1.7017       0.0087       1.4087
      1.3300       0.0271       1.7044       0.0088       1.4096
      1.3400       0.0274       1.7071       0.0088       1.4105
      1.3500       0.0276       1.7099       0.0088       1.4114
      1.3600       0.0279       1.7126       0.0089       1.4122
      1.3700       0.0281       1.7154       0.0089       1.4131
      1.3800       0.0283       1.7182       0.0090       1.4140
      1.3900       0.0286       1.7211       0.0090       1.4149
      1.4000       0.0288       1.7239       0.0091       1.4158
      1.4100       0.0291       1.7268       0.0091       1.4167
      1.4200       0.0293       1.7297       0.0091       1.4176
      1.4300       0.0296       1.7326       0.0092       1.4186
      1.4400       0.0299       1.7356       0.0092       1.4195
      1.4500       0.0301       1.7386       0.0093       1.4204
      1.4600       0.0304       1.7416       0.0093       1.4213
      1.4700       0.0307       1.7447       0.0094       1.4223
      1.4800       0.0310       1.7477       0.0094       1.4232
      1.4900       0.0313       1.7508       0.0095       1.4242
      1.5000       0.0315       1.7539       0.0095       1.4251
      1.5100       0.0318       1.7571       0.0096       1.4261
      1.5200       0.0321       1.7603       0.0096       1.4270
      1.5300       0.0324       1.7635       0.0096       1.4280
      1.5400       0.0327       1.7667       0.0097       1.4289
      1.5500       0.0331       1.7700       0.0097       1.4299
      1.5600       0.0334       1.7733       0.0098       1.4309
      1.5700       0.0337       1.7767       0.0098       1.4319
      1.5800       0.0340       1.7800       0.0099       1.4328
      1.5900       0.0343       1.7834       0.0099       1.4338
      1.6000       0.0347       1.7869       0.0100       1.4348
     1.61000      0.03502      1.79032      0.01004      1.43584
     1.62000      0.03536      1.79382      0.01009      1.43684
     1.63000      0.03572      1.79736      0.01015      1.43785
     1.64000      0.03607      1.80093      0.01020      1.43887
     1.65000      0.03644      1.80454      0.01025      1.43989
     1.66000      0.03680      1.80818      0.01030      1.44091
     1.67000      0.03718      1.81186      0.01036      1.44195
     1.68000      0.03756      1.81557      0.01041      1.44298
     1.69000      0.03795      1.81933      0.01046      1.44403
     1.70000      0.03834      1.82312      0.01052      1.44507
     1.71000      0.03874      1.82695      0.01057      1.44613
     1.72000      0.03915      1.83082      0.01063      1.44718
     1.73000      0.03956      1.83473      0.01068      1.44825
     1.74000      0.03998      1.83869      0.01074      1.44932
     1.75000      0.04041      1.84268      0.01080      1.45039
     1.76000      0.04084      1.84672      0.01085      1.45147
     1.77000      0.04128      1.85080      0.01091      1.45256
     1.78000      0.04173      1.85493      0.01097      1.45365
     1.79000      0.04219      1.85910      0.01103      1.45475
     1.80000      0.04266      1.86331      0.01109      1.45586
     1.81000      0.04313      1.86757      0.01115      1.45697
     1.82000      0.04362      1.87188      0.01121      1.45808
     1.83000      0.04411      1.87624      0.01127      1.45920
     1.84000      0.04461      1.88064      0.01133      1.46033
     1.85000      0.04512      1.88510      0.01139      1.46147
     1.86000      0.04564      1.88960      0.01145      1.46261
     1.87000      0.04616      1.89416      0.01152      1.46375
     1.88000      0.04670      1.89877      0.01158      1.46491
     1.89000      0.04725      1.90343      0.01165      1.46607
     1.90000      0.04781      1.90815      0.01171      1.46723
     1.91000      0.04838      1.91292      0.01178      1.46840
     1.92000      0.04896      1.91775      0.01184      1.46958
     1.93000      0.04955      1.92264      0.01191      1.47077
     1.94000      0.05015      1.92759      0.01197      1.47196
     1.95000      0.05077      1.93259      0.01204      1.47316
     1.96000      0.05140      1.93766      0.01211      1.47436
     1.97000      0.05204      1.94279      0.01218      1.47558
     1.98000      0.05269      1.94798      0.01225      1.47680
     1.99000      0.05335      1.95324      0.01232      1.47802
     2.00000      0.05403      1.95856      0.01239      1.47926
     2.01000      0.05473      1.96395      0.01246      1.48050
     2.02000      0.05543      1.96941      0.01253      1.48174
     2.03000      0.05616      1.97494      0.01261      1.48300
     2.04000      0.05690      1.98054      0.01268      1.48426
     2.05000      0.05765      1.98621      0.01275      1.48553
     2.06000      0.05842      1.99196      0.01283      1.48681
     2.07000      0.05921      1.99778      0.01290      1.48809
     2.08000      0.06001      2.00369      0.01298      1.48938
     2.09000      0.06083      2.00967      0.01306      1.49068
     2.10000      0.06167      2.01573      0.01314      1.49199
     2.11000      0.06253      2.02188      0.01321      1.49330
     2.12000      0.06341      2.02811      0.01329      1.49463
     2.13000      0.06430      2.03442      0.01337      1.49596
     2.14000      0.06522      2.04083      0.01345      1.49730
     2.15000      0.06616      2.04732      0.01354      1.49864
     2.16000      0.06713      2.05391      0.01362      1.50000
     2.17000      0.06811      2.06060      0.01370      1.50136
     2.18000      0.06912      2.06738      0.01379      1.50273
     2.19000      0.07015      2.07426      0.01387      1.50411
     2.20000      0.07121      2.08124      0.01396      1.50550
     2.21000      0.07229      2.08833      0.01404      1.50690
     2.22000      0.07341      2.09552      0.01413      1.50830
     2.23000      0.07454      2.10282      0.01422      1.50972
     2.24000      0.07571      2.11023      0.01431      1.51114
     2.25000      0.07691      2.11776      0.01440      1.51257
     2.26000      0.07814      2.12541      0.01449      1.51402
     2.27000      0.07940      2.13317      0.01458      1.51547
     2.28000      0.08070      2.14106      0.01468      1.51693
     2.29000      0.08202      2.14908      0.01477      1.51840
     2.30000      0.08339      2.15723      0.01487      1.51987
     2.31000      0.08479      2.16551      0.01496      1.52136
     2.32000      0.08623      2.17392      0.01506      1.52286
     2.33000      0.08772      2.18248      0.01516      1.52437
     2.34000      0.08924      2.19119      0.01526      1.52588
     2.35000      0.09081      2.20004      0.01536      1.52741
     2.36000      0.09242      2.20904      0.01546      1.52895
     2.37000      0.09408      2.21820      0.01556      1.53050
     2.38000      0.09579      2.22753      0.01567      1.53205
     2.39000      0.09755      2.23701      0.01577      1.53362
     2.40000      0.09936      2.24667      0.01588      1.53520
     2.41000      0.10123      2.25651      0.01598      1.53679
     2.42000      0.10315      2.26653      0.01609      1.53839
     2.43000      0.10514      2.27673      0.01620      1.54000
     2.44000      0.10719      2.28713      0.01631      1.54162
     2.45000      0.10931      2.29772      0.01642      1.54325
     2.46000      0.11150      2.30852      0.01654      1.54490
     2.47000      0.11376      2.31953      0.01665      1.54655
     2.48000      0.11609      2.33075      0.01677      1.54822
     2.49000      0.11851      2.34220      0.01689      1.54990
     2.50000      0.12100      2.35388      0.01700      1.55159
     2.51000      0.12359      2.36580      0.01712      1.55329
     2.52000      0.12626      2.37797      0.01725      1.55500
     2.53000      0.12903      2.39040      0.01737      1.55673
     2.54000      0.13191      2.40309      0.01749      1.55847
     2.55000      0.13489      2.41605      0.01762      1.56022
     2.56000      0.13798      2.42930      0.01775      1.56198
     2.57000      0.14119      2.44284      0.01788      1.56376
     2.58000      0.14452      2.45668      0.01801      1.56555
     2.59000      0.14799      2.47084      0.01814      1.56735
     2.60000      0.15159      2.48533      0.01827      1.56916
     2.61000      0.15535      2.50016      0.01841      1.57099
     2.62000      0.15925      2.51534      0.01854      1.57283
     2.63000      0.16332      2.53088      0.01868      1.57469
     2.64000      0.16757      2.54681      0.01882      1.57656
     2.65000      0.17200      2.56313      0.01897      1.57844
     2.66000      0.17662      2.57986      0.01911      1.58034
     2.67000      0.18146      2.59702      0.01926      1.58225
     2.68000      0.18651      2.61462      0.01940      1.58418
     2.69000      0.19181      2.63269      0.01955      1.58612
     2.70000      0.19735      2.65124      0.01971      1.58808
     2.71000      0.20316      2.67030      0.01986      1.59005
     2.72000      0.20926      2.68988      0.02002      1.59203
     2.73000      0.21566      2.71002      0.02017      1.59404
     2.74000      0.22240      2.73073      0.02033      1.59605
     2.75000      0.22948      2.75204      0.02050      1.59809
     2.76000      0.23695      2.77398      0.02066      1.60014
     2.77000      0.24482      2.79658      0.02083      1.60220
     2.78000      0.25313      2.81987      0.02100      1.60429
     2.79000      0.26191      2.84389      0.02117      1.60639
     2.80000      0.27121      2.86866      0.02134      1.60851
     2.81000      0.28105      2.89422      0.02152      1.61064
     2.82000      0.29150      2.92063      0.02169      1.61279
     2.83000      0.30259      2.94791      0.02188      1.61496
     2.84000      0.31439      2.97611      0.02206      1.61715
     2.85000      0.32696      3.00528      0.02225      1.61936
     2.86000      0.34036      3.03547      0.02244      1.62158
     2.87000      0.35468      3.06674      0.02263      1.62382
     2.88000      0.37000      3.09913      0.02282      1.62609
     2.89000      0.38641      3.13271      0.02302      1.62837
     2.90000      0.40404      3.16754      0.02322      1.63067
     2.91000      0.42299      3.20369      0.02342      1.63299
     2.92000      0.44341      3.24122      0.02363      1.63534
     2.93000      0.46544      3.28020      0.02384      1.63770
     2.94000      0.48927      3.32072      0.02406      1.64008
     2.95000      0.51510      3.36284      0.02427      1.64249
     2.96000      0.54315      3.40664      0.02449      1.64491
     2.97000      0.57368      3.45219      0.02472      1.64736
     2.98000      0.60699      3.49958      0.02494      1.64983
     2.99000      0.64342      3.54886      0.02517      1.65233
     3.00000      0.68335      3.60009      0.02541      1.65484
     3.01000      0.72724      3.65331      0.02565      1.65738
     3.02000      0.77560      3.70853      0.02589      1.65994
     3.03000      0.82903      3.76574      0.02614      1.66253
     3.04000      0.88820      3.82486      0.02639      1.66514
     3.05000      0.95389      3.88578      0.02664      1.66778
     3.06000      1.02703      3.94826      0.02690      1.67044
     3.07000      1.10862      4.01197      0.02717      1.67313
     3.08000      1.19986      4.07640      0.02744      1.67585
     3.09000      1.30207      4.14080      0.02771      1.67859
     3.10000      1.41674      4.20415      0.02799      1.68135
     3.11000      1.54548      4.26500      0.02828      1.68415
     3.12000      1.69002      4.32142      0.02857      1.68697
     3.13000      1.85210      4.37078      0.02886      1.68983
     3.14000      2.03331      4.40962      0.02916      1.69271
     3.15000      2.23491      4.43348      0.02947      1.69562
     3.16000      2.45736      4.43673      0.02978      1.69856
     3.17000      2.69988      4.41253      0.03010      1.70153
     3.18000      2.95969      4.35295      0.03042      1.70454
     3.19000      3.23117      4.24949      0.03075      1.70758
     3.20000      3.50509      4.09411      0.03109      1.71064
     3.21000      3.76815      3.88081      0.03144      1.71375
     3.22000      4.00340      3.60783      0.03179      1.71688
     3.23000      4.19191      3.27980      0.03215      1.72005
     3.24000      4.31579      2.90904      0.03252      1.72326
     3.25000      4.36213      2.51502      0.03289      1.72650
     3.26000      4.32618      2.12155      0.03328      1.72978
     3.27000      4.21275      1.75246      0.03367      1.73310
     3.28000      4.03484      1.42718      0.03407      1.73646
     3.29000      3.81035      1.15800      0.03448      1.73985
     3.30000      3.55825      0.94950      0.03490      1.74329
     3.31000      3.29550      0.79992      0.03533      1.74677
     3.32000      3.03540      0.70326      0.03577      1.75028
     3.33000      2.78719      0.65147      0.03622      1.75385
     3.34000      2.55650      0.63607      0.03668      1.75745
     3.35000      2.34612      0.64918      0.03716      1.76110
     3.36000      2.15689      0.68395      0.03764      1.76480
     3.37000      1.98835      0.73480      0.03814      1.76855
     3.38000      1.83928      0.79729      0.03865      1.77234
     3.39000      1.70812      0.86799      0.03918      1.77619
     3.40000      1.59317      0.94433      0.03972      1.78008
     3.41000      1.49276      1.02438      0.04028      1.78403
     3.42000      1.40530      1.10676      0.04085      1.78803
     3.43000      1.32938      1.19047      0.04144      1.79208
     3.44000      1.26370      1.27482      0.04204      1.79620
     3.45000      1.20716      1.35935      0.04267      1.80037
     3.46000      1.15879      1.44376      0.04331      1.80460
     3.47000      1.11774      1.52789      0.04397      1.80889
     3.48000      1.08332      1.61168      0.04466      1.81325
     3.49000      1.05491      1.69511      0.04536      1.81767
     3.50000      1.03203      1.77824      0.04609      1.82216
     3.51000      1.01426      1.86117      0.04685      1.82672
     3.52000      1.00125      1.94400      0.04763      1.83135
     3.53000      0.99275      2.02688      0.04844      1.83605
     3.54000      0.98854      2.10996      0.04928      1.84083
     3.55000      0.98848      2.19341      0.05015      1.84569
     3.56000      0.99246      2.27742      0.05106      1.85063
     3.57000      1.00046      2.36215      0.05200      1.85566
     3.58000      1.01247      2.44781      0.05297      1.86077
     3.59000      1.02854      2.53460      0.05399      1.86597
     3.60000      1.04879      2.62271      0.05505      1.87127
     3.61000      1.07335      2.71235      0.05616      1.87666
     3.62000      1.10245      2.80374      0.05731      1.88216
     3.63000      1.13633      2.89707      0.05852      1.88776
     3.64000      1.17533      2.99258      0.05979      1.89347
     3.65000      1.21983      3.09045      0.06112      1.89929
     3.66000      1.27030      3.19092      0.06251      1.90523
     3.67000      1.32729      3.29415      0.06397      1.91128
     3.68000      1.39146      3.40036      0.06551      1.91747
     3.69000      1.46355      3.50969      0.06714      1.92379
     3.70000      1.54447      3.62230      0.06885      1.93025
     3.71000      1.63521      3.73825      0.07067      1.93686
     3.72000      1.73700      3.85758      0.07259      1.94361
     3.73000      1.85121      3.98019      0.07463      1.95052
     3.74000      1.97947      4.10592      0.07679      1.95760
     3.75000      2.12361      4.23435      0.07910      1.96485
     3.76000      2.28581      4.36492      0.08157      1.97228
     3.77000      2.46848      4.49663      0.08420      1.97989
     3.78000      2.67446      4.62814      0.08702      1.98771
     3.79000      2.90683      4.75745      0.09006      1.99572
     3.80000      3.16915      4.88184      0.09332      2.00395
     3.81000      3.46508      4.99750      0.09685      2.01240
    3.820000     3.798632     5.099352     0.100659     2.021083
    3.830000     4.173482     5.180556     0.104794     2.030001
    3.840000     4.593009     5.232250     0.109293     2.039165
    3.850000     5.059121     5.243056     0.114198     2.048578
    3.860000     5.571771     5.198896     0.119563     2.058246
    3.869999     6.126947     5.083044     0.125447     2.068166
    3.880000     6.715578     4.876730     0.131919     2.078338
    3.889999     7.320902     4.560974     0.139057     2.088749
    3.900000     7.917724     4.119274     0.146954     2.099384
    3.910001     8.471529     3.542277     0.155714     2.110212
    3.920000     8.941066     2.832781     0.165453     2.121185
    3.930001     9.283933     2.009497     0.176312     2.132240
    3.940000     9.464189     1.108970     0.188437     2.143280
    3.950001     9.461248     0.180766     0.202002     2.154176
    3.960000     9.275173    -0.719827     0.217183     2.164743
    3.970001     8.926667    -1.543311     0.234173     2.174738
    3.980000     8.451736    -2.253251     0.253148     2.183833
    3.990001     7.892782    -2.831053     0.274271     2.191603
    4.000000     7.291120    -3.273962     0.297631     2.197501
    4.010001     6.680888    -3.591580     0.323225     2.200852
    4.020000     6.087604    -3.800232     0.350857     2.200854
    4.030001     5.527586    -3.919058     0.380087     2.196612
    4.040000     5.010209    -3.966738     0.410105     2.187217
    4.050001     4.539106    -3.960027     0.439697     2.171889
    4.060000     4.114594    -3.912997     0.467200     2.150197
    4.070001     3.734469    -3.836991     0.490651     2.122279
    4.080000     3.395573    -3.740917     0.508011     2.089070
    4.090001     3.093986    -3.631549     0.517585     2.052316
    4.100000     2.825885    -3.514039     0.518405     2.014423
    4.110001     2.587407    -3.392137     0.510500     1.978012
    4.120000     2.375133    -3.268642     0.494887     1.945466
    4.130001     2.185832    -3.145500     0.473291     1.918487
    4.140000     2.016749    -3.024149     0.447756     1.897968
    4.150001     1.865352    -2.905509     0.420239     1.884010
    4.160000     1.729519    -2.790258     0.392380     1.876158
    4.170001     1.607317    -2.678754     0.365373     1.873621
    4.180000     1.497144    -2.571265     0.340008     1.875491
    4.190001     1.397540    -2.467850     0.316710     1.880877
    4.200000     1.307299    -2.368559     0.295666     1.888981
    4.210001     1.225316    -2.273303     0.276874     1.899141
    4.219999     1.150685    -2.182016     0.260241     1.910816
    4.230000     1.082568    -2.094545     0.245606     1.923590
    4.239999     1.020278    -2.010774     0.232792     1.937140
    4.250000     0.963173    -1.930518     0.221610     1.951231
    4.259999     0.910730    -1.853648     0.211883     1.965682
    4.270000     0.862455    -1.779972     0.203445     1.980371
    4.280001     0.817937    -1.709350     0.196147     1.995204
    4.290000     0.776813    -1.641635     0.189858     2.010118
    4.300001     0.738743    -1.576654     0.184459     2.025076
    4.310000     0.703450    -1.514287     0.179851     2.040048
    4.320001     0.670666    -1.454375     0.175945     2.055024
    4.330000     0.640174    -1.396805     0.172666     2.069994
    4.340001     0.611760    -1.341438     0.169946     2.084963
    4.350000     0.585251    -1.288174     0.167731     2.099931
    4.360001     0.560476    -1.236884     0.165971     2.114912
    4.370000     0.537297    -1.187481     0.164624     2.129910
    4.380001     0.515575    -1.139850     0.163655     2.144943
    4.390000     0.495201    -1.093917     0.163032     2.160017
    4.400001     0.476059    -1.049577     0.162728     2.175154
    4.410000     0.458060    -1.006765     0.162722     2.190363
    4.420001     0.441111    -0.965389     0.162994     2.205661
    4.430000     0.425139    -0.925392     0.163527     2.221061
    4.440001     0.410067    -0.886690     0.164308     2.236582
    4.450000     0.395833    -0.849235     0.165325     2.252234
    4.460001     0.382374    -0.812953     0.166568     2.268037
    4.470000     0.369640    -0.777798     0.168030     2.284002
    4.480000     0.357578    -0.743708     0.169704     2.300149
    4.490000     0.346144    -0.710642     0.171586     2.316489
    4.500000     0.335295    -0.678542     0.173672     2.333043
    4.510000     0.324995    -0.647374     0.175961     2.349820
    4.520000     0.315205    -0.617085     0.178451     2.366842
    4.530000     0.305898    -0.587646     0.181142     2.384121
    4.540000     0.297038    -0.559009     0.184035     2.401677
    4.550000     0.288604    -0.531149     0.187133     2.419522
    4.560000     0.280565    -0.504021     0.190438     2.437680
    4.570000     0.272901    -0.477603     0.193955     2.456161
    4.580000     0.265588    -0.451856     0.197688     2.474990
    4.590000     0.258608    -0.426759     0.201643     2.494178
    4.600000     0.251940    -0.402279     0.205827     2.513752
    4.610000     0.245569    -0.378395     0.210247     2.533725
    4.620000     0.239477    -0.355077     0.214912     2.554123
    4.630001     0.233650    -0.332305     0.219833     2.574965
    4.640000     0.228075    -0.310058     0.225019     2.596271
    4.650001     0.222737    -0.288311     0.230484     2.618068
    4.660000     0.217626    -0.267049     0.236238     2.640374
    4.670001     0.212728    -0.246247     0.242299     2.663221
    4.680000     0.208036    -0.225891     0.248679     2.686629
    4.690001     0.203537    -0.205960     0.255400     2.710632
    4.700000     0.199223    -0.186442     0.262476     2.735252
    4.710001     0.195086    -0.167314     0.269932     2.760526
    4.720000     0.191118    -0.148568     0.277786     2.786478
    4.730001     0.187311    -0.130182     0.286068     2.813150
    4.740000     0.183658    -0.112150     0.294799     2.840569
     4.75000      0.18015     -0.09445      0.30401      2.86878
     4.76000      0.17679     -0.07708      0.31374      2.89781
     4.77000      0.17356     -0.06001      0.32401      2.92772
     4.78000      0.17046     -0.04325      0.33487      2.95854
     4.79000      0.16749     -0.02677      0.34636      2.99032
     4.80000      0.16464     -0.01057      0.35852      3.02310
      4.8100       0.1619       0.0054       0.3714       3.0570
     4.82000      0.15928      0.02106      0.38508      3.09191
     4.83000      0.15676      0.03650      0.39959      3.12806
     4.84000      0.15436      0.05170      0.41500      3.16543
     4.85000      0.15205      0.06668      0.43140      3.20411
     4.86000      0.14984      0.08144      0.44886      3.24416
     4.87000      0.14773      0.09600      0.46748      3.28566
    4.880000     0.145710     0.110352     0.487347     3.328686
    4.890000     0.143784     0.124521     0.508590     3.373327
    4.900000     0.141947     0.138505     0.531321     3.419661
    4.910000     0.140197     0.152318     0.555689     3.467795
    4.920000     0.138533     0.165962     0.581840     3.517815
    4.930000     0.136954     0.179451     0.609959     3.569840
    4.940000     0.135458     0.192788     0.640232     3.623966
    4.950000     0.134045     0.205983     0.672889     3.680324
    4.960000     0.132713     0.219040     0.708168     3.739018
    4.970000     0.131461     0.231971     0.746363     3.800189
    4.980000     0.130290     0.244778     0.787780     3.863950
    4.990000     0.129199     0.257473     0.832794     3.930448
    5.000001     0.128188     0.270061     0.881810     3.999805
    5.010000     0.127257     0.282546     0.935290     4.072135
    5.020001     0.126406     0.294940     0.993786     4.147582
    5.030000     0.125635     0.307246     1.057896     4.226229
    5.040001     0.124945     0.319475     1.128343     4.308186
    5.050000     0.124338     0.331631     1.205916     4.393480
    5.060001     0.123814     0.343726     1.291569     4.482148
    5.070000     0.123377     0.355763     1.386347     4.574101
    5.080001     0.123027     0.367755     1.491512     4.669219
    5.090000     0.122770     0.379705     1.608444     4.767190
    5.100001     0.122607     0.391624     1.738802     4.867588
    5.110000     0.122543     0.403517     1.884395     4.969684
    5.120001     0.122582     0.415396     2.047361     5.072489
    5.130000     0.122728     0.427265     2.229992     5.174512
    5.140001     0.122988     0.439135     2.434927     5.273750
    5.150000     0.123367     0.451013     2.664864     5.367379
    5.160001     0.123871     0.462911     2.922718     5.451662
    5.170000     0.124509     0.474834     3.211124     5.521566
    5.180001     0.125288     0.486796     3.532435     5.570609
    5.190000     0.126219     0.498804     3.887830     5.590520
    5.200001     0.127313     0.510872     4.276957     5.571179
    5.210000     0.128581     0.523006     4.696454     5.500744
    5.220001     0.130038     0.535223     5.139214     5.366249
    5.230000     0.131699     0.547529     5.592611     5.155084
    5.240001     0.133583     0.559940     6.038283     4.857111
    5.250000     0.135708     0.572465     6.451908     4.468081
    5.260001     0.138098     0.585121     6.805953     3.992543
    5.270000     0.140778     0.597917     7.073487     3.446584
    5.280000     0.143778     0.610870     7.234338     2.856855
    5.289999     0.147131     0.623990     7.279988     2.257475
    5.300000     0.150875     0.637292     7.216250     1.682842
    5.309999     0.155053     0.650786     7.061699     1.161497
    5.320000     0.159715     0.664488     6.842737     0.710627
    5.329999     0.164918     0.678401     6.587640     0.335375
     5.34000      0.17073      0.69254      6.32099      0.02999
    5.349999     0.177217     0.706900     6.060670    -0.218220
    5.360000     0.184473     0.721487     5.816280    -0.425333
    5.370001     0.192593     0.736289     5.589777    -0.607016
    5.380000     0.201685     0.751284     5.376814    -0.775807
    5.390001     0.211880     0.766445     5.168955    -0.939231
    5.400000     0.223314     0.781718     4.956755    -1.098793
    5.410001     0.236149     0.797033     4.732361    -1.250754
    5.420000     0.250554     0.812286     4.491976    -1.387807
    5.430001     0.266718     0.827342     4.236390    -1.501899
    5.440000     0.284834     0.842013     3.970594    -1.586516
    5.450001     0.305110     0.856067     3.701743    -1.638293
    5.460000     0.327739     0.869198     3.437570    -1.657164
    5.470001     0.352916     0.881035     3.184595    -1.645770
    5.480000     0.380793     0.891106     2.947729    -1.608377
    5.490001     0.411491     0.898847     2.729832    -1.549869
    5.500000     0.445027     0.903570     2.532285    -1.475070
    5.510001     0.481313     0.904471     2.355113    -1.388239
    5.520000     0.520053     0.900631     2.197655    -1.292987
    5.530001     0.560721     0.891043     2.058668    -1.192136
    5.540000     0.602437     0.874666     1.936785    -1.087902
    5.550001     0.643929     0.850511     1.830506    -0.981853
    5.560000     0.683409     0.817819     1.738481    -0.875153
    5.570001     0.718611     0.776283     1.659438    -0.768527
    5.580000     0.746875     0.726396     1.592355    -0.662492
    5.590001     0.765536     0.669665     1.536356    -0.557311
    5.600000     0.772418     0.608741     1.490806    -0.453198
    5.610001     0.766412     0.547076     1.455215    -0.350230
    5.620000     0.747818     0.488421     1.429284    -0.248523
    5.630001     0.718303     0.436048     1.412846    -0.148120
     5.64000      0.68051      0.39228      1.40590     -0.04915
     5.65000      0.63745      0.35820      1.40856      0.04828
    5.659999     0.591985     0.333807     1.421126     0.143931
    5.670001     0.546434     0.318304     1.444022     0.237524
    5.679999     0.502507     0.310453     1.477824     0.328563
    5.690001     0.461266     0.308864     1.523274     0.416402
    5.699999     0.423303     0.312201     1.581216     0.500055
    5.710001     0.388818     0.319280     1.652625     0.578223
    5.719999     0.357789     0.329113     1.738464     0.649071
    5.730000     0.330030     0.340911     1.839664     0.710214
    5.740001     0.305292     0.354054     1.956854     0.758503
    5.750000     0.283289     0.368070     2.090114     0.789976
    5.760001     0.263727     0.382609     2.238657     0.799828
    5.770000     0.246334     0.397409     2.400166     0.782512
    5.780001     0.230851     0.412283     2.570388     0.732128
    5.790000     0.217051     0.427093     2.742392     0.643206
    5.800001     0.204728     0.441751     2.906513     0.511831
    5.810000     0.193706     0.456187     3.050508     0.337288
    5.820001     0.183824     0.470365     3.161033     0.123382
    5.830000     0.174949     0.484257     3.225722    -0.120547
    5.840001     0.166960     0.497853     3.235996    -0.380441
    5.850000     0.159757     0.511146     3.189213    -0.639333
    5.860001     0.153247     0.524142     3.089366    -0.880795
    5.870000     0.147356     0.536842     2.946051    -1.091590
    5.880001     0.142013     0.549261     2.771922    -1.263764
    5.890000     0.137163     0.561406     2.580201    -1.394573
    5.900001     0.132753     0.573293     2.382419    -1.485692
    5.910000     0.128738     0.584932     2.187594    -1.541496
    5.920001     0.125080     0.596341     2.001790    -1.567712
    5.930000     0.121744     0.607528     1.828717    -1.570240
    5.940001     0.118701     0.618512     1.670058    -1.554531
    5.950000     0.115924     0.629301     1.526279    -1.525272
    5.960001     0.113389     0.639913     1.396896    -1.486276
    5.970000     0.111076     0.650357     1.281030    -1.440583
    5.980000     0.108968     0.660646     1.177488    -1.390501
    5.990000     0.107048     0.670790     1.085070    -1.337810
    6.000000     0.105302     0.680804     1.002536    -1.283796
    6.010000     0.103718     0.690693     0.928776    -1.229430
    6.020000     0.102284     0.700472     0.862728    -1.175380
    6.030000     0.100992     0.710147     0.803487    -1.122144
     6.04000      0.09983      0.71973      0.75021     -1.07004
     6.05000      0.09880      0.72923      0.70220     -1.01929
     6.06000      0.09788      0.73865      0.65880     -0.97003
     6.07000      0.09708      0.74801      0.61949     -0.92234
     6.08000      0.09639      0.75730      0.58378     -0.87624
     6.09000      0.09580      0.76655      0.55126     -0.83175
     6.10000      0.09531      0.77575      0.52156     -0.78882
     6.11000      0.09492      0.78491      0.49438     -0.74743
     6.12000      0.09463      0.79405      0.46944     -0.70754
     6.13000      0.09444      0.80316      0.44651     -0.66909
     6.14000      0.09434      0.81225      0.42537     -0.63202
     6.15000      0.09433      0.82134      0.40584     -0.59627
     6.16000      0.09443      0.83042      0.38776     -0.56179
     6.17000      0.09462      0.83950      0.37099     -0.52851
     6.18000      0.09492      0.84858      0.35541     -0.49639
     6.19000      0.09532      0.85768      0.34091     -0.46535
     6.20000      0.09583      0.86680      0.32738     -0.43536
     6.21000      0.09645      0.87593      0.31473     -0.40636
     6.22000      0.09720      0.88508      0.30290     -0.37830
     6.23000      0.09808      0.89426      0.29182     -0.35113
     6.24000      0.09910      0.90347      0.28141     -0.32482
    6.250000     0.100279     0.912688     0.271626    -0.299314
    6.260000     0.101619     0.921923     0.262418    -0.274585
    6.270000     0.103136     0.931165     0.253738    -0.250589
    6.280000     0.104845     0.940395     0.245549    -0.227296
    6.290000     0.106759     0.949596     0.237810    -0.204667
    6.300000     0.108888     0.958736     0.230491    -0.182679
    6.310000     0.111238     0.967780     0.223559    -0.161294
    6.320000     0.113803     0.976679     0.216989    -0.140492
    6.330000     0.116567     0.985381     0.210754    -0.120241
    6.340000     0.119487     0.993821     0.204833    -0.100522
     6.35000      0.12250      1.00195      0.19920     -0.08131
     6.36000      0.12550      1.00971      0.19385     -0.06258
     6.37000      0.12837      1.01711      0.18875     -0.04431
     6.38000      0.13095      1.02417      0.18388     -0.02648
      6.3900       0.1331       1.0310       0.1792      -0.0091
      6.4000       0.1348       1.0377       0.1748       0.0079
     6.41000      0.13585      1.04457      0.17059      0.02452
     6.42000      0.13641      1.05171      0.16655      0.04075
     6.43000      0.13654      1.05931      0.16269      0.05662
     6.44000      0.13638      1.06748      0.15899      0.07215
     6.45000      0.13609      1.07626      0.15545      0.08734
    6.460001     0.135792     1.085662     0.152058     0.102223
    6.470000     0.135607     1.095637     0.148806     0.116794
    6.480001     0.135610     1.106138     0.145688     0.131073
    6.490000     0.135854     1.117106     0.142697     0.145068
    6.500001     0.136366     1.128491     0.139826     0.158793
    6.510000     0.137160     1.140247     0.137069     0.172255
    6.520001     0.138240     1.152344     0.134421     0.185466
    6.530000     0.139603     1.164752     0.131877     0.198434
    6.540001     0.141246     1.177461     0.129432     0.211169
    6.550000     0.143163     1.190458     0.127082     0.223678
    6.560001     0.145350     1.203744     0.124821     0.235972
    6.570000     0.147803     1.217317     0.122648     0.248056
    6.580001     0.150523     1.231188     0.120557     0.259940
    6.590000     0.153510     1.245362     0.118546     0.271629
    6.600001     0.156769     1.259854     0.116611     0.283132
    6.610000     0.160303     1.274675     0.114750     0.294454
    6.620001     0.164123     1.289845     0.112959     0.305604
    6.630000     0.168237     1.305376     0.111237     0.316585
    6.640001     0.172659     1.321295     0.109580     0.327406
    6.650000     0.177402     1.337615     0.107987     0.338071
    6.660001     0.182486     1.354366     0.106455     0.348588
    6.670000     0.187928     1.371566     0.104984     0.358958
    6.680001     0.193754     1.389247     0.103570     0.369192
    6.690000     0.199987     1.407429     0.102213     0.379290
    6.700000     0.206658     1.426148     0.100911     0.389261
     6.71000      0.21380      1.44543      0.09966      0.39911
     6.72000      0.22144      1.46531      0.09847      0.40884
     6.73000      0.22964      1.48582      0.09732      0.41845
     6.74000      0.23842      1.50701      0.09623      0.42796
     6.75000      0.24785      1.52890      0.09519      0.43735
     6.76000      0.25797      1.55154      0.09419      0.44665
     6.77000      0.26886      1.57498      0.09325      0.45586
     6.78000      0.28059      1.59926      0.09236      0.46497
     6.79000      0.29323      1.62442      0.09151      0.47399
     6.80000      0.30688      1.65054      0.09072      0.48293
     6.81000      0.32163      1.67764      0.08997      0.49179
     6.82000      0.33760      1.70581      0.08928      0.50057
     6.83000      0.35493      1.73509      0.08863      0.50928
     6.84000      0.37375      1.76553      0.08804      0.51793
     6.85000      0.39424      1.79722      0.08751      0.52651
     6.86000      0.41658      1.83020      0.08703      0.53502
     6.87000      0.44100      1.86455      0.08661      0.54349
     6.88000      0.46773      1.90032      0.08625      0.55190
     6.89000      0.49707      1.93757      0.08596      0.56026
     6.90000      0.52933      1.97634      0.08573      0.56858
     6.91000      0.56490      2.01668      0.08558      0.57685
     6.92000      0.60419      2.05859      0.08551      0.58508
     6.93000      0.64772      2.10207      0.08552      0.59328
     6.94000      0.69603      2.14707      0.08563      0.60143
     6.95000      0.74980      2.19351      0.08584      0.60956
     6.96000      0.80977      2.24120      0.08616      0.61765
     6.97000      0.87682      2.28988      0.08661      0.62571
     6.98000      0.95193      2.33915      0.08719      0.63372
     6.99000      1.03624      2.38844      0.08793      0.64169
     7.00000      1.13097      2.43691      0.08883      0.64961
     7.01000      1.23756      2.48346      0.08993      0.65746
     7.02000      1.35746      2.52652      0.09123      0.66522
     7.03000      1.49224      2.56400      0.09277      0.67286
     7.04000      1.64335      2.59312      0.09456      0.68036
     7.05000      1.81206      2.61027      0.09661      0.68765
     7.06000      1.99905      2.61086      0.09894      0.69469
    7.070001     2.204154     2.589197     0.101539     0.701382
    7.079999     2.425559     2.538598     0.104381     0.707646
    7.090001     2.659380     2.451621     0.107407     0.713383
    7.099999     2.898615     2.320866     0.110517     0.718494
    7.110001     3.132901     2.140101     0.113563     0.722902
    7.119999     3.348237     1.906196     0.116348     0.726575
    7.130001     3.528307     1.620875     0.118651     0.729553
    7.139999     3.656503     1.292561     0.120248     0.731964
    7.150000     3.719392     0.936216     0.120968     0.734027
    7.159999     3.709828     0.572006     0.120730     0.736025
    7.170000     3.628943     0.221370     0.119569     0.738252
     7.18000      3.48586     -0.09658      0.11762      0.74096
    7.190000     3.295156    -0.368582     0.115093     0.744315
    7.200001     3.073669    -0.588092     0.112217     0.748402
    7.210000     2.837337    -0.754799     0.109204     0.753214
    7.220001     2.599132    -0.872944     0.106227     0.758692
    7.230000     2.368606    -0.949163     0.103409     0.764745
    7.240001     2.151755    -0.991009     0.100827     0.771275
     7.25000      1.95194     -1.00575      0.09852      0.77819
     7.26000      1.77038     -0.99983      0.09652      0.78540
     7.27000      1.60705     -0.97865      0.09480      0.79285
     7.28000      1.46100     -0.94652      0.09338      0.80047
     7.29000      1.33097     -0.90685      0.09222      0.80824
     7.30000      1.21538     -0.86219      0.09131      0.81612
     7.31000      1.11274     -0.81451      0.09063      0.82410
     7.32000      1.02153     -0.76521      0.09017      0.83215
     7.33000      0.94044     -0.71536      0.08992      0.84027
     7.34000      0.86818     -0.66569      0.08985      0.84846
     7.35000      0.80369     -0.61672      0.08997      0.85671
     7.36000      0.74598     -0.56878      0.09027      0.86503
     7.37000      0.69423     -0.52212      0.09073      0.87341
     7.38000      0.64770     -0.47685      0.09137      0.88187
     7.39000      0.60579     -0.43305      0.09217      0.89042
     7.40000      0.56793     -0.39073      0.09314      0.89904
     7.41000      0.53369     -0.34991      0.09428      0.90777
     7.42000      0.50264     -0.31054      0.09560      0.91660
     7.43000      0.47445     -0.27261      0.09710      0.92554
     7.44000      0.44879     -0.23606      0.09879      0.93461
    7.450000     0.425421    -0.200834     0.100689     0.943805
    7.460001     0.404083    -0.166875     0.102804     0.953150
    7.470000     0.384581    -0.134130     0.105151     0.962650
    7.480000     0.366725    -0.102528     0.107751     0.972320
     7.49000      0.35036     -0.07202      0.11062      0.98217
     7.50000      0.33534     -0.04253      0.11379      0.99222
     7.51000      0.32154     -0.01402      0.11729      1.00247
     7.52000      0.30885      0.01359      0.12115      1.01294
     7.53000      0.29717      0.04034      0.12540      1.02364
     7.54000      0.28641      0.06629      0.13010      1.03460
     7.55000      0.27651      0.09149      0.13529      1.04581
    7.560000     0.267375     0.115985     0.141031     1.057287
    7.570001     0.258961     0.139822     0.147390     1.069046
    7.580000     0.251211     0.163042     0.154443     1.081086
    7.590001     0.244073     0.185694     0.162281     1.093413
    7.600000     0.237508     0.207809     0.171005     1.106016
    7.610001     0.231473     0.229433     0.180736     1.118887
    7.620000     0.225937     0.250595     0.191608     1.131995
    7.630001     0.220867     0.271337     0.203781     1.145299
    7.640000     0.216238     0.291684     0.217433     1.158730
    7.650001     0.212024     0.311674     0.232771     1.172194
    7.660000     0.208206     0.331333     0.250021     1.185548
    7.670001     0.204763     0.350695     0.269445     1.198601
    7.680000     0.201681     0.369782     0.291313     1.211082
    7.690001     0.198945     0.388628     0.315922     1.222630
    7.700000     0.196543     0.407254     0.343550     1.232760
    7.710001     0.194464     0.425691     0.374455     1.240839
    7.720000     0.192702     0.443959     0.408799     1.246051
    7.730000     0.191250     0.462088     0.446609     1.247386
    7.740000     0.190103     0.480098     0.487636     1.243628
    7.750000     0.189258     0.498018     0.531279     1.233405
    7.760000     0.188714     0.515866     0.576383     1.215300
    7.770000     0.188471     0.533672     0.621185     1.188043
    7.780000     0.188532     0.551454     0.663213     1.150847
    7.790000     0.188901     0.569242     0.699485     1.103742
    7.800000     0.189584     0.587054     0.726815     1.047954
    7.810000     0.190588     0.604920     0.742441     0.985974
    7.820000     0.191922     0.622860     0.744625     0.921398
    7.830000     0.193600     0.640904     0.733133     0.858278
    7.840000     0.195634     0.659071     0.709297     0.800427
    7.850000     0.198043     0.677395     0.675642     0.750689
    7.860000     0.200846     0.695896     0.635302     0.710669
    7.870000     0.204065     0.714608     0.591361     0.680711
    7.880000     0.207726     0.733554     0.546471     0.660233
    7.890000     0.211860     0.752769     0.502597     0.648065
    7.900000     0.216500     0.772278     0.461071     0.642811
    7.910000     0.221687     0.792117     0.422635     0.643070
    7.920000     0.227463     0.812315     0.387633     0.647574
    7.930000     0.233882     0.832911     0.356101     0.655253
    7.940001     0.241000     0.853935     0.327911     0.665236
    7.950000     0.248882     0.875420     0.302835     0.676838
    7.960001     0.257605     0.897409     0.280587     0.689539
    7.970000     0.267254     0.919930     0.260884     0.702939
    7.980001     0.277930     0.943027     0.243439     0.716752
    7.990000     0.289743     0.966727     0.227997     0.730759
    8.000001     0.302824     0.991071     0.214314     0.744813
    8.010000     0.317320     1.016080     0.202186     0.758801
    8.020000     0.333405     1.041785     0.191421     0.772655
    8.030000     0.351272     1.068194     0.181862     0.786322
    8.040001     0.371151     1.095321     0.173364     0.799777
    8.050000     0.393300     1.123142     0.165808     0.813000
    8.060000     0.418025     1.151633     0.159085     0.825989
    8.070000     0.445665     1.180715     0.153107     0.838741
    8.080001     0.476625     1.210287     0.147792     0.851267
    8.090000     0.511348     1.240166     0.143076     0.863572
    8.100000     0.550360     1.270111     0.138898     0.875673
    8.110000     0.594221     1.299752     0.135209     0.887581
    8.120001     0.643581     1.328594     0.131965     0.899313
    8.130000     0.699102     1.355937     0.129131     0.910883
    8.140000     0.761500     1.380856     0.126673     0.922310
    8.150000     0.831424     1.402102     0.124567     0.933606
    8.160001     0.909452     1.418067     0.122790     0.944792
    8.170000     0.995872     1.426696     0.121324     0.955880
    8.180000     1.090597     1.425468     0.120154     0.966890
    8.190000     1.192790     1.411429     0.119269     0.977834
    8.200001     1.300683     1.381331     0.118660     0.988731
    8.210000     1.411129     1.331994     0.118322     0.999592
    8.220000     1.519532     1.260832     0.118252     1.010437
    8.230000     1.619771     1.166699     0.118452     1.021276
    8.240001     1.704864     1.050641     0.118923     1.032127
    8.249999     1.767898     0.916604     0.119673     1.043002
    8.260000     1.803571     0.771242     0.120710     1.053917
    8.270000     1.809450     0.623194     0.122047     1.064882
    8.280001     1.786691     0.481300     0.123701     1.075912
    8.290001     1.739701     0.353045     0.125690     1.087018
    8.300000     1.674983     0.243238     0.128040     1.098206
    8.310001     1.599558     0.153607     0.130778     1.109490
     8.32000      1.51973      0.08332      0.13394      1.12087
     8.33000      1.44015      0.02976      0.13756      1.13235
     8.34000      1.36372     -0.01046      0.14169      1.14393
     8.35000      1.29155     -0.04069      0.14637      1.15560
     8.36000      1.22353     -0.06361      0.15166      1.16734
     8.37000      1.15881     -0.08099      0.15763      1.17913
     8.38000      1.09640     -0.09357      0.16432      1.19093
    8.390000     1.035572    -0.101354     0.171813     1.202713
    8.400000     0.976196    -0.103968     0.180162     1.214405
    8.410001     0.918634    -0.101032     0.189435     1.225952
     8.42000      0.86365     -0.09244      0.19969      1.23728
     8.43000      0.81207     -0.07845      0.21101      1.24833
     8.44000      0.76467     -0.05963      0.22346      1.25901
     8.45000      0.72198     -0.03674      0.23717      1.26924
     8.46000      0.68436     -0.01061      0.25229      1.27887
     8.47000      0.65190      0.01797      0.26901      1.28772
     8.48000      0.62461      0.04827      0.28752      1.29546
     8.49000      0.60238      0.07966      0.30799      1.30167
    8.500000     0.585072     0.111607     0.330518     1.305734
    8.510000     0.572536     0.143641     0.355024     1.306913
    8.520000     0.564646     0.175322     0.381185     1.304340
    8.530001     0.561280     0.206245     0.408356     1.297106
    8.540000     0.562335     0.235961     0.435463     1.284396
    8.550000     0.567691     0.263999     0.461021     1.265667
    8.559999     0.577179     0.289811     0.483177     1.240906
    8.570001     0.590539     0.312802     0.499969     1.210806
    8.580000     0.607348     0.332324     0.509652     1.176889
    8.590000     0.626983     0.347767     0.511122     1.141331
    8.599999     0.648565     0.358637     0.504191     1.106654
    8.610001     0.671010     0.364715     0.489642     1.075209
    8.620000     0.693114     0.366187     0.469021     1.048800
    8.630000     0.713799     0.363733     0.444247     1.028433
    8.639999     0.732347     0.358469     0.417248     1.014357
    8.650001     0.748660     0.351733     0.389659     1.006219
    8.660001     0.763316     0.344752     0.362724     1.003310
    8.670000     0.777469     0.338296     0.337273     1.004767
    8.680001     0.792580     0.332437     0.313774     1.009721
    8.690001     0.810050     0.326484     0.292446     1.017385
    8.700001     0.830927     0.319049     0.273316     1.027094
    8.710000     0.855625     0.308233     0.256307     1.038304
    8.720001     0.883756     0.291859     0.241271     1.050594
    8.730000     0.913982     0.267786     0.228041     1.063636
    8.740001     0.944005     0.234269     0.216430     1.077190
    8.750000     0.970656     0.190429     0.206269     1.091071
    8.760001     0.990278     0.136644     0.197391     1.105153
     8.77000      0.99930      0.07486      0.18965      1.11934
    8.780       0.9950       0.8463E-2    0.1829        1.134   
     8.79000      0.97628     -0.05819      0.17707      1.14780
    8.800001     0.943693    -0.120674     0.172017     1.162005
    8.809999     0.899538    -0.175249     0.167665     1.176166
    8.820001     0.847061    -0.219540     0.163938     1.190281
    8.830000     0.789805    -0.252596     0.160773     1.204345
    8.840000     0.730945    -0.274722     0.158113     1.218369
    8.849999     0.673016    -0.287029     0.155910     1.232354
    8.860001     0.617750    -0.291058     0.154121     1.246316
    8.870000     0.566220    -0.288438     0.152713     1.260262
    8.880000     0.518921    -0.280694     0.151654     1.274210
    8.889999     0.475997    -0.269151     0.150918     1.288169
    8.900001     0.437313    -0.254893     0.150484     1.302159
    8.910000     0.402618    -0.238787     0.150333     1.316189
    8.920000     0.371566    -0.221493     0.150450     1.330280
    8.929999     0.343807    -0.203519     0.150820     1.344442
    8.940001     0.318978    -0.185233     0.151435     1.358695
    8.950000     0.296756    -0.166911     0.152286     1.373051
    8.960000     0.276828    -0.148742     0.153366     1.387529
    8.969999     0.258928    -0.130869     0.154670     1.402140
    8.980000     0.242809    -0.113376     0.156196     1.416907
     8.99000      0.22826     -0.09633      0.15794      1.43184
     9.00000      0.21510     -0.07976      0.15991      1.44696
     9.01000      0.20316     -0.06369      0.16209      1.46228
     9.02000      0.19231     -0.04813      0.16451      1.47782
     9.03000      0.18241     -0.03307      0.16714      1.49360
     9.04000      0.17337     -0.01850      0.17002      1.50963
    9.050       0.1651       -.4415E-2    0.1731        1.526   
      9.0600       0.1575       0.0092       0.1765       1.5425
     9.07000      0.15049      0.02238      0.18011      1.55944
     9.08000      0.14404      0.03512      0.18400      1.57667
     9.09000      0.13809      0.04746      0.18818      1.59427
     9.10000      0.13258      0.05941      0.19265      1.61224
     9.11000      0.12747      0.07098      0.19743      1.63061
     9.12000      0.12273      0.08220      0.20255      1.64940
     9.13000      0.11832      0.09309      0.20802      1.66864
    9.140000     0.114209     0.103649     0.213861     1.688353
    9.150001     0.110380     0.113913     0.220110     1.708573
    9.160000     0.106805     0.123888     0.226790     1.729321
    9.170001     0.103464     0.133593     0.233934     1.750634
    9.180000     0.100339     0.143037     0.241579     1.772539
     9.19000      0.09741      0.15224      0.24977      1.79508
     9.20000      0.09467      0.16121      0.25854      1.81827
     9.21000      0.09210      0.16996      0.26795      1.84217
     9.22000      0.08969      0.17850      0.27805      1.86681
     9.23000      0.08743      0.18684      0.28892      1.89224
     9.24000      0.08531      0.19500      0.30062      1.91848
     9.25000      0.08333      0.20298      0.31323      1.94559
     9.26000      0.08146      0.21080      0.32685      1.97361
     9.27000      0.07972      0.21845      0.34158      2.00260
     9.28000      0.07808      0.22596      0.35754      2.03258
     9.29000      0.07656      0.23333      0.37488      2.06362
     9.30000      0.07513      0.24056      0.39372      2.09575
     9.31000      0.07381      0.24767      0.41428      2.12902
     9.32000      0.07257      0.25466      0.43672      2.16346
     9.33000      0.07144      0.26154      0.46131      2.19910
     9.34000      0.07039      0.26832      0.48829      2.23595
     9.35000      0.06943      0.27500      0.51797      2.27401
     9.36000      0.06856      0.28159      0.55071      2.31324
     9.37000      0.06777      0.28810      0.58691      2.35360
     9.38000      0.06708      0.29453      0.62701      2.39495
     9.39000      0.06647      0.30089      0.67156      2.43713
     9.40000      0.06595      0.30719      0.72114      2.47985
     9.41000      0.06552      0.31343      0.77639      2.52272
     9.42000      0.06519      0.31962      0.83805      2.56519
     9.43000      0.06496      0.32576      0.90688      2.60648
     9.44000      0.06482      0.33186      0.98368      2.64555
     9.45000      0.06480      0.33792      1.06916      2.68101
     9.46000      0.06489      0.34396      1.16395      2.71106
     9.47000      0.06511      0.34997      1.26832      2.73339
     9.48000      0.06545      0.35596      1.38208      2.74523
     9.49000      0.06594      0.36194      1.50419      2.74329
     9.50000      0.06659      0.36791      1.63250      2.72407
     9.51000      0.06741      0.37387      1.76330      2.68421
     9.52000      0.06842      0.37982      1.89128      2.62117
     9.53000      0.06964      0.38577      2.00948      2.53414
     9.54000      0.07110      0.39170      2.11016      2.42492
     9.55000      0.07282      0.39762      2.18588      2.29859
     9.56000      0.07484      0.40352      2.23125      2.16320
     9.57000      0.07718      0.40937      2.24427      2.02883
     9.58000      0.07990      0.41516      2.22701      1.90558
     9.59000      0.08303      0.42085      2.18506      1.80188
     9.60000      0.08663      0.42639      2.12624      1.72311
     9.61000      0.09073      0.43173      2.05898      1.67146
     9.62000      0.09539      0.43676      1.99095      1.64632
    9.630000     0.100637     0.441392     1.928430     1.645259
    9.640000     0.106486     0.445476     1.876030     1.664852
    9.650000     0.112918     0.448845     1.836955     1.701414
    9.660001     0.119869     0.451308     1.813283     1.751418
    9.669999     0.127197     0.452664     1.806382     1.811652
    9.680000     0.134682     0.452731     1.817196     1.879300
    9.690000     0.142006     0.451387     1.846497     1.951803
    9.700001     0.148786     0.448622     1.895064     2.026813
    9.709999     0.154609     0.444580     1.963744     2.101938
    9.720000     0.159126     0.439577     2.053556     2.174659
    9.730000     0.162129     0.434070     2.165573     2.242032
    9.740000     0.163622     0.428568     2.300953     2.300560
    9.750001     0.163822     0.423530     2.460632     2.345904
    9.760000     0.163108     0.419264     2.645056     2.372705
    9.770001     0.161932     0.415875     2.853829     2.374454
    9.780000     0.160716     0.413270     3.084856     2.343465
    9.790001     0.159780     0.411196     3.333803     2.271151
    9.800000     0.159295     0.409305     3.592931     2.148789
    9.810000     0.159264     0.407212     3.850694     1.968747
    9.820000     0.159520     0.404570     4.091292     1.726592
    9.830001     0.159749     0.401126     4.295935     1.423157
    9.840000     0.159538     0.396790     4.444936     1.066817
    9.850000     0.158447     0.391661     4.521613     0.673675
    9.860000     0.156109     0.386041     4.515993     0.266407
    9.870001     0.152314     0.380373     4.427517    -0.129995
    9.880000     0.147065     0.375153     4.265182    -0.492436
    9.890000     0.140565     0.370817     4.044989    -0.804130
    9.900000     0.133157     0.367667     3.786303    -1.055968
    9.910001     0.125236     0.365837     3.507862    -1.246498
    9.920000     0.117178     0.365311     3.225555    -1.379731
    9.930000     0.109280     0.365967     2.951013    -1.463070
    9.940000     0.101760     0.367625     2.692004    -1.505135
     9.95000      0.09474      0.37009      2.45275     -1.51448
     9.96000      0.08830      0.37317      2.23515     -1.49877
     9.97000      0.08244      0.37671      2.03925     -1.46444
     9.98000      0.07714      0.38057      1.86419     -1.41672
     9.99000      0.07238      0.38465      1.70843     -1.35967
    10.00000      0.06810      0.38885      1.57028     -1.29643
# 
# 04/09/2018 at 16:09 YAMBO @ narro [start]
# 04/09/2018 at 16:10               [end]
#  
# Timing   [Min/Max/Average]: 11s/11s/11s
#
# .-Input file : yambo.in
# | optics                         # [R OPT] Optics
# | bse                            # [R BSE] Bethe Salpeter Equation.
# | bsk                            # [R BSK] Bethe Salpeter Equation kernel
# | bss                            # [R BSS] Bethe Salpeter Equation solver
# | em1s                           # [R Xs] Static Inverse Dielectric Matrix
# | BoseTemp= 0.000000     eV      # Bosonic Temperature
# | FFTGvecs=  3473        RL      # [FFT] Plane-waves
# | Chimod= "hartree"              # [X] IP/Hartree/ALDA/LRC/BSfxc
# | BSEmod= "resonant"             # [BSE] resonant/retarded/coupling
# | BSKmod= "SEX"                  # [BSE] IP/Hartree/HF/ALDA/SEX/BSfxc
# | BSSmod= "d"                    # [BSS] (h)aydock/(d)iagonalization/(i)nversion/(t)ddft`
# | BSENGexx=  51          RL      # [BSK] Exchange components
# | BSENGBlk=  51          RL      # [BSK] Screened interaction block size
# | #WehCpl                        # [BSK] eh interaction included also in coupling
# | % BEnRange
# | -10.00000 | 10.00000 | eV      # [BSS] Energy range
# | %
# | % BDmRange
# |   0.10000 |  0.10000 | eV      # [BSS] Damping range
# | %
# | BEnSteps= 2001                 # [BSS] Energy steps
# | % BLongDir
# | 0.5774E-5 |0.5774E-5 |0.5774E-5 |        # [BSS] [cc] Electric Field
# | %
# | % BSEQptR
# |   1 |  4 |                     # [BSK] Transferred momenta range
# | %
# | % BSEBands
# |   3 | 10 |                     # [BSK] Bands range
# | %
# | % BndsRnXs
# |    1 |  60 |                   # [Xs] Polarization function bands
# | %
# | NGsBlkXs=  51          RL      # [Xs] Response block size
# | % DmRngeXs
# | 0.1000E-2 |0.1000E-2 | eV      # [Xs] Damping range
# | %
# | % LongDrXs
# | 0.1000E-4 | 0.000    | 0.000    |        # [Xs] [cc] Electric Field
# | %
