#                                                           
#  **    **    **     ****     ****  ******     *******     
# //**  **    ****   /**/**   **/** /*////**   **/////**    
#  //****    **//**  /**//** ** /** /*   /**  **     //**   
#   //**    **  //** /** //***  /** /******  /**      /**   
#    /**   **********/**  //*   /** /*//// **/**      /**   
#    /**  /**//////**/**   /    /** /*    /**//**     **    
#    /**  /**     /**/**        /** /*******  //*******     
#    //   //      // //         //  ///////    ///////      
#                                                           
#       Version 4.4.0 Revision 16026 Hash 7ef228b25         
#                  MPI+SLK+OpenMP Build                     
#                http://www.yambo-code.org                  
#
# Absorption @ Q(4) [iku] : 0.500000  0.250000  0.500000
#
#
# - Energies      are Teter 93(XC)
# - Wavefunctions are Teter 93(XC)
#
# - The Green`s function is Resonant -
#
#   BSK|Identifier              :257
#      |Dimension               :96
#      |Bands                   :3 - 10
#      |Exchange           [res]: yes
#      |Correlation        [res]: yes
#      |Kernel`s coupling       : no
#      |Exchange           [cpl]: no
#      |Correlation        [cpl]: no
#      |W interaction is bare   : no
#      |ALDA kernel in R-space  : no
#      |RL vectors    [exchange]:51
#      |RL vectors [correlation]:51
#      |E/h energy range    [ev]:-1.000000 - -1.000000
#      |Coupling range     [o/o]: 100.0000 -  100.0000
#    W |Interaction is diagonal : no
#      |Matrix size             :51
#      |Bands                   :1 - 60
#      |e/h energy range    [ev]:-1.000000 - -1.000000
#      |Poles              [o/o]: 100.0000
#      |RL vectors in the sum   :3473
#      |[r,Vnl] included        : yes
#      |Field direction         :0.1000E-4  0.000000  0.000000
#      |Coulomb Cutoff          :none
#      |xc-Kernel               :none
#   RIM|RL components      [col]:0
#      |Random points      [col]:0
#
#    E/ev[1]      EPS-Im[2]    EPS-Re[3]    EPSo-Im[4]   EPSo-Re[5]
#
   -10.00       0.7688E-3     1.117       0.6101E-3     1.105   
   -9.990       0.7698E-3     1.117       0.6108E-3     1.105   
   -9.980       0.7708E-3     1.117       0.6116E-3     1.105   
   -9.970       0.7719E-3     1.118       0.6123E-3     1.105   
   -9.960       0.7729E-3     1.118       0.6130E-3     1.105   
   -9.950       0.7739E-3     1.118       0.6138E-3     1.105   
   -9.940       0.7750E-3     1.118       0.6145E-3     1.105   
   -9.930       0.7760E-3     1.118       0.6152E-3     1.105   
   -9.920       0.7770E-3     1.118       0.6159E-3     1.105   
   -9.910       0.7781E-3     1.118       0.6167E-3     1.105   
   -9.900       0.7791E-3     1.118       0.6174E-3     1.105   
   -9.890       0.7802E-3     1.118       0.6182E-3     1.105   
   -9.880       0.7812E-3     1.118       0.6189E-3     1.105   
   -9.870       0.7823E-3     1.118       0.6196E-3     1.105   
   -9.860       0.7833E-3     1.118       0.6204E-3     1.105   
   -9.850       0.7844E-3     1.118       0.6211E-3     1.106   
   -9.840       0.7855E-3     1.119       0.6219E-3     1.106   
   -9.830       0.7865E-3     1.119       0.6226E-3     1.106   
   -9.820       0.7876E-3     1.119       0.6234E-3     1.106   
   -9.810       0.7886E-3     1.119       0.6241E-3     1.106   
   -9.800       0.7897E-3     1.119       0.6249E-3     1.106   
   -9.790       0.7908E-3     1.119       0.6256E-3     1.106   
   -9.780       0.7919E-3     1.119       0.6264E-3     1.106   
   -9.770       0.7929E-3     1.119       0.6271E-3     1.106   
   -9.760       0.7940E-3     1.119       0.6279E-3     1.106   
   -9.750       0.7951E-3     1.119       0.6286E-3     1.106   
   -9.740       0.7962E-3     1.119       0.6294E-3     1.106   
   -9.730       0.7972E-3     1.119       0.6301E-3     1.106   
   -9.720       0.7983E-3     1.120       0.6309E-3     1.106   
   -9.710       0.7994E-3     1.120       0.6317E-3     1.106   
   -9.700       0.8005E-3     1.120       0.6324E-3     1.106   
   -9.690       0.8016E-3     1.120       0.6332E-3     1.107   
   -9.680       0.8027E-3     1.120       0.6340E-3     1.107   
   -9.670       0.8038E-3     1.120       0.6347E-3     1.107   
   -9.660       0.8049E-3     1.120       0.6355E-3     1.107   
   -9.650       0.8060E-3     1.120       0.6363E-3     1.107   
   -9.640       0.8071E-3     1.120       0.6370E-3     1.107   
   -9.630       0.8082E-3     1.120       0.6378E-3     1.107   
   -9.620       0.8093E-3     1.120       0.6386E-3     1.107   
   -9.610       0.8104E-3     1.120       0.6394E-3     1.107   
   -9.600       0.8115E-3     1.120       0.6401E-3     1.107   
   -9.590       0.8127E-3     1.121       0.6409E-3     1.107   
   -9.580       0.8138E-3     1.121       0.6417E-3     1.107   
   -9.570       0.8149E-3     1.121       0.6425E-3     1.107   
   -9.560       0.8160E-3     1.121       0.6433E-3     1.107   
   -9.550       0.8171E-3     1.121       0.6441E-3     1.107   
   -9.540       0.8183E-3     1.121       0.6448E-3     1.107   
   -9.530       0.8194E-3     1.121       0.6456E-3     1.108   
   -9.520       0.8205E-3     1.121       0.6464E-3     1.108   
   -9.510       0.8217E-3     1.121       0.6472E-3     1.108   
   -9.500       0.8228E-3     1.121       0.6480E-3     1.108   
   -9.490       0.8239E-3     1.121       0.6488E-3     1.108   
   -9.480       0.8251E-3     1.121       0.6496E-3     1.108   
   -9.470       0.8262E-3     1.122       0.6504E-3     1.108   
   -9.460       0.8274E-3     1.122       0.6512E-3     1.108   
   -9.450       0.8285E-3     1.122       0.6520E-3     1.108   
   -9.440       0.8297E-3     1.122       0.6528E-3     1.108   
   -9.430       0.8308E-3     1.122       0.6536E-3     1.108   
   -9.420       0.8320E-3     1.122       0.6544E-3     1.108   
   -9.410       0.8331E-3     1.122       0.6552E-3     1.108   
   -9.400       0.8343E-3     1.122       0.6560E-3     1.108   
   -9.390       0.8355E-3     1.122       0.6568E-3     1.108   
   -9.380       0.8366E-3     1.122       0.6576E-3     1.109   
   -9.370       0.8378E-3     1.122       0.6584E-3     1.109   
   -9.360       0.8390E-3     1.122       0.6593E-3     1.109   
   -9.350       0.8401E-3     1.123       0.6601E-3     1.109   
   -9.340       0.8413E-3     1.123       0.6609E-3     1.109   
   -9.330       0.8425E-3     1.123       0.6617E-3     1.109   
   -9.320       0.8437E-3     1.123       0.6625E-3     1.109   
   -9.310       0.8449E-3     1.123       0.6633E-3     1.109   
   -9.300       0.8460E-3     1.123       0.6642E-3     1.109   
   -9.290       0.8472E-3     1.123       0.6650E-3     1.109   
   -9.280       0.8484E-3     1.123       0.6658E-3     1.109   
   -9.270       0.8496E-3     1.123       0.6666E-3     1.109   
   -9.260       0.8508E-3     1.123       0.6675E-3     1.109   
   -9.250       0.8520E-3     1.123       0.6683E-3     1.109   
   -9.240       0.8532E-3     1.123       0.6691E-3     1.109   
   -9.230       0.8544E-3     1.124       0.6700E-3     1.110   
   -9.220       0.8556E-3     1.124       0.6708E-3     1.110   
   -9.210       0.8568E-3     1.124       0.6716E-3     1.110   
   -9.200       0.8580E-3     1.124       0.6725E-3     1.110   
   -9.190       0.8593E-3     1.124       0.6733E-3     1.110   
   -9.180       0.8605E-3     1.124       0.6742E-3     1.110   
   -9.170       0.8617E-3     1.124       0.6750E-3     1.110   
   -9.160       0.8629E-3     1.124       0.6759E-3     1.110   
   -9.150       0.8641E-3     1.124       0.6767E-3     1.110   
   -9.140       0.8654E-3     1.124       0.6775E-3     1.110   
   -9.130       0.8666E-3     1.124       0.6784E-3     1.110   
   -9.120       0.8678E-3     1.125       0.6792E-3     1.110   
   -9.110       0.8691E-3     1.125       0.6801E-3     1.110   
   -9.100       0.8703E-3     1.125       0.6810E-3     1.110   
   -9.090       0.8715E-3     1.125       0.6818E-3     1.110   
   -9.080       0.8728E-3     1.125       0.6827E-3     1.111   
   -9.070       0.8740E-3     1.125       0.6835E-3     1.111   
   -9.060       0.8753E-3     1.125       0.6844E-3     1.111   
   -9.050       0.8765E-3     1.125       0.6853E-3     1.111   
   -9.040       0.8778E-3     1.125       0.6861E-3     1.111   
   -9.030       0.8790E-3     1.125       0.6870E-3     1.111   
   -9.020       0.8803E-3     1.125       0.6879E-3     1.111   
   -9.010       0.8816E-3     1.125       0.6887E-3     1.111   
   -9.000       0.8828E-3     1.126       0.6896E-3     1.111   
   -8.990       0.8841E-3     1.126       0.6905E-3     1.111   
   -8.980       0.8854E-3     1.126       0.6913E-3     1.111   
   -8.970       0.8867E-3     1.126       0.6922E-3     1.111   
   -8.960       0.8879E-3     1.126       0.6931E-3     1.111   
   -8.950       0.8892E-3     1.126       0.6940E-3     1.111   
   -8.940       0.8905E-3     1.126       0.6949E-3     1.112   
   -8.930       0.8918E-3     1.126       0.6957E-3     1.112   
   -8.920       0.8931E-3     1.126       0.6966E-3     1.112   
   -8.910       0.8944E-3     1.126       0.6975E-3     1.112   
   -8.900       0.8956E-3     1.126       0.6984E-3     1.112   
   -8.890       0.8969E-3     1.127       0.6993E-3     1.112   
   -8.880       0.8982E-3     1.127       0.7002E-3     1.112   
   -8.870       0.8995E-3     1.127       0.7011E-3     1.112   
   -8.860       0.9009E-3     1.127       0.7020E-3     1.112   
   -8.850       0.9022E-3     1.127       0.7029E-3     1.112   
   -8.840       0.9035E-3     1.127       0.7038E-3     1.112   
   -8.830       0.9048E-3     1.127       0.7047E-3     1.112   
   -8.820       0.9061E-3     1.127       0.7056E-3     1.112   
   -8.810       0.9074E-3     1.127       0.7065E-3     1.112   
   -8.800       0.9087E-3     1.127       0.7074E-3     1.112   
   -8.790       0.9101E-3     1.127       0.7083E-3     1.113   
   -8.780       0.9114E-3     1.128       0.7092E-3     1.113   
   -8.770       0.9127E-3     1.128       0.7101E-3     1.113   
   -8.760       0.9141E-3     1.128       0.7110E-3     1.113   
   -8.750       0.9154E-3     1.128       0.7119E-3     1.113   
   -8.740       0.9167E-3     1.128       0.7129E-3     1.113   
   -8.730       0.9181E-3     1.128       0.7138E-3     1.113   
   -8.720       0.9194E-3     1.128       0.7147E-3     1.113   
   -8.710       0.9208E-3     1.128       0.7156E-3     1.113   
   -8.700       0.9221E-3     1.128       0.7165E-3     1.113   
   -8.690       0.9235E-3     1.128       0.7175E-3     1.113   
   -8.680       0.9249E-3     1.128       0.7184E-3     1.113   
   -8.670       0.9262E-3     1.129       0.7193E-3     1.113   
   -8.660       0.9276E-3     1.129       0.7202E-3     1.113   
   -8.650       0.9289E-3     1.129       0.7212E-3     1.114   
   -8.640       0.9303E-3     1.129       0.7221E-3     1.114   
   -8.630       0.9317E-3     1.129       0.7231E-3     1.114   
   -8.620       0.9331E-3     1.129       0.7240E-3     1.114   
   -8.610       0.9344E-3     1.129       0.7249E-3     1.114   
   -8.600       0.9358E-3     1.129       0.7259E-3     1.114   
   -8.590       0.9372E-3     1.129       0.7268E-3     1.114   
   -8.580       0.9386E-3     1.129       0.7278E-3     1.114   
   -8.570       0.9400E-3     1.129       0.7287E-3     1.114   
   -8.560       0.9414E-3     1.130       0.7297E-3     1.114   
   -8.550       0.9428E-3     1.130       0.7306E-3     1.114   
   -8.540       0.9442E-3     1.130       0.7316E-3     1.114   
   -8.530       0.9456E-3     1.130       0.7325E-3     1.114   
   -8.520       0.9470E-3     1.130       0.7335E-3     1.115   
   -8.510       0.9484E-3     1.130       0.7344E-3     1.115   
   -8.500       0.9498E-3     1.130       0.7354E-3     1.115   
   -8.490       0.9513E-3     1.130       0.7364E-3     1.115   
   -8.480       0.9527E-3     1.130       0.7373E-3     1.115   
   -8.470       0.9541E-3     1.130       0.7383E-3     1.115   
   -8.460       0.9555E-3     1.131       0.7393E-3     1.115   
   -8.450       0.9570E-3     1.131       0.7402E-3     1.115   
   -8.440       0.9584E-3     1.131       0.7412E-3     1.115   
   -8.430       0.9598E-3     1.131       0.7422E-3     1.115   
   -8.420       0.9613E-3     1.131       0.7432E-3     1.115   
   -8.410       0.9627E-3     1.131       0.7441E-3     1.115   
   -8.400       0.9642E-3     1.131       0.7451E-3     1.115   
   -8.390       0.9656E-3     1.131       0.7461E-3     1.115   
   -8.380       0.9671E-3     1.131       0.7471E-3     1.116   
   -8.370       0.9685E-3     1.131       0.7481E-3     1.116   
   -8.360       0.9700E-3     1.131       0.7491E-3     1.116   
   -8.350       0.9715E-3     1.132       0.7501E-3     1.116   
   -8.340       0.9729E-3     1.132       0.7510E-3     1.116   
   -8.330       0.9744E-3     1.132       0.7520E-3     1.116   
   -8.320       0.9759E-3     1.132       0.7530E-3     1.116   
   -8.310       0.9774E-3     1.132       0.7540E-3     1.116   
   -8.300       0.9788E-3     1.132       0.7550E-3     1.116   
   -8.290       0.9803E-3     1.132       0.7560E-3     1.116   
   -8.280       0.9818E-3     1.132       0.7570E-3     1.116   
   -8.270       0.9833E-3     1.132       0.7580E-3     1.116   
   -8.260       0.9848E-3     1.132       0.7591E-3     1.116   
   -8.250       0.9863E-3     1.133       0.7601E-3     1.117   
   -8.240       0.9878E-3     1.133       0.7611E-3     1.117   
   -8.230       0.9893E-3     1.133       0.7621E-3     1.117   
   -8.220       0.9908E-3     1.133       0.7631E-3     1.117   
   -8.210       0.9923E-3     1.133       0.7641E-3     1.117   
   -8.200       0.9938E-3     1.133       0.7652E-3     1.117   
   -8.190       0.9954E-3     1.133       0.7662E-3     1.117   
   -8.180       0.9969E-3     1.133       0.7672E-3     1.117   
   -8.170       0.9984E-3     1.133       0.7682E-3     1.117   
   -8.160       0.1000E-2     1.133       0.7693E-3     1.117   
   -8.150       0.1001E-2     1.134       0.7703E-3     1.117   
   -8.140       0.1003E-2     1.134       0.7713E-3     1.117   
   -8.130       0.1005E-2     1.134       0.7724E-3     1.117   
   -8.120       0.1006E-2     1.134       0.7734E-3     1.118   
   -8.110       0.1008E-2     1.134       0.7744E-3     1.118   
   -8.100       0.1009E-2     1.134       0.7755E-3     1.118   
   -8.090       0.1011E-2     1.134       0.7765E-3     1.118   
   -8.080       0.1012E-2     1.134       0.7776E-3     1.118   
   -8.070       0.1014E-2     1.134       0.7786E-3     1.118   
   -8.060       0.1015E-2     1.134       0.7797E-3     1.118   
   -8.050       0.1017E-2     1.135       0.7807E-3     1.118   
   -8.040       0.1019E-2     1.135       0.7818E-3     1.118   
   -8.030       0.1020E-2     1.135       0.7828E-3     1.118   
   -8.020       0.1022E-2     1.135       0.7839E-3     1.118   
   -8.010       0.1023E-2     1.135       0.7850E-3     1.118   
   -8.000       0.1025E-2     1.135       0.7860E-3     1.118   
   -7.990       0.1027E-2     1.135       0.7871E-3     1.119   
   -7.980       0.1028E-2     1.135       0.7882E-3     1.119   
   -7.970       0.1030E-2     1.135       0.7892E-3     1.119   
   -7.960       0.1031E-2     1.135       0.7903E-3     1.119   
   -7.950       0.1033E-2     1.136       0.7914E-3     1.119   
   -7.940       0.1035E-2     1.136       0.7925E-3     1.119   
   -7.930       0.1036E-2     1.136       0.7935E-3     1.119   
   -7.920       0.1038E-2     1.136       0.7946E-3     1.119   
   -7.910       0.1039E-2     1.136       0.7957E-3     1.119   
   -7.900       0.1041E-2     1.136       0.7968E-3     1.119   
   -7.890       0.1043E-2     1.136       0.7979E-3     1.119   
   -7.880       0.1044E-2     1.136       0.7990E-3     1.119   
   -7.870       0.1046E-2     1.136       0.8001E-3     1.119   
   -7.860       0.1048E-2     1.137       0.8011E-3     1.120   
   -7.850       0.1049E-2     1.137       0.8022E-3     1.120   
   -7.840       0.1051E-2     1.137       0.8033E-3     1.120   
   -7.830       0.1053E-2     1.137       0.8044E-3     1.120   
   -7.820       0.1054E-2     1.137       0.8056E-3     1.120   
   -7.810       0.1056E-2     1.137       0.8067E-3     1.120   
   -7.800       0.1058E-2     1.137       0.8078E-3     1.120   
   -7.790       0.1059E-2     1.137       0.8089E-3     1.120   
   -7.780       0.1061E-2     1.137       0.8100E-3     1.120   
   -7.770       0.1063E-2     1.137       0.8111E-3     1.120   
   -7.760       0.1064E-2     1.138       0.8122E-3     1.120   
   -7.750       0.1066E-2     1.138       0.8134E-3     1.120   
   -7.740       0.1068E-2     1.138       0.8145E-3     1.121   
   -7.730       0.1069E-2     1.138       0.8156E-3     1.121   
   -7.720       0.1071E-2     1.138       0.8167E-3     1.121   
   -7.710       0.1073E-2     1.138       0.8179E-3     1.121   
   -7.700       0.1074E-2     1.138       0.8190E-3     1.121   
   -7.690       0.1076E-2     1.138       0.8201E-3     1.121   
   -7.680       0.1078E-2     1.138       0.8213E-3     1.121   
   -7.670       0.1080E-2     1.139       0.8224E-3     1.121   
   -7.660       0.1081E-2     1.139       0.8235E-3     1.121   
   -7.650       0.1083E-2     1.139       0.8247E-3     1.121   
   -7.640       0.1085E-2     1.139       0.8258E-3     1.121   
   -7.630       0.1087E-2     1.139       0.8270E-3     1.121   
   -7.620       0.1088E-2     1.139       0.8281E-3     1.122   
   -7.610       0.1090E-2     1.139       0.8293E-3     1.122   
   -7.600       0.1092E-2     1.139       0.8305E-3     1.122   
   -7.590       0.1094E-2     1.139       0.8316E-3     1.122   
   -7.580       0.1095E-2     1.140       0.8328E-3     1.122   
   -7.570       0.1097E-2     1.140       0.8339E-3     1.122   
   -7.560       0.1099E-2     1.140       0.8351E-3     1.122   
   -7.550       0.1101E-2     1.140       0.8363E-3     1.122   
   -7.540       0.1102E-2     1.140       0.8374E-3     1.122   
   -7.530       0.1104E-2     1.140       0.8386E-3     1.122   
   -7.520       0.1106E-2     1.140       0.8398E-3     1.122   
   -7.510       0.1108E-2     1.140       0.8410E-3     1.122   
   -7.500       0.1110E-2     1.140       0.8422E-3     1.123   
   -7.490       0.1111E-2     1.141       0.8433E-3     1.123   
   -7.480       0.1113E-2     1.141       0.8445E-3     1.123   
   -7.470       0.1115E-2     1.141       0.8457E-3     1.123   
   -7.460       0.1117E-2     1.141       0.8469E-3     1.123   
   -7.450       0.1119E-2     1.141       0.8481E-3     1.123   
   -7.440       0.1120E-2     1.141       0.8493E-3     1.123   
   -7.430       0.1122E-2     1.141       0.8505E-3     1.123   
   -7.420       0.1124E-2     1.141       0.8517E-3     1.123   
   -7.410       0.1126E-2     1.141       0.8529E-3     1.123   
   -7.400       0.1128E-2     1.142       0.8541E-3     1.123   
   -7.390       0.1130E-2     1.142       0.8553E-3     1.123   
   -7.380       0.1131E-2     1.142       0.8566E-3     1.124   
   -7.370       0.1133E-2     1.142       0.8578E-3     1.124   
   -7.360       0.1135E-2     1.142       0.8590E-3     1.124   
   -7.350       0.1137E-2     1.142       0.8602E-3     1.124   
   -7.340       0.1139E-2     1.142       0.8614E-3     1.124   
   -7.330       0.1141E-2     1.142       0.8627E-3     1.124   
   -7.320       0.1143E-2     1.142       0.8639E-3     1.124   
   -7.310       0.1145E-2     1.143       0.8651E-3     1.124   
   -7.300       0.1146E-2     1.143       0.8664E-3     1.124   
   -7.290       0.1148E-2     1.143       0.8676E-3     1.124   
   -7.280       0.1150E-2     1.143       0.8688E-3     1.124   
   -7.270       0.1152E-2     1.143       0.8701E-3     1.124   
   -7.260       0.1154E-2     1.143       0.8713E-3     1.125   
   -7.250       0.1156E-2     1.143       0.8726E-3     1.125   
   -7.240       0.1158E-2     1.143       0.8738E-3     1.125   
   -7.230       0.1160E-2     1.143       0.8751E-3     1.125   
   -7.220       0.1162E-2     1.144       0.8763E-3     1.125   
   -7.210       0.1164E-2     1.144       0.8776E-3     1.125   
   -7.200       0.1166E-2     1.144       0.8788E-3     1.125   
   -7.190       0.1167E-2     1.144       0.8801E-3     1.125   
   -7.180       0.1169E-2     1.144       0.8814E-3     1.125   
   -7.170       0.1171E-2     1.144       0.8827E-3     1.125   
   -7.160       0.1173E-2     1.144       0.8839E-3     1.125   
   -7.150       0.1175E-2     1.144       0.8852E-3     1.126   
   -7.140       0.1177E-2     1.145       0.8865E-3     1.126   
   -7.130       0.1179E-2     1.145       0.8878E-3     1.126   
   -7.120       0.1181E-2     1.145       0.8890E-3     1.126   
   -7.110       0.1183E-2     1.145       0.8903E-3     1.126   
   -7.100       0.1185E-2     1.145       0.8916E-3     1.126   
   -7.090       0.1187E-2     1.145       0.8929E-3     1.126   
   -7.080       0.1189E-2     1.145       0.8942E-3     1.126   
   -7.070       0.1191E-2     1.145       0.8955E-3     1.126   
   -7.060       0.1193E-2     1.145       0.8968E-3     1.126   
   -7.050       0.1195E-2     1.146       0.8981E-3     1.126   
   -7.040       0.1197E-2     1.146       0.8994E-3     1.127   
   -7.030       0.1199E-2     1.146       0.9007E-3     1.127   
   -7.020       0.1201E-2     1.146       0.9020E-3     1.127   
   -7.010       0.1203E-2     1.146       0.9034E-3     1.127   
   -7.000       0.1205E-2     1.146       0.9047E-3     1.127   
   -6.990       0.1207E-2     1.146       0.9060E-3     1.127   
   -6.980       0.1209E-2     1.146       0.9073E-3     1.127   
   -6.970       0.1211E-2     1.147       0.9087E-3     1.127   
   -6.960       0.1214E-2     1.147       0.9100E-3     1.127   
   -6.950       0.1216E-2     1.147       0.9113E-3     1.127   
   -6.940       0.1218E-2     1.147       0.9127E-3     1.127   
   -6.930       0.1220E-2     1.147       0.9140E-3     1.128   
   -6.920       0.1222E-2     1.147       0.9153E-3     1.128   
   -6.910       0.1224E-2     1.147       0.9167E-3     1.128   
   -6.900       0.1226E-2     1.147       0.9180E-3     1.128   
   -6.890       0.1228E-2     1.148       0.9194E-3     1.128   
   -6.880       0.1230E-2     1.148       0.9207E-3     1.128   
   -6.870       0.1232E-2     1.148       0.9221E-3     1.128   
   -6.860       0.1234E-2     1.148       0.9235E-3     1.128   
   -6.850       0.1237E-2     1.148       0.9248E-3     1.128   
   -6.840       0.1239E-2     1.148       0.9262E-3     1.128   
   -6.830       0.1241E-2     1.148       0.9276E-3     1.128   
   -6.820       0.1243E-2     1.148       0.9289E-3     1.129   
   -6.810       0.1245E-2     1.149       0.9303E-3     1.129   
   -6.800       0.1247E-2     1.149       0.9317E-3     1.129   
   -6.790       0.1249E-2     1.149       0.9331E-3     1.129   
   -6.780       0.1252E-2     1.149       0.9345E-3     1.129   
   -6.770       0.1254E-2     1.149       0.9359E-3     1.129   
   -6.760       0.1256E-2     1.149       0.9372E-3     1.129   
   -6.750       0.1258E-2     1.149       0.9386E-3     1.129   
   -6.740       0.1260E-2     1.149       0.9400E-3     1.129   
   -6.730       0.1262E-2     1.150       0.9414E-3     1.129   
   -6.720       0.1265E-2     1.150       0.9429E-3     1.129   
   -6.710       0.1267E-2     1.150       0.9443E-3     1.130   
   -6.700       0.1269E-2     1.150       0.9457E-3     1.130   
   -6.690       0.1271E-2     1.150       0.9471E-3     1.130   
   -6.680       0.1273E-2     1.150       0.9485E-3     1.130   
   -6.670       0.1276E-2     1.150       0.9499E-3     1.130   
   -6.660       0.1278E-2     1.150       0.9514E-3     1.130   
   -6.650       0.1280E-2     1.151       0.9528E-3     1.130   
   -6.640       0.1282E-2     1.151       0.9542E-3     1.130   
   -6.630       0.1285E-2     1.151       0.9556E-3     1.130   
   -6.620       0.1287E-2     1.151       0.9571E-3     1.130   
   -6.610       0.1289E-2     1.151       0.9585E-3     1.131   
   -6.600       0.1291E-2     1.151       0.9600E-3     1.131   
   -6.590       0.1294E-2     1.151       0.9614E-3     1.131   
   -6.580       0.1296E-2     1.151       0.9629E-3     1.131   
   -6.570       0.1298E-2     1.152       0.9643E-3     1.131   
   -6.560       0.1301E-2     1.152       0.9658E-3     1.131   
   -6.550       0.1303E-2     1.152       0.9672E-3     1.131   
   -6.540       0.1305E-2     1.152       0.9687E-3     1.131   
   -6.530       0.1307E-2     1.152       0.9702E-3     1.131   
   -6.520       0.1310E-2     1.152       0.9716E-3     1.131   
   -6.510       0.1312E-2     1.152       0.9731E-3     1.131   
   -6.500       0.1314E-2     1.152       0.9746E-3     1.132   
   -6.490       0.1317E-2     1.153       0.9761E-3     1.132   
   -6.480       0.1319E-2     1.153       0.9776E-3     1.132   
   -6.470       0.1321E-2     1.153       0.9791E-3     1.132   
   -6.460       0.1324E-2     1.153       0.9805E-3     1.132   
   -6.450       0.1326E-2     1.153       0.9820E-3     1.132   
   -6.440       0.1329E-2     1.153       0.9835E-3     1.132   
   -6.430       0.1331E-2     1.153       0.9850E-3     1.132   
   -6.420       0.1333E-2     1.154       0.9866E-3     1.132   
   -6.410       0.1336E-2     1.154       0.9881E-3     1.132   
   -6.400       0.1338E-2     1.154       0.9896E-3     1.133   
   -6.390       0.1340E-2     1.154       0.9911E-3     1.133   
   -6.380       0.1343E-2     1.154       0.9926E-3     1.133   
   -6.370       0.1345E-2     1.154       0.9941E-3     1.133   
   -6.360       0.1348E-2     1.154       0.9957E-3     1.133   
   -6.350       0.1350E-2     1.154       0.9972E-3     1.133   
   -6.340       0.1353E-2     1.155       0.9987E-3     1.133   
   -6.330       0.1355E-2     1.155       0.1000E-2     1.133   
   -6.320       0.1357E-2     1.155       0.1002E-2     1.133   
   -6.310       0.1360E-2     1.155       0.1003E-2     1.133   
   -6.300       0.1362E-2     1.155       0.1005E-2     1.134   
   -6.290       0.1365E-2     1.155       0.1006E-2     1.134   
   -6.280       0.1367E-2     1.155       0.1008E-2     1.134   
   -6.270       0.1370E-2     1.156       0.1010E-2     1.134   
   -6.260       0.1372E-2     1.156       0.1011E-2     1.134   
   -6.250       0.1375E-2     1.156       0.1013E-2     1.134   
   -6.240       0.1377E-2     1.156       0.1014E-2     1.134   
   -6.230       0.1380E-2     1.156       0.1016E-2     1.134   
   -6.220       0.1382E-2     1.156       0.1017E-2     1.134   
   -6.210       0.1385E-2     1.156       0.1019E-2     1.134   
   -6.200       0.1387E-2     1.157       0.1021E-2     1.135   
   -6.190       0.1390E-2     1.157       0.1022E-2     1.135   
   -6.180       0.1392E-2     1.157       0.1024E-2     1.135   
   -6.170       0.1395E-2     1.157       0.1025E-2     1.135   
   -6.160       0.1398E-2     1.157       0.1027E-2     1.135   
   -6.150       0.1400E-2     1.157       0.1029E-2     1.135   
   -6.140       0.1403E-2     1.157       0.1030E-2     1.135   
   -6.130       0.1405E-2     1.158       0.1032E-2     1.135   
   -6.120       0.1408E-2     1.158       0.1033E-2     1.135   
   -6.110       0.1410E-2     1.158       0.1035E-2     1.136   
   -6.100       0.1413E-2     1.158       0.1037E-2     1.136   
   -6.090       0.1416E-2     1.158       0.1038E-2     1.136   
   -6.080       0.1418E-2     1.158       0.1040E-2     1.136   
   -6.070       0.1421E-2     1.158       0.1042E-2     1.136   
   -6.060       0.1423E-2     1.158       0.1043E-2     1.136   
   -6.050       0.1426E-2     1.159       0.1045E-2     1.136   
   -6.040       0.1429E-2     1.159       0.1047E-2     1.136   
   -6.030       0.1431E-2     1.159       0.1048E-2     1.136   
   -6.020       0.1434E-2     1.159       0.1050E-2     1.136   
   -6.010       0.1437E-2     1.159       0.1051E-2     1.137   
   -6.000       0.1439E-2     1.159       0.1053E-2     1.137   
   -5.990       0.1442E-2     1.159       0.1055E-2     1.137   
   -5.980       0.1445E-2     1.160       0.1056E-2     1.137   
   -5.970       0.1448E-2     1.160       0.1058E-2     1.137   
   -5.960       0.1450E-2     1.160       0.1060E-2     1.137   
   -5.950       0.1453E-2     1.160       0.1062E-2     1.137   
   -5.940       0.1456E-2     1.160       0.1063E-2     1.137   
   -5.930       0.1458E-2     1.160       0.1065E-2     1.137   
   -5.920       0.1461E-2     1.161       0.1067E-2     1.137   
   -5.910       0.1464E-2     1.161       0.1068E-2     1.138   
   -5.900       0.1467E-2     1.161       0.1070E-2     1.138   
   -5.890       0.1469E-2     1.161       0.1072E-2     1.138   
   -5.880       0.1472E-2     1.161       0.1073E-2     1.138   
   -5.870       0.1475E-2     1.161       0.1075E-2     1.138   
   -5.860       0.1478E-2     1.161       0.1077E-2     1.138   
   -5.850       0.1481E-2     1.162       0.1079E-2     1.138   
   -5.840       0.1483E-2     1.162       0.1080E-2     1.138   
   -5.830       0.1486E-2     1.162       0.1082E-2     1.138   
   -5.820       0.1489E-2     1.162       0.1084E-2     1.139   
   -5.810       0.1492E-2     1.162       0.1086E-2     1.139   
   -5.800       0.1495E-2     1.162       0.1087E-2     1.139   
   -5.790       0.1497E-2     1.162       0.1089E-2     1.139   
   -5.780       0.1500E-2     1.163       0.1091E-2     1.139   
   -5.770       0.1503E-2     1.163       0.1093E-2     1.139   
   -5.760       0.1506E-2     1.163       0.1094E-2     1.139   
   -5.750       0.1509E-2     1.163       0.1096E-2     1.139   
   -5.740       0.1512E-2     1.163       0.1098E-2     1.139   
   -5.730       0.1515E-2     1.163       0.1100E-2     1.140   
   -5.720       0.1518E-2     1.163       0.1101E-2     1.140   
   -5.710       0.1521E-2     1.164       0.1103E-2     1.140   
   -5.700       0.1523E-2     1.164       0.1105E-2     1.140   
   -5.690       0.1526E-2     1.164       0.1107E-2     1.140   
   -5.680       0.1529E-2     1.164       0.1109E-2     1.140   
   -5.670       0.1532E-2     1.164       0.1110E-2     1.140   
   -5.660       0.1535E-2     1.164       0.1112E-2     1.140   
   -5.650       0.1538E-2     1.165       0.1114E-2     1.140   
   -5.640       0.1541E-2     1.165       0.1116E-2     1.141   
   -5.630       0.1544E-2     1.165       0.1118E-2     1.141   
   -5.620       0.1547E-2     1.165       0.1120E-2     1.141   
   -5.610       0.1550E-2     1.165       0.1121E-2     1.141   
   -5.600       0.1553E-2     1.165       0.1123E-2     1.141   
   -5.590       0.1556E-2     1.165       0.1125E-2     1.141   
   -5.580       0.1559E-2     1.166       0.1127E-2     1.141   
   -5.570       0.1562E-2     1.166       0.1129E-2     1.141   
   -5.560       0.1565E-2     1.166       0.1131E-2     1.141   
   -5.550       0.1568E-2     1.166       0.1132E-2     1.142   
   -5.540       0.1571E-2     1.166       0.1134E-2     1.142   
   -5.530       0.1575E-2     1.166       0.1136E-2     1.142   
   -5.520       0.1578E-2     1.167       0.1138E-2     1.142   
   -5.510       0.1581E-2     1.167       0.1140E-2     1.142   
   -5.500       0.1584E-2     1.167       0.1142E-2     1.142   
   -5.490       0.1587E-2     1.167       0.1144E-2     1.142   
   -5.480       0.1590E-2     1.167       0.1146E-2     1.142   
   -5.470       0.1593E-2     1.167       0.1148E-2     1.142   
   -5.460       0.1596E-2     1.168       0.1149E-2     1.143   
   -5.450       0.1599E-2     1.168       0.1151E-2     1.143   
   -5.440       0.1603E-2     1.168       0.1153E-2     1.143   
   -5.430       0.1606E-2     1.168       0.1155E-2     1.143   
   -5.420       0.1609E-2     1.168       0.1157E-2     1.143   
   -5.410       0.1612E-2     1.168       0.1159E-2     1.143   
   -5.400       0.1615E-2     1.169       0.1161E-2     1.143   
   -5.390       0.1619E-2     1.169       0.1163E-2     1.143   
   -5.380       0.1622E-2     1.169       0.1165E-2     1.144   
   -5.370       0.1625E-2     1.169       0.1167E-2     1.144   
   -5.360       0.1628E-2     1.169       0.1169E-2     1.144   
   -5.350       0.1631E-2     1.169       0.1171E-2     1.144   
   -5.340       0.1635E-2     1.169       0.1173E-2     1.144   
   -5.330       0.1638E-2     1.170       0.1175E-2     1.144   
   -5.320       0.1641E-2     1.170       0.1177E-2     1.144   
   -5.310       0.1645E-2     1.170       0.1179E-2     1.144   
   -5.300       0.1648E-2     1.170       0.1181E-2     1.144   
   -5.290       0.1651E-2     1.170       0.1183E-2     1.145   
   -5.280       0.1654E-2     1.170       0.1185E-2     1.145   
   -5.270       0.1658E-2     1.171       0.1187E-2     1.145   
   -5.260       0.1661E-2     1.171       0.1189E-2     1.145   
   -5.250       0.1665E-2     1.171       0.1191E-2     1.145   
   -5.240       0.1668E-2     1.171       0.1193E-2     1.145   
   -5.230       0.1671E-2     1.171       0.1195E-2     1.145   
   -5.220       0.1675E-2     1.171       0.1197E-2     1.145   
   -5.210       0.1678E-2     1.172       0.1199E-2     1.146   
   -5.200       0.1681E-2     1.172       0.1201E-2     1.146   
   -5.190       0.1685E-2     1.172       0.1203E-2     1.146   
   -5.180       0.1688E-2     1.172       0.1205E-2     1.146   
   -5.170       0.1692E-2     1.172       0.1207E-2     1.146   
   -5.160       0.1695E-2     1.172       0.1209E-2     1.146   
   -5.150       0.1699E-2     1.173       0.1211E-2     1.146   
   -5.140       0.1702E-2     1.173       0.1213E-2     1.146   
   -5.130       0.1706E-2     1.173       0.1215E-2     1.146   
   -5.120       0.1709E-2     1.173       0.1217E-2     1.147   
   -5.110       0.1713E-2     1.173       0.1219E-2     1.147   
   -5.100       0.1716E-2     1.173       0.1221E-2     1.147   
   -5.090       0.1720E-2     1.174       0.1224E-2     1.147   
   -5.080       0.1723E-2     1.174       0.1226E-2     1.147   
   -5.070       0.1727E-2     1.174       0.1228E-2     1.147   
   -5.060       0.1730E-2     1.174       0.1230E-2     1.147   
   -5.050       0.1734E-2     1.174       0.1232E-2     1.147   
   -5.040       0.1737E-2     1.175       0.1234E-2     1.148   
   -5.030       0.1741E-2     1.175       0.1236E-2     1.148   
   -5.020       0.1745E-2     1.175       0.1238E-2     1.148   
   -5.010       0.1748E-2     1.175       0.1240E-2     1.148   
   -5.000       0.1752E-2     1.175       0.1243E-2     1.148   
   -4.990       0.1755E-2     1.175       0.1245E-2     1.148   
   -4.980       0.1759E-2     1.176       0.1247E-2     1.148   
   -4.970       0.1763E-2     1.176       0.1249E-2     1.148   
   -4.960       0.1766E-2     1.176       0.1251E-2     1.149   
   -4.950       0.1770E-2     1.176       0.1253E-2     1.149   
   -4.940       0.1774E-2     1.176       0.1256E-2     1.149   
   -4.930       0.1777E-2     1.176       0.1258E-2     1.149   
   -4.920       0.1781E-2     1.177       0.1260E-2     1.149   
   -4.910       0.1785E-2     1.177       0.1262E-2     1.149   
   -4.900       0.1789E-2     1.177       0.1264E-2     1.149   
   -4.890       0.1792E-2     1.177       0.1267E-2     1.149   
   -4.880       0.1796E-2     1.177       0.1269E-2     1.150   
   -4.870       0.1800E-2     1.178       0.1271E-2     1.150   
   -4.860       0.1804E-2     1.178       0.1273E-2     1.150   
   -4.850       0.1808E-2     1.178       0.1276E-2     1.150   
   -4.840       0.1811E-2     1.178       0.1278E-2     1.150   
   -4.830       0.1815E-2     1.178       0.1280E-2     1.150   
   -4.820       0.1819E-2     1.178       0.1282E-2     1.150   
   -4.810       0.1823E-2     1.179       0.1285E-2     1.150   
   -4.800       0.1827E-2     1.179       0.1287E-2     1.151   
   -4.790       0.1831E-2     1.179       0.1289E-2     1.151   
   -4.780       0.1835E-2     1.179       0.1291E-2     1.151   
   -4.770       0.1838E-2     1.179       0.1294E-2     1.151   
   -4.760       0.1842E-2     1.180       0.1296E-2     1.151   
   -4.750       0.1846E-2     1.180       0.1298E-2     1.151   
   -4.740       0.1850E-2     1.180       0.1301E-2     1.151   
   -4.730       0.1854E-2     1.180       0.1303E-2     1.152   
   -4.720       0.1858E-2     1.180       0.1305E-2     1.152   
   -4.710       0.1862E-2     1.180       0.1307E-2     1.152   
   -4.700       0.1866E-2     1.181       0.1310E-2     1.152   
   -4.690       0.1870E-2     1.181       0.1312E-2     1.152   
   -4.680       0.1874E-2     1.181       0.1314E-2     1.152   
   -4.670       0.1878E-2     1.181       0.1317E-2     1.152   
   -4.660       0.1882E-2     1.181       0.1319E-2     1.152   
   -4.650       0.1886E-2     1.182       0.1322E-2     1.153   
   -4.640       0.1890E-2     1.182       0.1324E-2     1.153   
   -4.630       0.1894E-2     1.182       0.1326E-2     1.153   
   -4.620       0.1899E-2     1.182       0.1329E-2     1.153   
   -4.610       0.1903E-2     1.182       0.1331E-2     1.153   
   -4.600       0.1907E-2     1.183       0.1333E-2     1.153   
   -4.590       0.1911E-2     1.183       0.1336E-2     1.153   
   -4.580       0.1915E-2     1.183       0.1338E-2     1.154   
   -4.570       0.1919E-2     1.183       0.1341E-2     1.154   
   -4.560       0.1924E-2     1.183       0.1343E-2     1.154   
   -4.550       0.1928E-2     1.183       0.1346E-2     1.154   
   -4.540       0.1932E-2     1.184       0.1348E-2     1.154   
   -4.530       0.1936E-2     1.184       0.1350E-2     1.154   
   -4.520       0.1940E-2     1.184       0.1353E-2     1.154   
   -4.510       0.1945E-2     1.184       0.1355E-2     1.154   
   -4.500       0.1949E-2     1.184       0.1358E-2     1.155   
   -4.490       0.1953E-2     1.185       0.1360E-2     1.155   
   -4.480       0.1958E-2     1.185       0.1363E-2     1.155   
   -4.470       0.1962E-2     1.185       0.1365E-2     1.155   
   -4.460       0.1966E-2     1.185       0.1368E-2     1.155   
   -4.450       0.1971E-2     1.185       0.1370E-2     1.155   
   -4.440       0.1975E-2     1.186       0.1373E-2     1.155   
   -4.430       0.1979E-2     1.186       0.1375E-2     1.156   
   -4.420       0.1984E-2     1.186       0.1378E-2     1.156   
   -4.410       0.1988E-2     1.186       0.1380E-2     1.156   
   -4.400       0.1992E-2     1.186       0.1383E-2     1.156   
   -4.390       0.1997E-2     1.187       0.1385E-2     1.156   
   -4.380       0.2001E-2     1.187       0.1388E-2     1.156   
   -4.370       0.2006E-2     1.187       0.1390E-2     1.156   
   -4.360       0.2010E-2     1.187       0.1393E-2     1.157   
   -4.350       0.2015E-2     1.187       0.1396E-2     1.157   
   -4.340       0.2019E-2     1.188       0.1398E-2     1.157   
   -4.330       0.2024E-2     1.188       0.1401E-2     1.157   
   -4.320       0.2028E-2     1.188       0.1403E-2     1.157   
   -4.310       0.2033E-2     1.188       0.1406E-2     1.157   
   -4.300       0.2038E-2     1.188       0.1408E-2     1.157   
   -4.290       0.2042E-2     1.189       0.1411E-2     1.157   
   -4.280       0.2047E-2     1.189       0.1414E-2     1.158   
   -4.270       0.2051E-2     1.189       0.1416E-2     1.158   
   -4.260       0.2056E-2     1.189       0.1419E-2     1.158   
   -4.250       0.2061E-2     1.189       0.1422E-2     1.158   
   -4.240       0.2065E-2     1.190       0.1424E-2     1.158   
   -4.230       0.2070E-2     1.190       0.1427E-2     1.158   
   -4.220       0.2075E-2     1.190       0.1430E-2     1.158   
   -4.210       0.2080E-2     1.190       0.1432E-2     1.159   
   -4.200       0.2084E-2     1.191       0.1435E-2     1.159   
   -4.190       0.2089E-2     1.191       0.1438E-2     1.159   
   -4.180       0.2094E-2     1.191       0.1440E-2     1.159   
   -4.170       0.2099E-2     1.191       0.1443E-2     1.159   
   -4.160       0.2103E-2     1.191       0.1446E-2     1.159   
   -4.150       0.2108E-2     1.192       0.1448E-2     1.159   
   -4.140       0.2113E-2     1.192       0.1451E-2     1.160   
   -4.130       0.2118E-2     1.192       0.1454E-2     1.160   
   -4.120       0.2123E-2     1.192       0.1457E-2     1.160   
   -4.110       0.2128E-2     1.192       0.1459E-2     1.160   
   -4.100       0.2133E-2     1.193       0.1462E-2     1.160   
   -4.090       0.2138E-2     1.193       0.1465E-2     1.160   
   -4.080       0.2143E-2     1.193       0.1468E-2     1.161   
   -4.070       0.2147E-2     1.193       0.1470E-2     1.161   
   -4.060       0.2152E-2     1.193       0.1473E-2     1.161   
   -4.050       0.2157E-2     1.194       0.1476E-2     1.161   
   -4.040       0.2162E-2     1.194       0.1479E-2     1.161   
   -4.030       0.2168E-2     1.194       0.1482E-2     1.161   
   -4.020       0.2173E-2     1.194       0.1485E-2     1.161   
   -4.010       0.2178E-2     1.195       0.1487E-2     1.162   
   -4.000       0.2183E-2     1.195       0.1490E-2     1.162   
   -3.990       0.2188E-2     1.195       0.1493E-2     1.162   
   -3.980       0.2193E-2     1.195       0.1496E-2     1.162   
   -3.970       0.2198E-2     1.195       0.1499E-2     1.162   
   -3.960       0.2203E-2     1.196       0.1502E-2     1.162   
   -3.950       0.2209E-2     1.196       0.1505E-2     1.162   
   -3.940       0.2214E-2     1.196       0.1507E-2     1.163   
   -3.930       0.2219E-2     1.196       0.1510E-2     1.163   
   -3.920       0.2224E-2     1.197       0.1513E-2     1.163   
   -3.910       0.2229E-2     1.197       0.1516E-2     1.163   
   -3.900       0.2235E-2     1.197       0.1519E-2     1.163   
   -3.890       0.2240E-2     1.197       0.1522E-2     1.163   
   -3.880       0.2245E-2     1.197       0.1525E-2     1.163   
   -3.870       0.2251E-2     1.198       0.1528E-2     1.164   
   -3.860       0.2256E-2     1.198       0.1531E-2     1.164   
   -3.850       0.2261E-2     1.198       0.1534E-2     1.164   
   -3.840       0.2267E-2     1.198       0.1537E-2     1.164   
   -3.830       0.2272E-2     1.199       0.1540E-2     1.164   
   -3.820       0.2278E-2     1.199       0.1543E-2     1.164   
   -3.810       0.2283E-2     1.199       0.1546E-2     1.165   
   -3.800       0.2289E-2     1.199       0.1549E-2     1.165   
   -3.790       0.2294E-2     1.199       0.1552E-2     1.165   
   -3.780       0.2300E-2     1.200       0.1555E-2     1.165   
   -3.770       0.2305E-2     1.200       0.1558E-2     1.165   
   -3.760       0.2311E-2     1.200       0.1561E-2     1.165   
   -3.750       0.2316E-2     1.200       0.1564E-2     1.166   
   -3.740       0.2322E-2     1.201       0.1567E-2     1.166   
   -3.730       0.2328E-2     1.201       0.1570E-2     1.166   
   -3.720       0.2333E-2     1.201       0.1573E-2     1.166   
   -3.710       0.2339E-2     1.201       0.1576E-2     1.166   
   -3.700       0.2345E-2     1.202       0.1580E-2     1.166   
   -3.690       0.2350E-2     1.202       0.1583E-2     1.166   
   -3.680       0.2356E-2     1.202       0.1586E-2     1.167   
   -3.670       0.2362E-2     1.202       0.1589E-2     1.167   
   -3.660       0.2368E-2     1.203       0.1592E-2     1.167   
   -3.650       0.2373E-2     1.203       0.1595E-2     1.167   
   -3.640       0.2379E-2     1.203       0.1598E-2     1.167   
   -3.630       0.2385E-2     1.203       0.1602E-2     1.167   
   -3.620       0.2391E-2     1.203       0.1605E-2     1.168   
   -3.610       0.2397E-2     1.204       0.1608E-2     1.168   
   -3.600       0.2403E-2     1.204       0.1611E-2     1.168   
   -3.590       0.2409E-2     1.204       0.1614E-2     1.168   
   -3.580       0.2415E-2     1.204       0.1618E-2     1.168   
   -3.570       0.2421E-2     1.205       0.1621E-2     1.168   
   -3.560       0.2427E-2     1.205       0.1624E-2     1.169   
   -3.550       0.2433E-2     1.205       0.1627E-2     1.169   
   -3.540       0.2439E-2     1.205       0.1631E-2     1.169   
   -3.530       0.2445E-2     1.206       0.1634E-2     1.169   
   -3.520       0.2451E-2     1.206       0.1637E-2     1.169   
   -3.510       0.2457E-2     1.206       0.1640E-2     1.169   
   -3.500       0.2463E-2     1.206       0.1644E-2     1.170   
   -3.490       0.2469E-2     1.207       0.1647E-2     1.170   
   -3.480       0.2476E-2     1.207       0.1650E-2     1.170   
   -3.470       0.2482E-2     1.207       0.1654E-2     1.170   
   -3.460       0.2488E-2     1.207       0.1657E-2     1.170   
   -3.450       0.2494E-2     1.208       0.1660E-2     1.170   
   -3.440       0.2501E-2     1.208       0.1664E-2     1.171   
   -3.430       0.2507E-2     1.208       0.1667E-2     1.171   
   -3.420       0.2513E-2     1.208       0.1671E-2     1.171   
   -3.410       0.2520E-2     1.209       0.1674E-2     1.171   
   -3.400       0.2526E-2     1.209       0.1677E-2     1.171   
   -3.390       0.2532E-2     1.209       0.1681E-2     1.171   
   -3.380       0.2539E-2     1.209       0.1684E-2     1.172   
   -3.370       0.2545E-2     1.210       0.1688E-2     1.172   
   -3.360       0.2552E-2     1.210       0.1691E-2     1.172   
   -3.350       0.2558E-2     1.210       0.1695E-2     1.172   
   -3.340       0.2565E-2     1.210       0.1698E-2     1.172   
   -3.330       0.2572E-2     1.211       0.1702E-2     1.172   
   -3.320       0.2578E-2     1.211       0.1705E-2     1.173   
   -3.310       0.2585E-2     1.211       0.1709E-2     1.173   
   -3.300       0.2591E-2     1.211       0.1712E-2     1.173   
   -3.290       0.2598E-2     1.212       0.1716E-2     1.173   
   -3.280       0.2605E-2     1.212       0.1719E-2     1.173   
   -3.270       0.2612E-2     1.212       0.1723E-2     1.173   
   -3.260       0.2618E-2     1.212       0.1726E-2     1.174   
   -3.250       0.2625E-2     1.213       0.1730E-2     1.174   
   -3.240       0.2632E-2     1.213       0.1733E-2     1.174   
   -3.230       0.2639E-2     1.213       0.1737E-2     1.174   
   -3.220       0.2646E-2     1.214       0.1741E-2     1.174   
   -3.210       0.2653E-2     1.214       0.1744E-2     1.174   
   -3.200       0.2659E-2     1.214       0.1748E-2     1.175   
   -3.190       0.2666E-2     1.214       0.1752E-2     1.175   
   -3.180       0.2673E-2     1.215       0.1755E-2     1.175   
   -3.170       0.2680E-2     1.215       0.1759E-2     1.175   
   -3.160       0.2687E-2     1.215       0.1763E-2     1.175   
   -3.150       0.2695E-2     1.215       0.1766E-2     1.175   
   -3.140       0.2702E-2     1.216       0.1770E-2     1.176   
   -3.130       0.2709E-2     1.216       0.1774E-2     1.176   
   -3.120       0.2716E-2     1.216       0.1777E-2     1.176   
   -3.110       0.2723E-2     1.216       0.1781E-2     1.176   
   -3.100       0.2730E-2     1.217       0.1785E-2     1.176   
   -3.090       0.2738E-2     1.217       0.1789E-2     1.177   
   -3.080       0.2745E-2     1.217       0.1793E-2     1.177   
   -3.070       0.2752E-2     1.218       0.1796E-2     1.177   
   -3.060       0.2759E-2     1.218       0.1800E-2     1.177   
   -3.050       0.2767E-2     1.218       0.1804E-2     1.177   
   -3.040       0.2774E-2     1.218       0.1808E-2     1.177   
   -3.030       0.2782E-2     1.219       0.1812E-2     1.178   
   -3.020       0.2789E-2     1.219       0.1815E-2     1.178   
   -3.010       0.2797E-2     1.219       0.1819E-2     1.178   
   -3.000       0.2804E-2     1.219       0.1823E-2     1.178   
   -2.990       0.2812E-2     1.220       0.1827E-2     1.178   
   -2.980       0.2819E-2     1.220       0.1831E-2     1.179   
   -2.970       0.2827E-2     1.220       0.1835E-2     1.179   
   -2.960       0.2835E-2     1.221       0.1839E-2     1.179   
   -2.950       0.2842E-2     1.221       0.1843E-2     1.179   
   -2.940       0.2850E-2     1.221       0.1847E-2     1.179   
   -2.930       0.2858E-2     1.221       0.1851E-2     1.179   
   -2.920       0.2866E-2     1.222       0.1855E-2     1.180   
   -2.910       0.2873E-2     1.222       0.1859E-2     1.180   
   -2.900       0.2881E-2     1.222       0.1863E-2     1.180   
   -2.890       0.2889E-2     1.223       0.1867E-2     1.180   
   -2.880       0.2897E-2     1.223       0.1871E-2     1.180   
   -2.870       0.2905E-2     1.223       0.1875E-2     1.181   
   -2.860       0.2913E-2     1.223       0.1879E-2     1.181   
   -2.850       0.2921E-2     1.224       0.1883E-2     1.181   
   -2.840       0.2929E-2     1.224       0.1887E-2     1.181   
   -2.830       0.2937E-2     1.224       0.1891E-2     1.181   
   -2.820       0.2945E-2     1.225       0.1895E-2     1.182   
   -2.810       0.2953E-2     1.225       0.1900E-2     1.182   
   -2.800       0.2962E-2     1.225       0.1904E-2     1.182   
   -2.790       0.2970E-2     1.226       0.1908E-2     1.182   
   -2.780       0.2978E-2     1.226       0.1912E-2     1.182   
   -2.770       0.2986E-2     1.226       0.1916E-2     1.182   
   -2.760       0.2995E-2     1.226       0.1920E-2     1.183   
   -2.750       0.3003E-2     1.227       0.1925E-2     1.183   
   -2.740       0.3012E-2     1.227       0.1929E-2     1.183   
   -2.730       0.3020E-2     1.227       0.1933E-2     1.183   
   -2.720       0.3028E-2     1.228       0.1937E-2     1.183   
   -2.710       0.3037E-2     1.228       0.1942E-2     1.184   
   -2.700       0.3046E-2     1.228       0.1946E-2     1.184   
   -2.690       0.3054E-2     1.229       0.1950E-2     1.184   
   -2.680       0.3063E-2     1.229       0.1955E-2     1.184   
   -2.670       0.3071E-2     1.229       0.1959E-2     1.184   
   -2.660       0.3080E-2     1.229       0.1963E-2     1.185   
   -2.650       0.3089E-2     1.230       0.1968E-2     1.185   
   -2.640       0.3098E-2     1.230       0.1972E-2     1.185   
   -2.630       0.3107E-2     1.230       0.1977E-2     1.185   
   -2.620       0.3115E-2     1.231       0.1981E-2     1.185   
   -2.610       0.3124E-2     1.231       0.1985E-2     1.186   
   -2.600       0.3133E-2     1.231       0.1990E-2     1.186   
   -2.590       0.3142E-2     1.232       0.1994E-2     1.186   
   -2.580       0.3151E-2     1.232       0.1999E-2     1.186   
   -2.570       0.3160E-2     1.232       0.2003E-2     1.186   
   -2.560       0.3169E-2     1.233       0.2008E-2     1.187   
   -2.550       0.3179E-2     1.233       0.2012E-2     1.187   
   -2.540       0.3188E-2     1.233       0.2017E-2     1.187   
   -2.530       0.3197E-2     1.234       0.2021E-2     1.187   
   -2.520       0.3206E-2     1.234       0.2026E-2     1.187   
   -2.510       0.3216E-2     1.234       0.2031E-2     1.188   
   -2.500       0.3225E-2     1.235       0.2035E-2     1.188   
   -2.490       0.3234E-2     1.235       0.2040E-2     1.188   
   -2.480       0.3244E-2     1.235       0.2044E-2     1.188   
   -2.470       0.3253E-2     1.235       0.2049E-2     1.188   
   -2.460       0.3263E-2     1.236       0.2054E-2     1.189   
   -2.450       0.3273E-2     1.236       0.2058E-2     1.189   
   -2.440       0.3282E-2     1.236       0.2063E-2     1.189   
   -2.430       0.3292E-2     1.237       0.2068E-2     1.189   
   -2.420       0.3302E-2     1.237       0.2073E-2     1.189   
   -2.410       0.3311E-2     1.237       0.2077E-2     1.190   
   -2.400       0.3321E-2     1.238       0.2082E-2     1.190   
   -2.390       0.3331E-2     1.238       0.2087E-2     1.190   
   -2.380       0.3341E-2     1.238       0.2092E-2     1.190   
   -2.370       0.3351E-2     1.239       0.2097E-2     1.190   
   -2.360       0.3361E-2     1.239       0.2101E-2     1.191   
   -2.350       0.3371E-2     1.239       0.2106E-2     1.191   
   -2.340       0.3381E-2     1.240       0.2111E-2     1.191   
   -2.330       0.3391E-2     1.240       0.2116E-2     1.191   
   -2.320       0.3401E-2     1.240       0.2121E-2     1.192   
   -2.310       0.3411E-2     1.241       0.2126E-2     1.192   
   -2.300       0.3422E-2     1.241       0.2131E-2     1.192   
   -2.290       0.3432E-2     1.242       0.2136E-2     1.192   
   -2.280       0.3442E-2     1.242       0.2141E-2     1.192   
   -2.270       0.3453E-2     1.242       0.2146E-2     1.193   
   -2.260       0.3463E-2     1.243       0.2151E-2     1.193   
   -2.250       0.3474E-2     1.243       0.2156E-2     1.193   
   -2.240       0.3484E-2     1.243       0.2161E-2     1.193   
   -2.230       0.3495E-2     1.244       0.2166E-2     1.193   
   -2.220       0.3506E-2     1.244       0.2171E-2     1.194   
   -2.210       0.3516E-2     1.244       0.2176E-2     1.194   
   -2.200       0.3527E-2     1.245       0.2181E-2     1.194   
   -2.190       0.3538E-2     1.245       0.2186E-2     1.194   
     -2.1800       0.0035       1.2453       0.0022       1.1946
     -2.1700       0.0036       1.2457       0.0022       1.1948
     -2.1600       0.0036       1.2461       0.0022       1.1950
     -2.1500       0.0036       1.2464       0.0022       1.1952
     -2.1400       0.0036       1.2468       0.0022       1.1954
     -2.1300       0.0036       1.2471       0.0022       1.1957
     -2.1200       0.0036       1.2475       0.0022       1.1959
     -2.1100       0.0036       1.2479       0.0022       1.1961
     -2.1000       0.0036       1.2482       0.0022       1.1963
     -2.0900       0.0036       1.2486       0.0022       1.1965
     -2.0800       0.0037       1.2490       0.0022       1.1968
     -2.0700       0.0037       1.2493       0.0022       1.1970
     -2.0600       0.0037       1.2497       0.0023       1.1972
     -2.0500       0.0037       1.2501       0.0023       1.1974
     -2.0400       0.0037       1.2504       0.0023       1.1977
     -2.0300       0.0037       1.2508       0.0023       1.1979
     -2.0200       0.0037       1.2512       0.0023       1.1981
     -2.0100       0.0037       1.2515       0.0023       1.1984
     -2.0000       0.0038       1.2519       0.0023       1.1986
     -1.9900       0.0038       1.2523       0.0023       1.1988
     -1.9800       0.0038       1.2527       0.0023       1.1990
     -1.9700       0.0038       1.2530       0.0023       1.1993
     -1.9600       0.0038       1.2534       0.0023       1.1995
     -1.9500       0.0038       1.2538       0.0023       1.1997
     -1.9400       0.0038       1.2542       0.0023       1.2000
     -1.9300       0.0038       1.2546       0.0023       1.2002
     -1.9200       0.0039       1.2550       0.0023       1.2004
     -1.9100       0.0039       1.2553       0.0023       1.2007
     -1.9000       0.0039       1.2557       0.0023       1.2009
     -1.8900       0.0039       1.2561       0.0024       1.2011
     -1.8800       0.0039       1.2565       0.0024       1.2014
     -1.8700       0.0039       1.2569       0.0024       1.2016
     -1.8600       0.0039       1.2573       0.0024       1.2018
     -1.8500       0.0039       1.2577       0.0024       1.2021
     -1.8400       0.0040       1.2581       0.0024       1.2023
     -1.8300       0.0040       1.2585       0.0024       1.2026
     -1.8200       0.0040       1.2589       0.0024       1.2028
     -1.8100       0.0040       1.2593       0.0024       1.2030
     -1.8000       0.0040       1.2597       0.0024       1.2033
     -1.7900       0.0040       1.2601       0.0024       1.2035
     -1.7800       0.0040       1.2605       0.0024       1.2038
     -1.7700       0.0040       1.2609       0.0024       1.2040
     -1.7600       0.0041       1.2613       0.0024       1.2042
     -1.7500       0.0041       1.2617       0.0024       1.2045
     -1.7400       0.0041       1.2621       0.0024       1.2047
     -1.7300       0.0041       1.2625       0.0024       1.2050
     -1.7200       0.0041       1.2629       0.0025       1.2052
     -1.7100       0.0041       1.2633       0.0025       1.2055
     -1.7000       0.0041       1.2637       0.0025       1.2057
     -1.6900       0.0042       1.2641       0.0025       1.2059
     -1.6800       0.0042       1.2646       0.0025       1.2062
     -1.6700       0.0042       1.2650       0.0025       1.2064
     -1.6600       0.0042       1.2654       0.0025       1.2067
     -1.6500       0.0042       1.2658       0.0025       1.2069
     -1.6400       0.0042       1.2662       0.0025       1.2072
     -1.6300       0.0042       1.2667       0.0025       1.2074
     -1.6200       0.0043       1.2671       0.0025       1.2077
     -1.6100       0.0043       1.2675       0.0025       1.2079
     -1.6000       0.0043       1.2679       0.0025       1.2082
     -1.5900       0.0043       1.2684       0.0025       1.2085
     -1.5800       0.0043       1.2688       0.0025       1.2087
     -1.5700       0.0043       1.2692       0.0025       1.2090
     -1.5600       0.0043       1.2697       0.0026       1.2092
     -1.5500       0.0044       1.2701       0.0026       1.2095
     -1.5400       0.0044       1.2705       0.0026       1.2097
     -1.5300       0.0044       1.2710       0.0026       1.2100
     -1.5200       0.0044       1.2714       0.0026       1.2102
     -1.5100       0.0044       1.2719       0.0026       1.2105
     -1.5000       0.0044       1.2723       0.0026       1.2108
     -1.4900       0.0044       1.2727       0.0026       1.2110
     -1.4800       0.0045       1.2732       0.0026       1.2113
     -1.4700       0.0045       1.2736       0.0026       1.2115
     -1.4600       0.0045       1.2741       0.0026       1.2118
     -1.4500       0.0045       1.2745       0.0026       1.2121
     -1.4400       0.0045       1.2750       0.0026       1.2123
     -1.4300       0.0045       1.2754       0.0026       1.2126
     -1.4200       0.0046       1.2759       0.0026       1.2129
     -1.4100       0.0046       1.2764       0.0027       1.2131
     -1.4000       0.0046       1.2768       0.0027       1.2134
     -1.3900       0.0046       1.2773       0.0027       1.2137
     -1.3800       0.0046       1.2777       0.0027       1.2139
     -1.3700       0.0046       1.2782       0.0027       1.2142
     -1.3600       0.0047       1.2787       0.0027       1.2145
     -1.3500       0.0047       1.2791       0.0027       1.2147
     -1.3400       0.0047       1.2796       0.0027       1.2150
     -1.3300       0.0047       1.2801       0.0027       1.2153
     -1.3200       0.0047       1.2805       0.0027       1.2155
     -1.3100       0.0047       1.2810       0.0027       1.2158
     -1.3000       0.0048       1.2815       0.0027       1.2161
     -1.2900       0.0048       1.2820       0.0027       1.2164
     -1.2800       0.0048       1.2824       0.0027       1.2166
     -1.2700       0.0048       1.2829       0.0028       1.2169
     -1.2600       0.0048       1.2834       0.0028       1.2172
     -1.2500       0.0048       1.2839       0.0028       1.2175
     -1.2400       0.0049       1.2844       0.0028       1.2177
     -1.2300       0.0049       1.2849       0.0028       1.2180
     -1.2200       0.0049       1.2853       0.0028       1.2183
     -1.2100       0.0049       1.2858       0.0028       1.2186
     -1.2000       0.0049       1.2863       0.0028       1.2189
     -1.1900       0.0050       1.2868       0.0028       1.2191
     -1.1800       0.0050       1.2873       0.0028       1.2194
     -1.1700       0.0050       1.2878       0.0028       1.2197
     -1.1600       0.0050       1.2883       0.0028       1.2200
     -1.1500       0.0050       1.2888       0.0028       1.2203
     -1.1400       0.0051       1.2893       0.0029       1.2205
     -1.1300       0.0051       1.2898       0.0029       1.2208
     -1.1200       0.0051       1.2903       0.0029       1.2211
     -1.1100       0.0051       1.2908       0.0029       1.2214
     -1.1000       0.0051       1.2914       0.0029       1.2217
     -1.0900       0.0051       1.2919       0.0029       1.2220
     -1.0800       0.0052       1.2924       0.0029       1.2223
     -1.0700       0.0052       1.2929       0.0029       1.2226
     -1.0600       0.0052       1.2934       0.0029       1.2229
     -1.0500       0.0052       1.2939       0.0029       1.2232
     -1.0400       0.0052       1.2945       0.0029       1.2234
     -1.0300       0.0053       1.2950       0.0029       1.2237
     -1.0200       0.0053       1.2955       0.0030       1.2240
     -1.0100       0.0053       1.2961       0.0030       1.2243
     -1.0000       0.0053       1.2966       0.0030       1.2246
     -0.9900       0.0054       1.2971       0.0030       1.2249
     -0.9800       0.0054       1.2977       0.0030       1.2252
     -0.9700       0.0054       1.2982       0.0030       1.2255
     -0.9600       0.0054       1.2987       0.0030       1.2258
     -0.9500       0.0054       1.2993       0.0030       1.2261
     -0.9400       0.0055       1.2998       0.0030       1.2264
     -0.9300       0.0055       1.3004       0.0030       1.2267
     -0.9200       0.0055       1.3009       0.0030       1.2270
     -0.9100       0.0055       1.3015       0.0030       1.2273
     -0.9000       0.0055       1.3020       0.0031       1.2276
     -0.8900       0.0056       1.3026       0.0031       1.2279
     -0.8800       0.0056       1.3031       0.0031       1.2282
     -0.8700       0.0056       1.3037       0.0031       1.2286
     -0.8600       0.0056       1.3043       0.0031       1.2289
     -0.8500       0.0057       1.3048       0.0031       1.2292
     -0.8400       0.0057       1.3054       0.0031       1.2295
     -0.8300       0.0057       1.3059       0.0031       1.2298
     -0.8200       0.0057       1.3065       0.0031       1.2301
     -0.8100       0.0057       1.3071       0.0031       1.2304
     -0.8000       0.0058       1.3077       0.0031       1.2307
     -0.7900       0.0058       1.3082       0.0032       1.2310
     -0.7800       0.0058       1.3088       0.0032       1.2314
     -0.7700       0.0058       1.3094       0.0032       1.2317
     -0.7600       0.0059       1.3100       0.0032       1.2320
     -0.7500       0.0059       1.3106       0.0032       1.2323
     -0.7400       0.0059       1.3112       0.0032       1.2326
     -0.7300       0.0059       1.3118       0.0032       1.2330
     -0.7200       0.0060       1.3124       0.0032       1.2333
     -0.7100       0.0060       1.3130       0.0032       1.2336
     -0.7000       0.0060       1.3136       0.0032       1.2339
     -0.6900       0.0060       1.3142       0.0032       1.2342
     -0.6800       0.0061       1.3148       0.0033       1.2346
     -0.6700       0.0061       1.3154       0.0033       1.2349
     -0.6600       0.0061       1.3160       0.0033       1.2352
     -0.6500       0.0061       1.3166       0.0033       1.2355
     -0.6400       0.0062       1.3172       0.0033       1.2359
     -0.6300       0.0062       1.3178       0.0033       1.2362
     -0.6200       0.0062       1.3184       0.0033       1.2365
     -0.6100       0.0062       1.3191       0.0033       1.2369
     -0.6000       0.0063       1.3197       0.0033       1.2372
     -0.5900       0.0063       1.3203       0.0033       1.2375
     -0.5800       0.0063       1.3210       0.0034       1.2379
     -0.5700       0.0064       1.3216       0.0034       1.2382
     -0.5600       0.0064       1.3222       0.0034       1.2385
     -0.5500       0.0064       1.3229       0.0034       1.2389
     -0.5400       0.0064       1.3235       0.0034       1.2392
     -0.5300       0.0065       1.3242       0.0034       1.2396
     -0.5200       0.0065       1.3248       0.0034       1.2399
     -0.5100       0.0065       1.3255       0.0034       1.2402
     -0.5000       0.0066       1.3261       0.0034       1.2406
     -0.4900       0.0066       1.3268       0.0034       1.2409
     -0.4800       0.0066       1.3274       0.0035       1.2413
     -0.4700       0.0066       1.3281       0.0035       1.2416
     -0.4600       0.0067       1.3287       0.0035       1.2420
     -0.4500       0.0067       1.3294       0.0035       1.2423
     -0.4400       0.0067       1.3301       0.0035       1.2427
     -0.4300       0.0068       1.3308       0.0035       1.2430
     -0.4200       0.0068       1.3314       0.0035       1.2434
     -0.4100       0.0068       1.3321       0.0035       1.2437
     -0.4000       0.0069       1.3328       0.0035       1.2441
     -0.3900       0.0069       1.3335       0.0036       1.2444
     -0.3800       0.0069       1.3342       0.0036       1.2448
     -0.3700       0.0069       1.3349       0.0036       1.2451
     -0.3600       0.0070       1.3356       0.0036       1.2455
     -0.3500       0.0070       1.3363       0.0036       1.2459
     -0.3400       0.0070       1.3370       0.0036       1.2462
     -0.3300       0.0071       1.3377       0.0036       1.2466
     -0.3200       0.0071       1.3384       0.0036       1.2469
     -0.3100       0.0071       1.3391       0.0036       1.2473
     -0.3000       0.0072       1.3398       0.0037       1.2477
     -0.2900       0.0072       1.3405       0.0037       1.2480
     -0.2800       0.0072       1.3412       0.0037       1.2484
     -0.2700       0.0073       1.3420       0.0037       1.2488
     -0.2600       0.0073       1.3427       0.0037       1.2491
     -0.2500       0.0073       1.3434       0.0037       1.2495
     -0.2400       0.0074       1.3442       0.0037       1.2499
     -0.2300       0.0074       1.3449       0.0037       1.2503
     -0.2200       0.0074       1.3456       0.0038       1.2506
     -0.2100       0.0075       1.3464       0.0038       1.2510
     -0.2000       0.0075       1.3471       0.0038       1.2514
     -0.1900       0.0076       1.3479       0.0038       1.2518
     -0.1800       0.0076       1.3486       0.0038       1.2521
     -0.1700       0.0076       1.3494       0.0038       1.2525
     -0.1600       0.0077       1.3502       0.0038       1.2529
     -0.1500       0.0077       1.3509       0.0038       1.2533
     -0.1400       0.0077       1.3517       0.0038       1.2537
     -0.1300       0.0078       1.3525       0.0039       1.2541
     -0.1200       0.0078       1.3533       0.0039       1.2544
     -0.1100       0.0079       1.3540       0.0039       1.2548
     -0.1000       0.0079       1.3548       0.0039       1.2552
     -0.0900       0.0079       1.3556       0.0039       1.2556
     -0.0800       0.0080       1.3564       0.0039       1.2560
     -0.0700       0.0080       1.3572       0.0039       1.2564
     -0.0600       0.0081       1.3580       0.0040       1.2568
     -0.0500       0.0081       1.3588       0.0040       1.2572
     -0.0400       0.0081       1.3596       0.0040       1.2576
     -0.0300       0.0082       1.3604       0.0040       1.2580
     -0.0200       0.0082       1.3613       0.0040       1.2584
     -0.0100       0.0083       1.3621       0.0040       1.2588
      0.0000       0.0083       1.3629       0.0040       1.2592
      0.0100       0.0083       1.3637       0.0040       1.2596
      0.0200       0.0084       1.3646       0.0041       1.2600
      0.0300       0.0084       1.3654       0.0041       1.2604
      0.0400       0.0085       1.3663       0.0041       1.2608
      0.0500       0.0085       1.3671       0.0041       1.2612
      0.0600       0.0086       1.3680       0.0041       1.2616
      0.0700       0.0086       1.3688       0.0041       1.2620
      0.0800       0.0086       1.3697       0.0041       1.2625
      0.0900       0.0087       1.3705       0.0042       1.2629
      0.1000       0.0087       1.3714       0.0042       1.2633
      0.1100       0.0088       1.3723       0.0042       1.2637
      0.1200       0.0088       1.3732       0.0042       1.2641
      0.1300       0.0089       1.3741       0.0042       1.2645
      0.1400       0.0089       1.3749       0.0042       1.2650
      0.1500       0.0090       1.3758       0.0042       1.2654
      0.1600       0.0090       1.3767       0.0043       1.2658
      0.1700       0.0091       1.3776       0.0043       1.2662
      0.1800       0.0091       1.3785       0.0043       1.2667
      0.1900       0.0092       1.3795       0.0043       1.2671
      0.2000       0.0092       1.3804       0.0043       1.2675
      0.2100       0.0093       1.3813       0.0043       1.2680
      0.2200       0.0093       1.3822       0.0043       1.2684
      0.2300       0.0094       1.3832       0.0044       1.2688
      0.2400       0.0094       1.3841       0.0044       1.2693
      0.2500       0.0095       1.3850       0.0044       1.2697
      0.2600       0.0095       1.3860       0.0044       1.2701
      0.2700       0.0096       1.3869       0.0044       1.2706
      0.2800       0.0096       1.3879       0.0044       1.2710
      0.2900       0.0097       1.3889       0.0045       1.2715
      0.3000       0.0097       1.3898       0.0045       1.2719
      0.3100       0.0098       1.3908       0.0045       1.2724
      0.3200       0.0098       1.3918       0.0045       1.2728
      0.3300       0.0099       1.3928       0.0045       1.2733
      0.3400       0.0100       1.3938       0.0045       1.2737
      0.3500       0.0100       1.3948       0.0046       1.2742
      0.3600       0.0101       1.3958       0.0046       1.2746
      0.3700       0.0101       1.3968       0.0046       1.2751
      0.3800       0.0102       1.3978       0.0046       1.2755
      0.3900       0.0102       1.3988       0.0046       1.2760
      0.4000       0.0103       1.3998       0.0046       1.2765
      0.4100       0.0104       1.4009       0.0047       1.2769
      0.4200       0.0104       1.4019       0.0047       1.2774
      0.4300       0.0105       1.4029       0.0047       1.2779
      0.4400       0.0105       1.4040       0.0047       1.2783
      0.4500       0.0106       1.4050       0.0047       1.2788
      0.4600       0.0107       1.4061       0.0047       1.2793
      0.4700       0.0107       1.4072       0.0048       1.2798
      0.4800       0.0108       1.4082       0.0048       1.2802
      0.4900       0.0109       1.4093       0.0048       1.2807
      0.5000       0.0109       1.4104       0.0048       1.2812
      0.5100       0.0110       1.4115       0.0048       1.2817
      0.5200       0.0111       1.4126       0.0048       1.2822
      0.5300       0.0111       1.4137       0.0049       1.2826
      0.5400       0.0112       1.4148       0.0049       1.2831
      0.5500       0.0113       1.4159       0.0049       1.2836
      0.5600       0.0113       1.4171       0.0049       1.2841
      0.5700       0.0114       1.4182       0.0049       1.2846
      0.5800       0.0115       1.4193       0.0050       1.2851
      0.5900       0.0115       1.4205       0.0050       1.2856
      0.6000       0.0116       1.4216       0.0050       1.2861
      0.6100       0.0117       1.4228       0.0050       1.2866
      0.6200       0.0118       1.4240       0.0050       1.2871
      0.6300       0.0118       1.4252       0.0051       1.2876
      0.6400       0.0119       1.4263       0.0051       1.2881
      0.6500       0.0120       1.4275       0.0051       1.2886
      0.6600       0.0121       1.4287       0.0051       1.2891
      0.6700       0.0121       1.4299       0.0051       1.2896
      0.6800       0.0122       1.4312       0.0052       1.2901
      0.6900       0.0123       1.4324       0.0052       1.2907
      0.7000       0.0124       1.4336       0.0052       1.2912
      0.7100       0.0125       1.4348       0.0052       1.2917
      0.7200       0.0125       1.4361       0.0052       1.2922
      0.7300       0.0126       1.4373       0.0053       1.2927
      0.7400       0.0127       1.4386       0.0053       1.2933
      0.7500       0.0128       1.4399       0.0053       1.2938
      0.7600       0.0129       1.4412       0.0053       1.2943
      0.7700       0.0130       1.4425       0.0053       1.2949
      0.7800       0.0130       1.4437       0.0054       1.2954
      0.7900       0.0131       1.4451       0.0054       1.2959
      0.8000       0.0132       1.4464       0.0054       1.2965
      0.8100       0.0133       1.4477       0.0054       1.2970
      0.8200       0.0134       1.4490       0.0054       1.2975
      0.8300       0.0135       1.4504       0.0055       1.2981
      0.8400       0.0136       1.4517       0.0055       1.2986
      0.8500       0.0137       1.4531       0.0055       1.2992
      0.8600       0.0138       1.4544       0.0055       1.2997
      0.8700       0.0139       1.4558       0.0056       1.3003
      0.8800       0.0140       1.4572       0.0056       1.3009
      0.8900       0.0141       1.4586       0.0056       1.3014
      0.9000       0.0142       1.4600       0.0056       1.3020
      0.9100       0.0143       1.4614       0.0056       1.3025
      0.9200       0.0144       1.4629       0.0057       1.3031
      0.9300       0.0145       1.4643       0.0057       1.3037
      0.9400       0.0146       1.4657       0.0057       1.3042
      0.9500       0.0147       1.4672       0.0057       1.3048
      0.9600       0.0148       1.4687       0.0058       1.3054
      0.9700       0.0149       1.4701       0.0058       1.3060
      0.9800       0.0150       1.4716       0.0058       1.3065
      0.9900       0.0151       1.4731       0.0058       1.3071
      1.0000       0.0152       1.4746       0.0059       1.3077
      1.0100       0.0153       1.4762       0.0059       1.3083
      1.0200       0.0154       1.4777       0.0059       1.3089
      1.0300       0.0156       1.4792       0.0059       1.3095
      1.0400       0.0157       1.4808       0.0060       1.3101
      1.0500       0.0158       1.4824       0.0060       1.3107
      1.0600       0.0159       1.4840       0.0060       1.3113
      1.0700       0.0160       1.4855       0.0060       1.3119
      1.0800       0.0162       1.4872       0.0061       1.3125
      1.0900       0.0163       1.4888       0.0061       1.3131
      1.1000       0.0164       1.4904       0.0061       1.3137
      1.1100       0.0165       1.4920       0.0061       1.3143
      1.1200       0.0167       1.4937       0.0062       1.3149
      1.1300       0.0168       1.4954       0.0062       1.3155
      1.1400       0.0169       1.4970       0.0062       1.3162
      1.1500       0.0171       1.4987       0.0063       1.3168
      1.1600       0.0172       1.5004       0.0063       1.3174
      1.1700       0.0173       1.5022       0.0063       1.3180
      1.1800       0.0175       1.5039       0.0063       1.3187
      1.1900       0.0176       1.5056       0.0064       1.3193
      1.2000       0.0178       1.5074       0.0064       1.3199
      1.2100       0.0179       1.5092       0.0064       1.3206
      1.2200       0.0180       1.5110       0.0064       1.3212
      1.2300       0.0182       1.5128       0.0065       1.3219
      1.2400       0.0183       1.5146       0.0065       1.3225
      1.2500       0.0185       1.5164       0.0065       1.3232
      1.2600       0.0187       1.5183       0.0066       1.3238
      1.2700       0.0188       1.5202       0.0066       1.3245
      1.2800       0.0190       1.5220       0.0066       1.3251
      1.2900       0.0191       1.5239       0.0067       1.3258
      1.3000       0.0193       1.5258       0.0067       1.3265
      1.3100       0.0195       1.5278       0.0067       1.3271
      1.3200       0.0196       1.5297       0.0067       1.3278
      1.3300       0.0198       1.5317       0.0068       1.3285
      1.3400       0.0200       1.5337       0.0068       1.3292
      1.3500       0.0202       1.5357       0.0068       1.3298
      1.3600       0.0203       1.5377       0.0069       1.3305
      1.3700       0.0205       1.5397       0.0069       1.3312
      1.3800       0.0207       1.5418       0.0069       1.3319
      1.3900       0.0209       1.5438       0.0070       1.3326
      1.4000       0.0211       1.5459       0.0070       1.3333
      1.4100       0.0213       1.5480       0.0070       1.3340
      1.4200       0.0215       1.5502       0.0071       1.3347
      1.4300       0.0217       1.5523       0.0071       1.3354
      1.4400       0.0219       1.5545       0.0071       1.3361
      1.4500       0.0221       1.5567       0.0072       1.3368
      1.4600       0.0223       1.5589       0.0072       1.3375
      1.4700       0.0225       1.5611       0.0072       1.3383
      1.4800       0.0227       1.5633       0.0073       1.3390
      1.4900       0.0229       1.5656       0.0073       1.3397
      1.5000       0.0231       1.5679       0.0073       1.3404
      1.5100       0.0234       1.5702       0.0074       1.3412
      1.5200       0.0236       1.5725       0.0074       1.3419
      1.5300       0.0238       1.5749       0.0074       1.3427
      1.5400       0.0241       1.5773       0.0075       1.3434
      1.5500       0.0243       1.5797       0.0075       1.3442
      1.5600       0.0245       1.5821       0.0076       1.3449
      1.5700       0.0248       1.5846       0.0076       1.3457
      1.5800       0.0250       1.5870       0.0076       1.3464
      1.5900       0.0253       1.5895       0.0077       1.3472
      1.6000       0.0255       1.5921       0.0077       1.3480
      1.6100       0.0258       1.5946       0.0077       1.3487
      1.6200       0.0261       1.5972       0.0078       1.3495
      1.6300       0.0264       1.5998       0.0078       1.3503
      1.6400       0.0266       1.6024       0.0079       1.3511
      1.6500       0.0269       1.6051       0.0079       1.3519
      1.6600       0.0272       1.6078       0.0079       1.3526
      1.6700       0.0275       1.6105       0.0080       1.3534
      1.6800       0.0278       1.6133       0.0080       1.3542
      1.6900       0.0281       1.6160       0.0081       1.3550
      1.7000       0.0284       1.6188       0.0081       1.3559
      1.7100       0.0287       1.6217       0.0081       1.3567
      1.7200       0.0290       1.6245       0.0082       1.3575
      1.7300       0.0294       1.6274       0.0082       1.3583
      1.7400       0.0297       1.6304       0.0083       1.3591
      1.7500       0.0300       1.6333       0.0083       1.3600
      1.7600       0.0304       1.6363       0.0084       1.3608
      1.7700       0.0307       1.6394       0.0084       1.3616
      1.7800       0.0311       1.6425       0.0084       1.3625
      1.7900       0.0315       1.6456       0.0085       1.3633
      1.8000       0.0318       1.6487       0.0085       1.3642
      1.8100       0.0322       1.6519       0.0086       1.3650
      1.8200       0.0326       1.6551       0.0086       1.3659
      1.8300       0.0330       1.6583       0.0087       1.3667
      1.8400       0.0334       1.6616       0.0087       1.3676
      1.8500       0.0338       1.6650       0.0088       1.3685
      1.8600       0.0343       1.6683       0.0088       1.3694
      1.8700       0.0347       1.6718       0.0089       1.3702
      1.8800       0.0351       1.6752       0.0089       1.3711
      1.8900       0.0356       1.6787       0.0090       1.3720
      1.9000       0.0361       1.6823       0.0090       1.3729
      1.9100       0.0365       1.6859       0.0091       1.3738
      1.9200       0.0370       1.6895       0.0091       1.3747
      1.9300       0.0375       1.6932       0.0092       1.3756
      1.9400       0.0380       1.6969       0.0092       1.3766
      1.9500       0.0385       1.7007       0.0093       1.3775
      1.9600       0.0391       1.7046       0.0093       1.3784
      1.9700       0.0396       1.7084       0.0094       1.3793
      1.9800       0.0401       1.7124       0.0094       1.3803
      1.9900       0.0407       1.7164       0.0095       1.3812
      2.0000       0.0413       1.7204       0.0095       1.3822
      2.0100       0.0419       1.7245       0.0096       1.3831
      2.0200       0.0425       1.7287       0.0096       1.3841
      2.0300       0.0431       1.7329       0.0097       1.3850
      2.0400       0.0438       1.7372       0.0098       1.3860
      2.0500       0.0444       1.7416       0.0098       1.3870
      2.0600       0.0451       1.7460       0.0099       1.3880
      2.0700       0.0458       1.7505       0.0099       1.3890
      2.0800       0.0465       1.7550       0.0100       1.3900
     2.09000      0.04727      1.75966      0.01004      1.39096
     2.10000      0.04802      1.76435      0.01010      1.39196
     2.11000      0.04880      1.76911      0.01016      1.39297
     2.12000      0.04960      1.77395      0.01022      1.39399
     2.13000      0.05043      1.77887      0.01028      1.39501
     2.14000      0.05128      1.78387      0.01034      1.39604
     2.15000      0.05215      1.78895      0.01040      1.39708
     2.16000      0.05306      1.79412      0.01047      1.39812
     2.17000      0.05399      1.79937      0.01053      1.39917
     2.18000      0.05495      1.80471      0.01060      1.40022
     2.19000      0.05594      1.81014      0.01066      1.40128
     2.20000      0.05697      1.81567      0.01073      1.40235
     2.21000      0.05803      1.82130      0.01079      1.40342
     2.22000      0.05913      1.82702      0.01086      1.40450
     2.23000      0.06027      1.83285      0.01093      1.40559
     2.24000      0.06145      1.83879      0.01099      1.40668
     2.25000      0.06267      1.84484      0.01106      1.40778
     2.26000      0.06394      1.85101      0.01113      1.40889
     2.27000      0.06526      1.85729      0.01120      1.41000
     2.28000      0.06663      1.86370      0.01127      1.41113
     2.29000      0.06806      1.87023      0.01135      1.41225
     2.30000      0.06954      1.87689      0.01142      1.41339
     2.31000      0.07109      1.88370      0.01149      1.41453
     2.32000      0.07271      1.89064      0.01157      1.41568
     2.33000      0.07440      1.89773      0.01164      1.41684
     2.34000      0.07617      1.90497      0.01172      1.41801
     2.35000      0.07802      1.91237      0.01179      1.41918
     2.36000      0.07996      1.91993      0.01187      1.42036
     2.37000      0.08201      1.92766      0.01195      1.42155
     2.38000      0.08415      1.93557      0.01203      1.42274
     2.39000      0.08642      1.94367      0.01211      1.42395
     2.40000      0.08880      1.95195      0.01219      1.42516
     2.41000      0.09133      1.96043      0.01227      1.42638
     2.42000      0.09400      1.96912      0.01235      1.42761
     2.43000      0.09684      1.97803      0.01244      1.42884
     2.44000      0.09985      1.98715      0.01252      1.43009
     2.45000      0.10306      1.99651      0.01261      1.43134
     2.46000      0.10650      2.00611      0.01269      1.43260
     2.47000      0.11017      2.01595      0.01278      1.43387
     2.48000      0.11411      2.02605      0.01287      1.43515
     2.49000      0.11835      2.03641      0.01296      1.43644
     2.50000      0.12293      2.04705      0.01305      1.43774
     2.51000      0.12788      2.05795      0.01314      1.43904
     2.52000      0.13325      2.06913      0.01323      1.44036
     2.53000      0.13909      2.08058      0.01333      1.44168
     2.54000      0.14547      2.09229      0.01342      1.44302
     2.55000      0.15245      2.10426      0.01352      1.44436
     2.56000      0.16011      2.11645      0.01362      1.44571
     2.57000      0.16854      2.12883      0.01371      1.44708
     2.58000      0.17785      2.14135      0.01381      1.44845
     2.59000      0.18814      2.15392      0.01391      1.44983
     2.60000      0.19953      2.16645      0.01402      1.45122
     2.61000      0.21215      2.17878      0.01412      1.45263
     2.62000      0.22612      2.19071      0.01422      1.45404
     2.63000      0.24154      2.20198      0.01433      1.45546
     2.64000      0.25848      2.21226      0.01444      1.45690
     2.65000      0.27696      2.22113      0.01455      1.45834
     2.66000      0.29687      2.22811      0.01466      1.45980
     2.67000      0.31796      2.23262      0.01477      1.46126
     2.68000      0.33976      2.23411      0.01488      1.46274
     2.69000      0.36154      2.23209      0.01499      1.46423
     2.70000      0.38232      2.22623      0.01511      1.46573
     2.71000      0.40091      2.21658      0.01523      1.46724
     2.72000      0.41606      2.20361      0.01534      1.46877
     2.73000      0.42667      2.18830      0.01546      1.47030
     2.74000      0.43203      2.17204      0.01559      1.47185
     2.75000      0.43200      2.15641      0.01571      1.47341
     2.76000      0.42701      2.14289      0.01583      1.47498
     2.77000      0.41793      2.13270      0.01596      1.47656
     2.78000      0.40593      2.12658      0.01609      1.47816
     2.79000      0.39219      2.12484      0.01622      1.47977
     2.80000      0.37781      2.12742      0.01635      1.48139
     2.81000      0.36369      2.13399      0.01648      1.48303
     2.82000      0.35047      2.14406      0.01662      1.48468
     2.83000      0.33858      2.15712      0.01676      1.48634
     2.84000      0.32825      2.17265      0.01690      1.48801
     2.85000      0.31961      2.19021      0.01704      1.48970
     2.86000      0.31264      2.20941      0.01718      1.49141
     2.87000      0.30731      2.22997      0.01733      1.49313
     2.88000      0.30353      2.25165      0.01747      1.49486
     2.89000      0.30120      2.27427      0.01762      1.49661
     2.90000      0.30024      2.29773      0.01777      1.49837
     2.91000      0.30055      2.32195      0.01793      1.50015
     2.92000      0.30206      2.34687      0.01808      1.50194
     2.93000      0.30470      2.37247      0.01824      1.50375
     2.94000      0.30842      2.39874      0.01840      1.50557
     2.95000      0.31319      2.42570      0.01856      1.50741
     2.96000      0.31897      2.45337      0.01873      1.50927
     2.97000      0.32576      2.48177      0.01890      1.51114
     2.98000      0.33354      2.51095      0.01907      1.51303
     2.99000      0.34234      2.54095      0.01924      1.51494
     3.00000      0.35216      2.57183      0.01942      1.51686
     3.01000      0.36305      2.60362      0.01959      1.51880
     3.02000      0.37503      2.63641      0.01978      1.52076
     3.03000      0.38818      2.67024      0.01996      1.52274
     3.04000      0.40254      2.70520      0.02015      1.52474
     3.05000      0.41820      2.74135      0.02034      1.52675
     3.06000      0.43525      2.77878      0.02053      1.52878
     3.07000      0.45379      2.81755      0.02073      1.53083
     3.08000      0.47395      2.85777      0.02092      1.53291
     3.09000      0.49585      2.89952      0.02113      1.53500
     3.10000      0.51966      2.94290      0.02133      1.53711
     3.11000      0.54557      2.98800      0.02154      1.53924
     3.12000      0.57377      3.03493      0.02175      1.54139
     3.13000      0.60450      3.08380      0.02197      1.54357
     3.14000      0.63803      3.13472      0.02219      1.54576
     3.15000      0.67466      3.18780      0.02241      1.54798
     3.16000      0.71474      3.24314      0.02264      1.55022
     3.17000      0.75868      3.30086      0.02287      1.55248
     3.18000      0.80693      3.36107      0.02311      1.55477
     3.19000      0.86001      3.42384      0.02335      1.55708
     3.20000      0.91854      3.48927      0.02359      1.55941
     3.21000      0.98321      3.55738      0.02384      1.56177
     3.22000      1.05482      3.62819      0.02409      1.56415
     3.23000      1.13430      3.70166      0.02435      1.56655
     3.24000      1.22270      3.77766      0.02461      1.56899
     3.25000      1.32128      3.85596      0.02487      1.57144
     3.26000      1.43142      3.93618      0.02515      1.57393
     3.27000      1.55476      4.01774      0.02542      1.57644
     3.28000      1.69313      4.09979      0.02570      1.57898
     3.29000      1.84861      4.18112      0.02599      1.58155
     3.30000      2.02350      4.26002      0.02628      1.58414
     3.31000      2.22034      4.33416      0.02658      1.58676
     3.32000      2.44175      4.40036      0.02688      1.58942
     3.33000      2.69039      4.45437      0.02719      1.59210
     3.34000      2.96864      4.49060      0.02751      1.59482
     3.35000      3.27825      4.50188      0.02783      1.59756
     3.36000      3.61962      4.47920      0.02816      1.60034
     3.37000      3.99108      4.41172      0.02849      1.60315
     3.38000      4.38764      4.28701      0.02884      1.60599
     3.39000      4.79974      4.09199      0.02918      1.60887
     3.40000      5.21211      3.81464      0.02954      1.61178
     3.41000      5.60319      3.44667      0.02990      1.61473
     3.42000      5.94613      2.98690      0.03027      1.61771
     3.43000      6.21173      2.44449      0.03065      1.62073
     3.44000      6.37349      1.84046      0.03104      1.62379
     3.45000      6.41351      1.20632      0.03143      1.62688
     3.46000      6.32714      0.57914      0.03184      1.63002
    3.470        6.124       -.5327E-2    0.3225E-1     1.633   
     3.48000      5.82669     -0.51906      0.03267      1.63641
     3.49000      5.46252     -0.94541      0.03310      1.63966
     3.50000      5.06061     -1.27936      0.03354      1.64296
     3.51000      4.64606     -1.52511      0.03400      1.64630
     3.52000      4.23814     -1.69271      0.03446      1.64969
     3.53000      3.84991     -1.79482      0.03493      1.65312
     3.54000      3.48908     -1.84445      0.03541      1.65660
     3.55000      3.15927     -1.85349      0.03591      1.66013
     3.56000      2.86126     -1.83212      0.03641      1.66371
     3.57000      2.59406     -1.78866      0.03693      1.66733
     3.58000      2.35563     -1.72968      0.03746      1.67101
     3.59000      2.14345     -1.66022      0.03801      1.67474
     3.60000      1.95485     -1.58412      0.03856      1.67852
     3.61000      1.78723     -1.50421      0.03914      1.68235
     3.62000      1.63812     -1.42258      0.03972      1.68625
     3.63000      1.50534     -1.34076      0.04032      1.69020
     3.64000      1.38684     -1.25978      0.04094      1.69421
     3.65000      1.28092     -1.18041      0.04157      1.69828
     3.66000      1.18598     -1.10313      0.04222      1.70241
     3.67000      1.10073     -1.02828      0.04289      1.70661
     3.68000      1.02396     -0.95602      0.04357      1.71087
     3.69000      0.95469     -0.88648      0.04428      1.71519
     3.70000      0.89201     -0.81966      0.04500      1.71959
     3.71000      0.83518     -0.75555      0.04574      1.72406
     3.72000      0.78351     -0.69409      0.04651      1.72860
     3.73000      0.73645     -0.63520      0.04729      1.73321
     3.74000      0.69348     -0.57878      0.04810      1.73791
     3.75000      0.65416     -0.52475      0.04893      1.74268
     3.76000      0.61811     -0.47298      0.04979      1.74753
     3.77000      0.58499     -0.42337      0.05067      1.75246
     3.78000      0.55450     -0.37581      0.05158      1.75748
     3.79000      0.52639     -0.33021      0.05252      1.76259
     3.80000      0.50042     -0.28644      0.05349      1.76779
     3.81000      0.47638     -0.24443      0.05448      1.77308
     3.82000      0.45410     -0.20406      0.05551      1.77847
     3.83000      0.43342     -0.16526      0.05657      1.78396
     3.84000      0.41419     -0.12794      0.05767      1.78955
     3.85000      0.39629     -0.09201      0.05880      1.79525
     3.86000      0.37959     -0.05741      0.05997      1.80106
     3.87000      0.36401     -0.02406      0.06118      1.80698
      3.8800       0.3494       0.0081       0.0624       1.8130
     3.89000      0.33580      0.03916      0.06372      1.81917
     3.90000      0.32301      0.06916      0.06506      1.82545
     3.91000      0.31102      0.09815      0.06645      1.83186
     3.92000      0.29976      0.12618      0.06788      1.83840
     3.93000      0.28917      0.15332      0.06937      1.84508
     3.94000      0.27921      0.17961      0.07092      1.85190
     3.95000      0.26983      0.20509      0.07252      1.85886
     3.96000      0.26099      0.22980      0.07419      1.86598
     3.97000      0.25265      0.25378      0.07592      1.87326
     3.98000      0.24477      0.27707      0.07771      1.88070
     3.99000      0.23733      0.29971      0.07958      1.88831
     4.00000      0.23030      0.32171      0.08153      1.89610
     4.01000      0.22364      0.34313      0.08356      1.90407
     4.02000      0.21734      0.36398      0.08567      1.91223
     4.03000      0.21138      0.38429      0.08787      1.92059
     4.04000      0.20573      0.40409      0.09016      1.92916
     4.05000      0.20037      0.42341      0.09256      1.93793
     4.06000      0.19529      0.44226      0.09506      1.94693
     4.07000      0.19047      0.46068      0.09768      1.95617
    4.080000     0.185896     0.478671     0.100416     1.965640
    4.090001     0.181554     0.496266     0.103283     1.975367
    4.100000     0.177432     0.513478     0.106285     1.985354
    4.110001     0.173517     0.530330     0.109434     1.995618
    4.120000     0.169800     0.546835     0.112738     2.006166
    4.130001     0.166269     0.563013     0.116209     2.017015
    4.140000     0.162916     0.578876     0.119858     2.028176
    4.150001     0.159733     0.594443     0.123697     2.039666
    4.160000     0.156711     0.609725     0.127740     2.051496
    4.170001     0.153842     0.624738     0.132002     2.063688
    4.180000     0.151121     0.639493     0.136499     2.076254
    4.190001     0.148539     0.654007     0.141251     2.089216
    4.200000     0.146094     0.668286     0.146274     2.102591
    4.210001     0.143777     0.682347     0.151593     2.116403
    4.219999     0.141585     0.696197     0.157229     2.130669
    4.230000     0.139512     0.709851     0.163210     2.145417
    4.239999     0.137555     0.723316     0.169563     2.160669
    4.250000     0.135710     0.736606     0.176323     2.176454
    4.259999     0.133973     0.749726     0.183521     2.192797
    4.270000     0.132341     0.762690     0.191199     2.209732
    4.280001     0.130810     0.775506     0.199401     2.227287
    4.290000     0.129379     0.788180     0.208172     2.245495
    4.300001     0.128045     0.800726     0.217570     2.264396
    4.310000     0.126806     0.813148     0.227652     2.284022
    4.320001     0.125659     0.825458     0.238489     2.304418
    4.330000     0.124604     0.837661     0.250154     2.325621
    4.340001     0.123639     0.849769     0.262736     2.347679
    4.350000     0.122763     0.861786     0.276328     2.370633
    4.360001     0.121975     0.873724     0.291044     2.394536
    4.370000     0.121275     0.885587     0.307002     2.419429
    4.380001     0.120662     0.897387     0.324349     2.445368
    4.390000     0.120136     0.909127     0.343240     2.472394
    4.400001     0.119698     0.920819     0.363862     2.500562
    4.410000     0.119348     0.932468     0.386420     2.529907
    4.420001     0.119087     0.944083     0.411158     2.560476
    4.430000     0.118916     0.955671     0.438344     2.592288
    4.440001     0.118836     0.967242     0.468301     2.625371
    4.450000     0.118850     0.978800     0.501381     2.659708
    4.460001     0.118959     0.990357     0.538012     2.695281
    4.470000     0.119166     1.001918     0.578658     2.732007
    4.480000     0.119475     1.013494     0.623881     2.769778
    4.490000     0.119888     1.025091     0.674290     2.808385
    4.500000     0.120410     1.036720     0.730610     2.847548
    4.510000     0.121045     1.048387     0.793619     2.886830
    4.520000     0.121799     1.060104     0.864219     2.925646
    4.530000     0.122677     1.071877     0.943342     2.963154
    4.540000     0.123686     1.083719     1.032014     2.998243
    4.550000     0.124834     1.095637     1.131196     3.029407
    4.560000     0.126130     1.107643     1.241809     3.054705
    4.570000     0.127582     1.119746     1.364458     3.071653
    4.580000     0.129203     1.131959     1.499374     3.077214
    4.590000     0.131004     1.144290     1.645974     3.067809
    4.600000     0.133000     1.156754     1.802720     3.039490
    4.610000     0.135206     1.169358     1.966630     2.988295
    4.620000     0.137640     1.182120     2.133311     2.910762
    4.630001     0.140323     1.195049     2.296900     2.804664
    4.640000     0.143277     1.208155     2.450656     2.669648
    4.650001     0.146530     1.221456     2.587910     2.507452
    4.660000     0.150110     1.234957     2.702830     2.321826
    4.670001     0.154054     1.248677     2.791184     2.117554
    4.680000     0.158398     1.262620     2.850139     1.899846
    4.690001     0.163189     1.276801     2.877801     1.673633
    4.700000     0.168478     1.291222     2.872610     1.444077
    4.710001     0.174325     1.305891     2.833397     1.216894
    4.720000     0.180795     1.320803     2.760118     0.999005
    4.730001     0.187968     1.335954     2.654774     0.797845
    4.740000     0.195929     1.351324     2.522026     0.620499
    4.750001     0.204782     1.366889     2.368724     0.472118
    4.760000     0.214635     1.382599     2.202986     0.355267
    4.770001     0.225618     1.398390     2.032688     0.269635
    4.780000     0.237862     1.414160     1.864624     0.212749
    4.790001     0.251517     1.429778     1.703764     0.180725
    4.800000     0.266724     1.445053     1.553410     0.169175
    4.810000     0.283624     1.459743     1.415249     0.173779
    4.820000     0.302318     1.473522     1.289912     0.190668
    4.830000     0.322863     1.485990     1.177162     0.216580
    4.840000     0.345201     1.496658     1.076362     0.248865
    4.850000     0.369143     1.504976     0.986553     0.285460
    4.860000     0.394277     1.510368     0.906732     0.324766
    4.870000     0.419954     1.512322     0.835838     0.365602
    4.880000     0.445241     1.510514     0.772907     0.407069
    4.890000     0.469014     1.504955     0.717011     0.448532
    4.900000     0.490078     1.496130     0.667347     0.489510
    4.910000     0.507431     1.485036     0.623169     0.529678
    4.920000     0.520504     1.473099     0.583843     0.568782
    4.930000     0.529368     1.461913     0.548777     0.606664
    4.940000     0.534748     1.452942     0.517465     0.643193
    4.950000     0.537890     1.447219     0.489424     0.678299
    4.960000     0.540300     1.445213     0.464225     0.711931
    4.970000     0.543496     1.446810     0.441448     0.744094
    4.980000     0.548813     1.451417     0.420717     0.774822
    4.990000     0.557303     1.458088     0.401678     0.804215
    5.000001     0.569698     1.465635     0.384037     0.832408
    5.010000     0.586396     1.472703     0.367567     0.859571
    5.020001     0.607455     1.477821     0.352107     0.885896
    5.030000     0.632531     1.479439     0.337576     0.911542
    5.040001     0.660830     1.476000     0.323932     0.936652
    5.050000     0.690998     1.466074     0.311174     0.961306
    5.060001     0.721109     1.448559     0.299297     0.985562
    5.070000     0.748686     1.422982     0.288298     1.009434
    5.080001     0.770968     1.389776     0.278155     1.032934
    5.090000     0.785292     1.350492     0.268842     1.056052
    5.100001     0.789659     1.307703     0.260314     1.078792
    5.110000     0.783184     1.264683     0.252530     1.101146
    5.120001     0.766312     1.224753     0.245439     1.123129
    5.130000     0.740671     1.190722     0.238996     1.144742
    5.140001     0.708620     1.164431     0.233153     1.166006
    5.150000     0.672752     1.146690     0.227870     1.186932
    5.160001     0.635427     1.137400     0.223107     1.207548
    5.170000     0.598568     1.135852     0.218830     1.227867
    5.180001     0.563538     1.141003     0.215006     1.247919
    5.190000     0.531224     1.151712     0.211610     1.267721
    5.200001     0.502093     1.166887     0.208617     1.287304
    5.210000     0.476335     1.185561     0.206006     1.306685
    5.220001     0.453930     1.206936     0.203759     1.325894
    5.230000     0.434752     1.230365     0.201860     1.344948
    5.240001     0.418601     1.255359     0.200298     1.363878
    5.250000     0.405264     1.281539     0.199062     1.382698
    5.260001     0.394517     1.308643     0.198144     1.401439
    5.270000     0.386162     1.336471     0.197538     1.420116
    5.280000     0.380015     1.364904     0.197242     1.438758
    5.289999     0.375923     1.393850     0.197253     1.457379
    5.300000     0.373760     1.423275     0.197572     1.476007
    5.309999     0.373427     1.453151     0.198204     1.494655
    5.320000     0.374852     1.483491     0.199153     1.513351
    5.329999     0.377988     1.514301     0.200428     1.532106
    5.340000     0.382813     1.545621     0.202039     1.550946
    5.349999     0.389328     1.577474     0.203999     1.569882
    5.360000     0.397559     1.609911     0.206325     1.588935
    5.370001     0.407554     1.642968     0.209038     1.608115
    5.380000     0.419379     1.676679     0.212159     1.627431
    5.390001     0.433129     1.711093     0.215716     1.646894
    5.400000     0.448911     1.746229     0.219737     1.666501
    5.410001     0.466863     1.782123     0.224257     1.686253
    5.420000     0.487129     1.818780     0.229308     1.706129
    5.430001     0.509882     1.856219     0.234925     1.726111
    5.440000     0.535301     1.894428     0.241138     1.746155
    5.450001     0.563595     1.933420     0.247970     1.766214
    5.460000     0.594983     1.973188     0.255425     1.786211
    5.470001     0.629742     2.013754     0.263488     1.806071
    5.480000     0.668189     2.055123     0.272101     1.825697
    5.490001     0.710742     2.097313     0.281165     1.845011
    5.500000     0.757897     2.140280     0.290523     1.863954
    5.510001     0.810284     2.183935     0.299980     1.882534
    5.520000     0.868602     2.228056     0.309311     1.900835
    5.530001     0.933684     2.272313     0.318314     1.919051
    5.540000     1.006409     2.316182     0.326848     1.937459
    5.550001     1.087791     2.358969     0.334885     1.956406
    5.560000     1.178879     2.399687     0.342513     1.976227
    5.570001     1.280849     2.437030     0.349929     1.997223
    5.580000     1.394814     2.469199     0.357391     2.019604
    5.590001     1.521837     2.493829     0.365187     2.043512
    5.600000     1.662565     2.507849     0.373596     2.069007
    5.610001     1.817096     2.507475     0.382881     2.096115
    5.620000     1.984417     2.488270     0.393274     2.124815
    5.630001     2.162180     2.445416     0.404993     2.155089
    5.639999     2.346116     2.374260     0.418229     2.186894
    5.650001     2.530100     2.271043     0.433170     2.220212
    5.659999     2.706182     2.133968     0.449989     2.255007
    5.670001     2.865647     1.963935     0.468877     2.291279
    5.679999     3.000144     1.765088     0.490025     2.329013
    5.690001     3.103362     1.544134     0.513658     2.368228
    5.699999     3.171858     1.309309     0.540019     2.408922
    5.710001     3.205237     1.068468     0.569405     2.451117
    5.719999     3.205140     0.828153     0.602139     2.494804
    5.730000     3.173942     0.592962     0.638619     2.539984
    5.740001     3.113687     0.366418     0.679290     2.586614
    5.750000     3.025855     0.151878     0.724663     2.634611
     5.76000      2.91189     -0.04680      0.77535      2.68386
    5.770000     2.774279    -0.224970     0.832030     2.734143
    5.780001     2.617065    -0.378244     0.895491     2.785165
    5.790000     2.446023    -0.503276     0.966595     2.836462
    5.800001     2.267721    -0.598777     1.046338     2.887423
    5.810000     2.088735    -0.665540     1.135750     2.937164
    5.820001     1.914545    -0.706181     1.235971     2.984537
    5.830000     1.749309    -0.724377     1.348087     3.027991
    5.840001     1.595568    -0.724231     1.473181     3.065563
    5.850000     1.454661    -0.709724     1.612078     3.094758
    5.860001     1.326839    -0.684409     1.765362     3.112547
    5.870000     1.211773    -0.651286     1.933013     3.115312
    5.880001     1.108643    -0.612761     2.114399     3.098877
    5.890000     1.016494    -0.570734     2.307786     3.058557
    5.900001     0.934232    -0.526632     2.510246     2.989247
    5.910000     0.860828    -0.481543     2.716958     2.885744
    5.920001     0.795260    -0.436240     2.920964     2.743214
    5.930000     0.736637    -0.391300     3.112554     2.558344
    5.940001     0.684117    -0.347106     3.279676     2.330630
    5.950000     0.636988    -0.303940     3.408804     2.064211
    5.960001     0.594593    -0.261961     3.487333     1.768592
    5.970000     0.556384    -0.221289     3.506261     1.458643
    5.980000     0.521856    -0.181965     3.462748     1.152158
    5.990000     0.490595    -0.144017     3.361051     0.866976
    6.000000     0.462219    -0.107427     3.211453     0.617337
     6.01000      0.43641     -0.07218      3.02787      0.41218
     6.02000      0.41288     -0.03823      2.82479      0.25450
    6.030       0.3914       -.5529E-2     2.615       0.1426   
     6.04000      0.37172      0.02597      2.40897      0.07158
     6.05000      0.35369      0.05632      2.21321      0.03515
     6.06000      0.33712      0.08559      2.03200      0.02666
     6.07000      0.32187      0.11381      1.86743      0.04002
     6.08000      0.30781      0.14106      1.71998      0.06998
    6.089999     0.294837     0.167373     1.589311     0.112216
    6.100000     0.282840     0.192813     1.474407     0.163350
    6.110001     0.271734     0.217424     1.374078     0.220764
    6.120000     0.261442     0.241249     1.287041     0.282482
    6.130001     0.251890     0.264340     1.212003     0.347072
    6.140000     0.243018     0.286732     1.147820     0.413465
    6.150001     0.234768     0.308471     1.093431     0.480938
    6.160000     0.227092     0.329588     1.047948     0.548958
    6.170001     0.219944     0.350127     1.010593     0.617209
    6.180000     0.213284     0.370115     0.980750     0.685457
    6.190001     0.207074     0.389589     0.957910     0.753606
    6.200000     0.201285     0.408575     0.941703     0.821581
    6.210001     0.195884     0.427107     0.931860     0.889393
    6.220000     0.190846     0.445206     0.928232     0.957039
    6.230001     0.186147     0.462904     0.930774     1.024565
    6.240000     0.181766     0.480219     0.939544     1.091975
    6.250000     0.177682     0.497181     0.954718     1.159294
    6.260000     0.173879     0.513807     0.976570     1.226472
    6.270000     0.170339     0.530122     1.005503     1.293445
    6.280000     0.167050     0.546143     1.042025     1.360030
    6.290000     0.163998     0.561892     1.086795     1.425977
    6.300000     0.161171     0.577383     1.140574     1.490847
    6.310000     0.158559     0.592640     1.204292     1.554044
    6.320000     0.156154     0.607675     1.278961     1.614665
    6.330000     0.153946     0.622508     1.365744     1.671502
    6.340000     0.151929     0.637151     1.465803     1.722860
    6.350000     0.150096     0.651623     1.580325     1.766510
    6.360000     0.148443     0.665936     1.710249     1.799495
    6.370000     0.146964     0.680108     1.856171     1.818060
    6.380000     0.145657     0.694149     2.017839     1.817535
    6.390000     0.144519     0.708077     2.193861     1.792391
    6.400000     0.143547     0.721901     2.380911     1.736488
    6.410000     0.142741     0.735640     2.573333     1.643620
    6.420000     0.142101     0.749302     2.762434     1.508609
    6.430000     0.141628     0.762904     2.936713     1.328638
    6.440000     0.141322     0.776456     3.082453     1.105097
    6.450000     0.141188     0.789975     3.185800     0.844661
    6.460001     0.141229     0.803470     3.235281     0.559758
    6.470000     0.141449     0.816954     3.224666     0.267093
     6.48000      0.14186      0.83044      3.15459     -0.01539
    6.490000     0.142456     0.843946     3.032392    -0.271545
    6.500001     0.143259     0.857481     2.870122    -0.490066
    6.510000     0.144276     0.871056     2.681823    -0.665198
    6.520001     0.145520     0.884688     2.480776    -0.796556
    6.530000     0.147005     0.898386     2.278052    -0.887455
    6.540001     0.148749     0.912168     2.081612    -0.943430
    6.550000     0.150773     0.926041     1.896691    -0.970729
    6.560001     0.153101     0.940022     1.726060    -0.975448
    6.570000     0.155759     0.954118     1.570887    -0.962995
    6.580001     0.158780     0.968344     1.431093    -0.937893
    6.590000     0.162201     0.982704     1.306000    -0.903793
    6.600001     0.166064     0.997211     1.194468    -0.863530
    6.610000     0.170419     1.011862     1.095278    -0.819295
    6.620001     0.175324     1.026662     1.007118    -0.772709
    6.630000     0.180842     1.041600     0.928789    -0.725006
    6.640001     0.187052     1.056666     0.859130    -0.677064
    6.650000     0.194038     1.071831     0.797138    -0.629548
    6.660001     0.201900     1.087057     0.741878    -0.582914
    6.670000     0.210749     1.102281     0.692552    -0.537516
    6.680001     0.220708     1.117420     0.648418    -0.493578
    6.690000     0.231908     1.132347     0.608838    -0.451284
    6.700000     0.244491     1.146901     0.573208    -0.410727
    6.710000     0.258590     1.160851     0.540992    -0.371974
    6.720000     0.274327     1.173906     0.511679    -0.335010
    6.730000     0.291777     1.185679     0.484818    -0.299788
    6.740000     0.310949     1.195699     0.460000    -0.266180
    6.750000     0.331720     1.203393     0.436903    -0.234032
    6.760000     0.353795     1.208122     0.415275    -0.203144
    6.770000     0.376613     1.209226     0.394959    -0.173343
    6.780000     0.399327     1.206131     0.375851    -0.144461
    6.789999     0.420757     1.198494     0.357906    -0.116392
     6.80000      0.43949      1.18638      0.34109     -0.08906
     6.81000      0.45404      1.17041      0.32537     -0.06242
     6.82000      0.46313      1.15181      0.31070     -0.03647
     6.83000      0.46599      1.13232      0.29705     -0.01120
     6.84000      0.46258      1.11386      0.28435      0.01338
     6.85000      0.45358      1.09821      0.27254      0.03729
     6.86000      0.44022      1.08669      0.26156      0.06052
     6.87000      0.42399      1.08002      0.25134      0.08309
    6.880000     0.406346     1.078350     0.241817     0.105014
    6.890001     0.388521     1.081383     0.232937     0.126311
    6.900000     0.371442     1.088577     0.224648     0.146997
    6.910001     0.355717     1.099286     0.216897     0.167100
    6.920000     0.341705     1.112868     0.209643     0.186637
    6.930001     0.329563     1.128753     0.202844     0.205639
    6.940000     0.319326     1.146454     0.196465     0.224122
    6.950001     0.310941     1.165592     0.190472     0.242116
    6.960000     0.304318     1.185865     0.184837     0.259637
    6.970001     0.299343     1.207055     0.179532     0.276714
    6.980000     0.295901     1.228996     0.174534     0.293360
    6.990001     0.293880     1.251585     0.169820     0.309603
    7.000000     0.293180     1.274741     0.165371     0.325456
    7.010001     0.293714     1.298435     0.161168     0.340943
    7.020000     0.295411     1.322646     0.157197     0.356076
    7.030001     0.298218     1.347388     0.153440     0.370877
    7.040000     0.302098     1.372679     0.149886     0.385357
    7.050001     0.307037     1.398560     0.146522     0.399537
    7.060000     0.313033     1.425065     0.143336     0.413426
    7.070001     0.320106     1.452248     0.140318     0.427042
    7.079999     0.328284     1.480147     0.137460     0.440395
    7.090001     0.337614     1.508825     0.134751     0.453502
    7.099999     0.348148     1.538323     0.132184     0.466369
    7.110001     0.359961     1.568708     0.129752     0.479014
    7.119999     0.373128     1.600029     0.127448     0.491442
    7.130001     0.387754     1.632360     0.125266     0.503669
    7.139999     0.403948     1.665756     0.123201     0.515701
    7.150000     0.421848     1.700298     0.121246     0.527551
    7.159999     0.441606     1.736045     0.119398     0.539225
    7.170000     0.463408     1.773082     0.117651     0.550736
    7.179999     0.487454     1.811473     0.116003     0.562089
    7.190000     0.513996     1.851299     0.114449     0.573295
    7.200001     0.543307     1.892626     0.112986     0.584363
    7.210000     0.575703     1.935509     0.111611     0.595296
    7.220001     0.611567     1.980013     0.110320     0.606107
    7.230000     0.651316     2.026162     0.109113     0.616799
    7.240001     0.695457     2.073984     0.107986     0.627384
    7.250000     0.744548     2.123443     0.106937     0.637864
    7.260001     0.799267     2.174490     0.105965     0.648251
    7.270000     0.860357     2.226979     0.105069     0.658548
    7.280001     0.928715     2.280706     0.104246     0.668764
    7.290000     1.005326     2.335314     0.103496     0.678904
    7.300001     1.091362     2.390316     0.102818     0.688976
    7.310000     1.188093     2.444970     0.102211     0.698984
    7.320001     1.296999     2.498274     0.101675     0.708938
    7.330000     1.419631     2.548802     0.101209     0.718841
    7.340001     1.557712     2.594653     0.100814     0.728701
    7.350000     1.712896     2.633241     0.100490     0.738523
    7.360001     1.886810     2.661187     0.100238     0.748316
    7.370000     2.080608     2.674096     0.100057     0.758082
     7.38000      2.29484      2.66645      0.09995      0.76783
     7.39000      2.52866      2.63152      0.09991      0.77757
     7.40000      2.77944      2.56151      0.09995      0.78730
    7.410000     3.041612     2.448098     0.100073     0.797033
    7.420001     3.306227     2.283287     0.100270     0.806775
    7.430000     3.560181     2.061199     0.100548     0.816530
    7.440001     3.786918     1.779946     0.100910     0.826308
    7.450000     3.967749     1.444060     0.101360     0.836114
    7.460001     4.085123     1.065423     0.101900     0.845957
    7.470000     4.126184     0.663192     0.102534     0.855842
    7.480000     4.086168     0.260607     0.103267     0.865780
    7.490000     3.969670    -0.118786     0.104103     0.875776
    7.500000     3.789327    -0.455943     0.105049     0.885840
    7.510000     3.562740    -0.738603     0.106110     0.895980
    7.520000     3.308469    -0.962266     0.107294     0.906206
    7.529999     3.043294    -1.128563     0.108607     0.916525
    7.540000     2.780233    -1.243416     0.110060     0.926950
    7.549999     2.528486    -1.314714     0.111660     0.937487
    7.560000     2.293519    -1.350844     0.113420     0.948150
    7.570001     2.078139    -1.359598     0.115351     0.958949
    7.580000     1.883176    -1.347728     0.117467     0.969892
    7.590001     1.708099    -1.320785     0.119784     0.980996
    7.600000     1.551765    -1.283186     0.122318     0.992270
    7.610001     1.412550    -1.238331     0.125089     1.003729
    7.620000     1.288799    -1.188824     0.128119     1.015383
    7.630001     1.178783    -1.136579     0.131433     1.027249
    7.640000     1.080949    -1.083033     0.135059     1.039339
    7.650001     0.993809    -1.029200     0.139029     1.051669
    7.660000     0.916087    -0.975826     0.143379     1.064249
    7.670001     0.846605    -0.923406     0.148151     1.077098
    7.680000     0.784372    -0.872302     0.153392     1.090224
    7.690001     0.728484    -0.822723     0.159157     1.103644
    7.700000     0.678192    -0.774819     0.165505     1.117362
    7.710001     0.632810    -0.728645     0.172511     1.131390
    7.720000     0.591775    -0.684238     0.180253     1.145727
    7.730000     0.554570    -0.641576     0.188827     1.160372
    7.740000     0.520772    -0.600639     0.198337     1.175311
    7.750000     0.489990    -0.561366     0.208906     1.190522
    7.760000     0.461902    -0.523710     0.220670     1.205963
    7.770000     0.436212    -0.487594     0.233787     1.221575
    7.780000     0.412676    -0.452962     0.248426     1.237265
    7.790000     0.391065    -0.419733     0.264780     1.252911
    7.800000     0.371193    -0.387849     0.283045     1.268335
    7.810000     0.352883    -0.357230     0.303433     1.283309
    7.820000     0.335992    -0.327822     0.326140     1.297527
    7.830000     0.320383    -0.299554     0.351352     1.310609
    7.840000     0.305943    -0.272372     0.379194     1.322078
    7.850000     0.292565    -0.246211     0.409742     1.331376
    7.860000     0.280163    -0.221029     0.442949     1.337849
    7.870000     0.268650    -0.196768     0.478664     1.340768
    7.880000     0.257959    -0.173390     0.516551     1.339331
    7.890000     0.248021    -0.150847     0.556092     1.332676
    7.900000     0.238781    -0.129109     0.596462     1.319905
    7.910000     0.230180    -0.108136     0.636484     1.300156
     7.92000      0.22217     -0.08791      0.67448      1.27278
     7.93000      0.21470     -0.06839      0.70833      1.23757
     7.94000      0.20772     -0.04957      0.73556      1.19512
     7.95000      0.20117     -0.03141      0.75374      1.14705
     7.96000      0.19501     -0.01390      0.76104      1.09595
    7.970       0.1892       0.3008E-2    0.7567        1.045   
     7.98000      0.18361      0.01935      0.74130      0.99807
     7.99000      0.17828      0.03517      0.71663      0.95759
     8.00000      0.17316      0.05054      0.68525      0.92558
     8.01000      0.16821      0.06549      0.64998      0.90285
     8.02000      0.16345      0.08010      0.61335      0.88920
     8.03000      0.15888      0.09439      0.57742      0.88382
    8.040001     0.154511     0.108392     0.543650     0.885539
    8.050000     0.150350     0.122129     0.512952     0.893104
    8.060000     0.146406     0.135612     0.485815     0.905343
    8.070000     0.142686     0.148845     0.462437     0.921233
    8.080001     0.139188     0.161835     0.442812     0.939943
    8.090000     0.135910     0.174583     0.426837     0.960804
    8.100000     0.132846     0.187097     0.414349     0.983313
    8.110000     0.129991     0.199379     0.405186     1.007081
    8.120001     0.127338     0.211439     0.399192     1.031835
    8.130000     0.124883     0.223280     0.396248     1.057360
    8.140000     0.122621     0.234914     0.396270     1.083516
    8.150000     0.120549     0.246345     0.399224     1.110183
    8.160001     0.118663     0.257584     0.405123     1.137283
    8.170000     0.116965     0.268635     0.414028     1.164730
    8.180000     0.115455     0.279508     0.426060     1.192453
    8.190000     0.114138     0.290205     0.441389     1.220348
    8.200001     0.113017     0.300734     0.460254     1.248298
    8.210000     0.112100     0.311094     0.482940     1.276118
    8.220000     0.111397     0.321287     0.509811     1.303575
    8.230000     0.110919     0.331306     0.541272     1.330322
    8.240001     0.110680     0.341147     0.577801     1.355898
    8.249999     0.110694     0.350791     0.619891     1.379660
    8.260000     0.110977     0.360220     0.668071     1.400761
    8.270000     0.111541     0.369400     0.722797     1.418066
    8.280001     0.112398     0.378291     0.784436     1.430123
    8.290001     0.113549     0.386837     0.853082     1.435097
    8.300000     0.114982     0.394970     0.928397     1.430769
    8.310001     0.116663     0.402612     1.009430     1.414584
    8.320000     0.118529     0.409677     1.094252     1.383834
    8.330001     0.120477     0.416088     1.179829     1.335976
    8.340000     0.122362     0.421789     1.261789     1.269209
    8.350001     0.124001     0.426771     1.334698     1.183087
    8.360000     0.125196     0.431094     1.392525     1.079267
    8.370001     0.125761     0.434898     1.429722     0.961751
    8.380000     0.125568     0.438395     1.442330     0.836775
    8.390000     0.124573     0.441836     1.428992     0.711758
    8.400000     0.122834     0.445469     1.391260     0.594111
    8.410001     0.120486     0.449491     1.333141     0.489796
    8.420000     0.117710     0.454024     1.260138     0.402674
    8.430000     0.114692     0.459117     1.178057     0.334227
    8.440000     0.111599     0.464756     1.092187     0.284040
    8.450001     0.108557     0.470892     1.006684     0.250336
    8.460000     0.105657     0.477453     0.924528     0.230675
    8.470000     0.102958     0.484372     0.847514     0.222425
    8.480000     0.100493     0.491580     0.776584     0.223118
     8.49000      0.09828      0.49902      0.71199      0.23062
     8.50000      0.09633      0.50664      0.65361      0.24319
     8.51000      0.09463      0.51440      0.60107      0.25947
     8.52000      0.09317      0.52227      0.55394      0.27842
     8.53000      0.09196      0.53021      0.51173      0.29924
     8.54000      0.09096      0.53822      0.47398      0.32132
     8.55000      0.09018      0.54628      0.44024      0.34420
     8.56000      0.08959      0.55438      0.41013      0.36749
     8.57000      0.08919      0.56252      0.38325      0.39094
     8.58000      0.08897      0.57069      0.35927      0.41431
     8.59000      0.08893      0.57890      0.33785      0.43747
     8.60000      0.08905      0.58715      0.31873      0.46029
     8.61000      0.08933      0.59545      0.30164      0.48271
     8.62000      0.08977      0.60380      0.28636      0.50469
     8.63000      0.09038      0.61220      0.27268      0.52619
     8.64000      0.09114      0.62068      0.26045      0.54722
     8.65000      0.09207      0.62922      0.24949      0.56778
     8.66000      0.09317      0.63786      0.23968      0.58788
     8.67000      0.09445      0.64658      0.23091      0.60754
     8.68000      0.09591      0.65542      0.22307      0.62679
     8.69000      0.09756      0.66436      0.21608      0.64564
     8.70000      0.09942      0.67344      0.20986      0.66414
    8.710000     0.101495     0.682654     0.204341     0.682305
    8.720001     0.103807     0.692023     0.199474     0.700171
    8.730000     0.106373     0.701556     0.195207     0.717763
    8.740001     0.109214     0.711271     0.191499     0.735116
    8.750000     0.112354     0.721178     0.188314     0.752254
    8.760001     0.115823     0.731294     0.185622     0.769212
    8.770000     0.119651     0.741631     0.183397     0.786013
    8.780001     0.123876     0.752208     0.181618     0.802691
    8.790000     0.128540     0.763035     0.180270     0.819269
    8.800001     0.133693     0.774130     0.179338     0.835780
    8.809999     0.139389     0.785503     0.178813     0.852246
    8.820001     0.145694     0.797168     0.178689     0.868700
    8.830000     0.152680     0.809131     0.178964     0.885165
    8.840000     0.160434     0.821400     0.179638     0.901673
    8.849999     0.169051     0.833970     0.180713     0.918246
    8.860001     0.178647     0.846838     0.182199     0.934919
    8.870000     0.189348     0.859980     0.184103     0.951713
    8.880000     0.201305     0.873366     0.186441     0.968664
    8.889999     0.214686     0.886938     0.189228     0.985795
    8.900001     0.229687     0.900616     0.192488     1.003142
    8.910000     0.246519     0.914277     0.196243     1.020730
    8.920000     0.265430     0.927757     0.200526     1.038597
    8.929999     0.286673     0.940815     0.205370     1.056769
    8.940001     0.310527     0.953136     0.210818     1.075285
    8.950000     0.337255     0.964288     0.216916     1.094175
    8.960000     0.367104     0.973713     0.223718     1.113479
    8.969999     0.400231     0.980685     0.231287     1.133229
    8.980000     0.436675     0.984310     0.239696     1.153465
    8.990000     0.476227     0.983516     0.249026     1.174220
    9.000000     0.518362     0.977097     0.259374     1.195538
    9.009999     0.562068     0.963824     0.270846     1.217447
    9.020000     0.605803     0.942618     0.283570     1.239989
    9.030001     0.647423     0.912843     0.297690     1.263194
    9.040000     0.684355     0.874628     0.313368     1.287086
    9.050001     0.713945     0.829116     0.330802     1.311692
    9.060000     0.733947     0.778589     0.350205     1.337017
    9.070001     0.743103     0.726174     0.371840     1.363065
    9.080000     0.741496     0.675362     0.395992     1.389804
    9.090001     0.730568     0.629272     0.423009     1.417195
    9.100000     0.712777     0.590146     0.453272     1.445138
    9.110001     0.691031     0.559030     0.487238     1.473503
    9.120000     0.668178     0.535865     0.525409     1.502069
    9.130001     0.646605     0.519701     0.568375     1.530540
    9.140000     0.628094     0.509035     0.616772     1.558476
    9.150001     0.613759     0.502059     0.671327     1.585284
    9.160000     0.604114     0.496866     0.732786     1.610138
    9.170001     0.599105     0.491570     0.801947     1.631941
    9.180000     0.598149     0.484411     0.879526     1.649229
    9.190001     0.600149     0.473862     0.966148     1.660111
    9.200000     0.603524     0.458796     1.062094     1.662187
    9.210001     0.606306     0.438659     1.167193     1.652515
    9.219999     0.606358     0.413679     1.280400     1.627658
    9.230000     0.601705     0.384921     1.399576     1.583844
    9.240000     0.590929     0.354221     1.520977     1.517392
    9.250001     0.573476     0.323827     1.639170     1.425304
    9.259999     0.549764     0.295982     1.746941     1.306250
    9.270000     0.520999     0.272456     1.836019     1.161419
    9.280000     0.488858     0.254329     1.898136     0.995385
    9.290000     0.455077     0.241927     1.926768     0.815940
    9.299999     0.421197     0.234992     1.918631     0.633356
    9.310000     0.388378     0.232882     1.874605     0.458401
    9.320000     0.357414     0.234781     1.799515     0.300558
    9.330000     0.328739     0.239853     1.700834     0.166313
     9.34000      0.30255      0.24733      1.58710      0.05880
     9.35000      0.27883      0.25656      1.46624     -0.02202
     9.36000      0.25750      0.26701      1.34483     -0.07832
    9.370000     0.238367     0.278252     1.227542    -0.113544
    9.379999     0.221251     0.289976     1.117406    -0.131494
    9.390000     0.205941     0.301941     1.016009    -0.135857
    9.400001     0.192244     0.313971     0.923977    -0.129876
    9.410000     0.179979     0.325935     0.841264    -0.116264
     9.42000      0.16898      0.33775      0.76738     -0.09719
     9.43000      0.15909      0.34935      0.70168     -0.07436
     9.44000      0.15019      0.36070      0.64337     -0.04905
     9.45000      0.14216      0.37178      0.59170     -0.02225
    9.460       0.1349       0.3826       0.5459       0.5328E-2
     9.47000      0.12833      0.39307      0.50537      0.03315
     9.48000      0.12237      0.40327      0.46944      0.06085
     9.49000      0.11694      0.41319      0.43759      0.08814
    9.500001     0.111996     0.422841     0.409357     0.114830
    9.510000     0.107485     0.432220     0.384336     0.140775
    9.520000     0.103360     0.441345     0.362170     0.165878
     9.53000      0.09959      0.45023      0.34256      0.19005
     9.54000      0.09613      0.45888      0.32523      0.21324
     9.55000      0.09295      0.46731      0.30995      0.23537
     9.56000      0.09004      0.47554      0.29649      0.25638
     9.57000      0.08736      0.48358      0.28461      0.27621
     9.58000      0.08490      0.49143      0.27410      0.29481
     9.59000      0.08263      0.49912      0.26469      0.31211
     9.60000      0.08055      0.50664      0.25610      0.32813
     9.61000      0.07864      0.51402      0.24806      0.34289
     9.62000      0.07688      0.52126      0.24027      0.35652
     9.63000      0.07526      0.52837      0.23248      0.36921
     9.64000      0.07378      0.53536      0.22454      0.38123
     9.65000      0.07243      0.54224      0.21638      0.39284
     9.66000      0.07119      0.54901      0.20804      0.40431
     9.67000      0.07006      0.55570      0.19963      0.41582
     9.68000      0.06904      0.56229      0.19130      0.42749
     9.69000      0.06812      0.56881      0.18319      0.43935
     9.70000      0.06729      0.57526      0.17542      0.45138
     9.71000      0.06655      0.58164      0.16808      0.46353
     9.72000      0.06590      0.58797      0.16121      0.47573
     9.73000      0.06533      0.59424      0.15483      0.48793
     9.74000      0.06485      0.60047      0.14892      0.50006
     9.75000      0.06444      0.60667      0.14348      0.51209
     9.76000      0.06411      0.61283      0.13848      0.52396
     9.77000      0.06385      0.61897      0.13387      0.53567
     9.78000      0.06367      0.62509      0.12963      0.54719
     9.79000      0.06356      0.63120      0.12573      0.55852
     9.80000      0.06353      0.63730      0.12214      0.56966
     9.81000      0.06357      0.64339      0.11883      0.58059
     9.82000      0.06368      0.64950      0.11578      0.59134
     9.83000      0.06387      0.65561      0.11296      0.60189
     9.84000      0.06413      0.66175      0.11035      0.61226
     9.85000      0.06447      0.66790      0.10794      0.62246
     9.86000      0.06489      0.67409      0.10571      0.63249
     9.87000      0.06539      0.68031      0.10365      0.64237
     9.88000      0.06598      0.68657      0.10174      0.65209
     9.89000      0.06665      0.69288      0.09997      0.66167
     9.90000      0.06740      0.69925      0.09834      0.67112
     9.91000      0.06826      0.70569      0.09683      0.68045
     9.92000      0.06921      0.71219      0.09544      0.68966
     9.93000      0.07026      0.71878      0.09415      0.69877
     9.94000      0.07142      0.72545      0.09297      0.70777
     9.95000      0.07270      0.73222      0.09189      0.71668
     9.96000      0.07410      0.73909      0.09090      0.72550
     9.97000      0.07563      0.74608      0.09000      0.73425
     9.98000      0.07730      0.75319      0.08918      0.74292
     9.99000      0.07913      0.76044      0.08844      0.75153
    10.00000      0.08112      0.76784      0.08778      0.76008
# 
# 10/04/2018 at 21:25 YAMBO @ bacalhau [start]
# 10/04/2018 at 21:25                  [end]
#  
# Timing   [Min/Max/Average]: 12s/12s/12s
#
# .-Input file : yambo.in
# | optics                         # [R OPT] Optics
# | bse                            # [R BSE] Bethe Salpeter Equation.
# | bsk                            # [R BSK] Bethe Salpeter Equation kernel
# | bss                            # [R BSS] Bethe Salpeter Equation solver
# | em1s                           # [R Xs] Static Inverse Dielectric Matrix
# | BoseTemp= 0.000000     eV      # Bosonic Temperature
# | FFTGvecs=  3473        RL      # [FFT] Plane-waves
# | X_Threads= 1                   # [OPENMP/X] Number of threads for response functions
# | DIP_Threads= 1                 # [OPENMP/X] Number of threads for dipoles
# | K_Threads= 1                   # [OPENMP/BSK] Number of threads for response functions
# | Chimod= "HARTREE"              # [X] IP/Hartree/ALDA/LRC/PF/BSfxc
# | BSEmod= "resonant"             # [BSE] resonant/retarded/coupling
# | BSKmod= "SEX"                  # [BSE] IP/Hartree/HF/ALDA/SEX/BSfxc
# | BSSmod= "d"                    # [BSS] (h)aydock/(d)iagonalization/(i)nversion/(t)ddft`
# | BSENGexx=  51          RL      # [BSK] Exchange components
# | BSENGBlk=  51          RL      # [BSK] Screened interaction block size
# | #WehCpl                        # [BSK] eh interaction included also in coupling
# | % BEnRange
# | -10.00000 | 10.00000 | eV      # [BSS] Energy range
# | %
# | % BDmRange
# |   0.10000 |  0.10000 | eV      # [BSS] Damping range
# | %
# | BEnSteps= 2001                 # [BSS] Energy steps
# | % BLongDir
# | 0.5774E-5 |0.5774E-5 |0.5774E-5 |        # [BSS] [cc] Electric Field
# | %
# | % BSEQptR
# |   1 |  4 |                     # [BSK] Transferred momenta range
# | %
# | % BSEBands
# |   3 | 10 |                     # [BSK] Bands range
# | %
# | WRbsWF                         # [BSS] Write to disk excitonic the WFs
# | % BndsRnXs
# |    1 |  60 |                   # [Xs] Polarization function bands
# | %
# | NGsBlkXs=  51          RL      # [Xs] Response block size
# | % DmRngeXs
# | 0.1000E-2 |0.1000E-2 | eV      # [Xs] Damping range
# | %
# | % LongDrXs
# | 0.1000E-4 | 0.000    | 0.000    |        # [Xs] [cc] Electric Field
# | %
