#                                                           
#  **    **    **     ****     ****  ******     *******     
# //**  **    ****   /**/**   **/** /*////**   **/////**    
#  //****    **//**  /**//** ** /** /*   /**  **     //**   
#   //**    **  //** /** //***  /** /******  /**      /**   
#    /**   **********/**  //*   /** /*//// **/**      /**   
#    /**  /**//////**/**   /    /** /*    /**//**     **    
#    /**  /**     /**/**        /** /*******  //*******     
#    //   //      // //         //  ///////    ///////      
#                                                           
#             GPL Version 3.3.1 Revision 2132               
#                http://www.yambo-code.org                  
#
#   1          2          3          4          5          6          7          8          9
#  hw (eV)    REELS(x)   REELS(y)      Avg       Diff     Rel Diff   -2drv(x)   -2drv(y)   -Avg2Drv
     0.00000    0.28926    0.38426    0.33676   -0.09500   -0.28209  -21.29316  -29.11866  -25.20591
   0.1000E-1  0.3149     0.4189     0.3669     -.1040     -.2834     -21.29     -29.12     -25.21   
   0.2000E-1  0.3427     0.4564     0.3995     -.1137     -.2846     -22.84     -31.25     -27.04   
   0.3000E-1  0.3727     0.4970     0.4349     -.1243     -.2858     -24.46     -33.49     -28.98   
     0.04000    0.40523    0.54100    0.47311   -0.13577   -0.28697  -26.17955  -35.85696  -31.01825
     0.05000    0.44035    0.58857    0.51446   -0.14823   -0.28812  -27.97485  -38.33652  -33.15568
     0.06000    0.47826    0.63998    0.55912   -0.16172   -0.28923  -29.86851  -40.94127  -35.40489
     0.07000    0.51917    0.69548    0.60732   -0.17631   -0.29031  -31.83842  -43.66517  -37.75179
     0.08000    0.56325    0.75535    0.65930   -0.19210   -0.29136  -33.90189  -46.49873  -40.20031
     0.09000    0.61073    0.81987    0.71530   -0.20914   -0.29238  -36.04888  -49.46588  -42.75738
     0.10000    0.66181    0.88933    0.77557   -0.22752   -0.29336  -38.29123  -52.53913  -45.41518
     0.11000    0.71672    0.96405    0.84039   -0.24733   -0.29430  -40.60389  -55.73633  -48.17011
     0.12000    0.77569    1.04434    0.91002   -0.26865   -0.29521  -43.00596  -59.03008  -51.01802
     0.13000    0.83897    1.13054    0.98475   -0.29157   -0.29608  -45.49390  -62.44667  -53.97028
     0.14000    0.90679    1.22298    1.06488   -0.31619   -0.29692  -48.04613  -65.95138  -56.99876
     0.15000    0.97942    1.32201    1.15071   -0.34259   -0.29772  -50.67820  -69.56808  -60.12314
     0.16000    1.05711    1.42800    1.24255   -0.37089   -0.29849  -53.36756  -73.24449  -63.30602
     0.17000    1.14014    1.54132    1.34073   -0.40118   -0.29922  -56.13083  -77.02104  -66.57594
     0.18000    1.22878    1.66233    1.44556   -0.43355   -0.29992  -58.93471  -80.84777  -69.89124
     0.19000    1.32332    1.79144    1.55738   -0.46811   -0.30058  -61.79812  -84.76260  -73.28036
     0.20000    1.42404    1.92901    1.67653   -0.50498   -0.30120  -64.68289  -88.68923  -76.68607
     0.21000    1.53122    2.07546    1.80334   -0.54424   -0.30179  -67.60361  -92.67334  -80.13847
     0.22000    1.64517    2.23118    1.93817   -0.58601   -0.30235  -70.55058  -96.64077  -83.59567
      0.2300     1.7662     2.3966     2.0814    -0.6304    -0.3029   -73.4949  -100.6365   -87.0657
      0.2400     1.8945     2.5720     2.2333    -0.6775    -0.3034   -76.4417  -104.6323   -90.5370
      0.2500     2.0305     2.7579     2.3942    -0.7274    -0.3038   -79.3696  -108.5473   -93.9584
      0.2600     2.1744     2.9547     2.5646    -0.7802    -0.3042   -82.2448  -112.4142   -97.3295
      0.2700     2.3266     3.1627     2.7446    -0.8361    -0.3046   -85.0965  -116.2436  -100.6700
      0.2800     2.4873     3.3823     2.9348    -0.8950    -0.3050   -87.8860  -119.9248  -103.9054
      0.2900     2.6567     3.6139     3.1353    -0.9572    -0.3053   -90.6085  -123.5293  -107.0689
      0.3000     2.8352     3.8579     3.3466    -1.0226    -0.3056   -93.1930  -126.9530  -110.0730
      0.3100     3.0231     4.1145     3.5688    -1.0915    -0.3058   -95.6868  -130.2050  -112.9459
      0.3200     3.2205     4.3842     3.8024    -1.1638    -0.3061   -98.0615  -133.2854  -115.6734
      0.3300     3.4277     4.6672     4.0475    -1.2396    -0.3063  -100.2740  -136.1464  -118.2102
      0.3400     3.6449     4.9639     4.3044    -1.3189    -0.3064  -102.3151  -138.7027  -120.5089
      0.3500     3.8724     5.2744     4.5734    -1.4020    -0.3066  -104.1697  -141.0387  -122.6042
      0.3600     4.1103     5.5990     4.8546    -1.4887    -0.3067  -105.8104  -143.0228  -124.4166
      0.3700     4.3587     5.9379     5.1483    -1.5791    -0.3067  -107.2313  -144.7204  -125.9758
      0.3800     4.6179     6.2913     5.4546    -1.6733    -0.3068  -108.4136  -146.0360  -127.2248
      0.3900     4.8880     6.6592     5.7736    -1.7713    -0.3068  -109.2814  -146.9229  -128.1022
      0.4000     5.1689     7.0419     6.1054    -1.8730    -0.3068  -109.9109  -147.4665  -128.6887
      0.4100     5.4609     7.4393     6.4501    -1.9785    -0.3067  -110.1969  -147.5047  -128.8508
      0.4200     5.7638     7.8515     6.8077    -2.0877    -0.3067  -110.1874  -147.1613  -128.6744
      0.4300     6.0778     8.2784     7.1781    -2.2006    -0.3066  -109.8253  -146.2367  -128.0310
      0.4400     6.4028     8.7199     7.5613    -2.3171    -0.3064  -109.1098  -144.8248  -126.9673
      0.4500     6.7387     9.1759     7.9573    -2.4372    -0.3063  -107.9371  -142.9370  -125.4370
      0.4600     7.0854     9.6462     8.3658    -2.5608    -0.3061  -106.5825  -140.4379  -123.5102
      0.4700     7.4427    10.1305     8.7866    -2.6878    -0.3059  -104.5607  -137.3862  -120.9735
      0.4800     7.8105    10.6286     9.2195    -2.8181    -0.3057  -102.3107  -133.7630  -118.0368
      0.4900     8.1885    11.1400     9.6643    -2.9515    -0.3054   -99.6207  -129.5088  -114.5648
      0.5000     8.5765    11.6644    10.1204    -3.0879    -0.3051   -96.3591  -124.7786  -110.5689
      0.5100     8.9741    12.2013    10.5877    -3.2272    -0.3048   -92.9071  -119.3049  -106.1060
      0.5200     9.3810    12.7501    11.0656    -3.3691    -0.3045   -88.7872  -113.2967  -101.0420
      0.5300     9.7968    13.3102    11.5535    -3.5134    -0.3041   -84.3998  -106.6394   -95.5196
     0.54000   10.22102   13.88104   12.05103   -3.66002   -0.30371  -79.40260  -99.46783  -89.43521
     0.55000   10.65319   14.46179   12.55749   -3.80860   -0.30329  -74.13922  -91.55345  -82.84634
     0.56000   11.09277   15.05169   13.07223   -3.95892   -0.30285  -68.39765  -83.25593  -75.82679
     0.57000   11.53919   15.64992   13.59455   -4.11073   -0.30238  -62.25561  -74.15742  -68.20651
     0.58000   11.99184   16.25557   14.12370   -4.26373   -0.30188  -55.59898  -64.73515  -60.16707
     0.59000   12.45004   16.86769   14.65886   -4.41764   -0.30136  -48.80914  -54.66471  -51.73693
     0.60000   12.91313   17.48527   15.19920   -4.57214   -0.30081  -41.35140  -44.17428  -42.76284
     0.61000   13.38035   18.10727   15.74381   -4.72692   -0.30024  -33.70271  -33.18773  -33.44522
     0.62000   13.85094   18.73259   16.29177   -4.88165   -0.29964  -25.88277  -21.89640  -23.88959
     0.63000   14.32412   19.36010   16.84211   -5.03598   -0.29901  -17.41413   -9.88008  -13.64711
     0.64000   14.79904   19.98860   17.39382   -5.18956   -0.29836   -9.05992    2.09809   -3.48092
     0.65000   15.27487   20.61688   17.94587   -5.34202   -0.29767   -0.26703   14.57208    7.15253
     0.66000   15.75072   21.24371   18.49722   -5.49300   -0.29696    8.75475   27.16070   17.95772
     0.67000   16.22569   21.86783   19.04676   -5.64213   -0.29623   17.77652   40.09254   28.93453
     0.68000   16.69889   22.48793   19.59341   -5.78904   -0.29546   27.08424   53.06222   40.07323
     0.69000   17.16939   23.10273   20.13606   -5.93335   -0.29466   36.23969   65.91810   51.07890
     0.70000   17.63626   23.71094   20.67360   -6.07469   -0.29384   45.66201   79.23141   62.44672
     0.71000   18.09856   24.31123   21.20489   -6.21267   -0.29298   54.85513   92.16271   73.50892
      0.7200    18.5554    24.9023    21.7288    -6.3469    -0.2921    64.2011   105.0563    84.6287
      0.7300    19.0058    25.4829    22.2443    -6.4771    -0.2912    73.3191   117.6843    95.5017
      0.7400    19.4488    26.0517    22.7502    -6.6028    -0.2902    82.2069   130.0814   106.1441
      0.7500    19.8837    26.6074    23.2456    -6.7238    -0.2892    91.0183   142.4021   116.7102
      0.7600    20.3094    27.1490    23.7292    -6.8396    -0.2882    99.5632   154.0368   126.8000
      0.7700    20.7252    27.6751    24.2002    -6.9499    -0.2872   107.7272   165.4056   136.5664
      0.7800    21.1302    28.1847    24.6575    -7.0545    -0.2861   115.6618   176.2012   145.9315
      0.7900    21.5236    28.6767    25.1002    -7.1531    -0.2850   123.0235   186.3854   154.7044
      0.8000    21.9048    29.1500    25.5274    -7.2453    -0.2838   130.0814   195.8851   162.9832
      0.8100    22.2729    29.6038    25.9383    -7.3309    -0.2826   136.6046   204.8115   170.7080
      0.8200    22.6274    30.0371    26.3322    -7.4097    -0.2814   142.7462   213.0513   177.8987
      0.8300    22.9676    30.4490    26.7083    -7.4814    -0.2801   147.9334   220.1834   184.0584
      0.8400    23.2930    30.8390    27.0660    -7.5460    -0.2788   152.8934   226.8605   189.8769
      0.8500    23.6031    31.2062    27.4047    -7.6031    -0.2774   157.0895   232.1248   194.6071
      0.8600    23.8975    31.5503    27.7239    -7.6528    -0.2760   160.6744   237.0062   198.8403
      0.8700    24.1758    31.8706    28.0232    -7.6948    -0.2746   163.3075   240.5553   201.9314
      0.8800    24.4379    32.1669    28.3024    -7.7290    -0.2731   165.5210   243.1507   204.3359
      0.8900    24.6833    32.4388    28.5611    -7.7555    -0.2715   166.8160   244.8263   205.8212
      0.9000    24.9121    32.6863    28.7992    -7.7742    -0.2699   167.5398   245.2063   206.3730
      0.9100    25.1241    32.9093    29.0167    -7.7852    -0.2683   167.1995   244.9055   206.0525
      0.9200    25.3194    33.1077    29.2136    -7.7883    -0.2666   166.3221   243.3033   204.8127
      0.9300    25.4981    33.2819    29.3900    -7.7838    -0.2648   164.7170   240.5524   202.6347
      0.9400    25.6603    33.4320    29.5461    -7.7717    -0.2630   162.1240   237.0443   199.5842
      0.9500    25.8063    33.5584    29.6823    -7.7521    -0.2612   158.8834   232.0880   195.4857
      0.9600    25.9364    33.6615    29.7989    -7.7252    -0.2592   154.8770   226.2883   190.5826
      0.9700    26.0510    33.7421    29.8965    -7.6911    -0.2573   150.1468   219.8796   185.0132
      0.9800    26.1506    33.8006    29.9756    -7.6501    -0.2552   144.6909   211.5623   178.1266
      0.9900    26.2357    33.8380    30.0369    -7.6024    -0.2531   138.4348   203.0174   170.7261
      1.0000    26.3070    33.8551    30.0811    -7.5482    -0.2509   131.8362   193.5581   162.6971
      1.0100    26.3651    33.8529    30.1090    -7.4878    -0.2487   124.2068   183.1058   153.6563
      1.0200    26.4107    33.8323    30.1215    -7.4216    -0.2464   116.3090   171.8122   144.0606
      1.0300    26.4448    33.7946    30.1197    -7.3498    -0.2440   107.8417   159.9887   133.9152
      1.0400    26.4680    33.7408    30.1044    -7.2728    -0.2416    98.7639   147.0968   122.9303
      1.0500    26.4814    33.6724    30.0769    -7.1909    -0.2391    89.1496   133.8198   111.4847
      1.0600    26.4859    33.5905    30.0382    -7.1046    -0.2365    79.3459   120.3921    99.8690
      1.0700    26.4824    33.4967    29.9895    -7.0142    -0.2339    69.3886   106.1238    87.7562
     1.08000   26.47201   33.39217   29.93209   -6.92016   -0.23120   58.70760   91.17036   74.93898
     1.09000   26.45573   33.27856   29.86715   -6.82283   -0.22844   48.10342   76.75185   62.42764
     1.10000   26.43464   33.15728   29.79596   -6.72264   -0.22562   37.11708   61.41674   49.26691
     1.11000   26.40984   33.02985   29.71985   -6.62001   -0.22275   26.28363   46.38736   36.33549
     1.12000   26.38241   32.89779   29.64010   -6.51538   -0.21982   15.56399   31.20428   23.38414
     1.13000   26.35342   32.76261   29.55801   -6.40919   -0.21683    4.42500   15.79269   10.10885
     1.14000   26.32398   32.62584   29.47491   -6.30186   -0.21380   -6.06538    0.99182   -2.53678
     1.15000   26.29516   32.48898   29.39207   -6.19382   -0.21073  -16.97544  -14.11441  -15.54492
     1.16000   26.26803   32.35352   29.31078   -6.08550   -0.20762  -27.42740  -28.22848  -27.82794
     1.17000   26.24364   32.22089   29.23227   -5.97726   -0.20447  -37.07849  -42.72418  -39.90134
     1.18000   26.22295   32.09254   29.15775   -5.86958   -0.20130  -46.99772  -56.15312  -51.57542
     1.19000   26.20697   31.96979   29.08838   -5.76283   -0.19811  -56.42015  -69.35216  -62.88615
     1.20000   26.19663   31.85398   29.02531   -5.65736   -0.19491  -64.96442  -81.71097  -73.33769
     1.21000   26.19278   31.74635   28.96956   -5.55356   -0.19170  -73.58478  -93.84061  -83.71269
      1.2200    26.1963    31.6481    28.9222    -5.4518    -0.1885   -80.7945  -104.6361   -92.7153
      1.2300    26.2079    31.5603    28.8841    -5.3524    -0.1853   -88.3867  -114.8607  -101.6237
      1.2400    26.2283    31.4840    28.8562    -5.2557    -0.1821   -94.5665  -124.2068  -109.3867
      1.2500    26.2582    31.4201    28.8392    -5.1619    -0.1790  -100.1741  -132.9425  -116.5583
      1.2600    26.2981    31.3695    28.8338    -5.0714    -0.1759  -105.3240  -140.1904  -122.7572
      1.2700    26.3486    31.3330    28.8408    -4.9844    -0.1728  -109.5583  -146.7898  -128.1741
      1.2800    26.4100    31.3111    28.8605    -4.9011    -0.1698  -112.7245  -151.9778  -132.3512
      1.2900    26.4826    31.3044    28.8935    -4.8218    -0.1669  -115.4711  -156.8607  -136.1659
      1.3000    26.5668    31.3134    28.9401    -4.7465    -0.1640  -117.0719  -159.6435  -138.3577
    1.310      26.66      31.34      29.00     -4.676     -.1612     -118.0     -162.1     -140.1   
    1.320      26.77      31.38      29.07     -4.609     -.1585     -118.1     -163.0     -140.6   
    1.330      26.89      31.44      29.16     -4.547     -.1559     -117.0     -163.1     -140.1   
    1.340      27.02      31.51      29.27     -4.489     -.1534     -115.6     -161.8     -138.7   
    1.350      27.16      31.60      29.38     -4.437     -.1510     -113.0     -159.9     -136.4   
    1.360      27.32      31.71      29.51     -4.389     -.1487     -109.6     -156.1     -132.8   
    1.370      27.48      31.83      29.66     -4.345     -.1465     -105.6     -152.0     -128.8   
    1.380      27.66      31.96      29.81     -4.306     -.1444     -100.5     -146.6     -123.6   
      1.3900    27.8445    32.1164    29.9804    -4.2719    -0.1425   -94.9099  -140.2285  -117.5692
      1.4000    28.0396    32.2818    30.1607    -4.2422    -0.1407   -88.3104  -132.7517  -110.5311
      1.4100    28.2436    32.4605    30.3521    -4.2169    -0.1389   -81.3676  -124.5882  -102.9780
      1.4200    28.4557    32.6517    30.5537    -4.1960    -0.1373   -73.5475  -115.6618   -94.6047
      1.4300    28.6752    32.8544    30.7648    -4.1792    -0.1358   -65.3451  -105.4372   -85.3911
     1.44000   28.90121   33.06773   30.98447   -4.16651   -0.13447  -56.07549  -95.06130  -75.56840
     1.45000   29.13284   33.29051   31.21167   -4.15767   -0.13321  -47.11160  -83.69462  -65.40311
     1.46000   29.36917   33.52166   31.44541   -4.15249   -0.13205  -36.92634  -71.71645  -54.32140
     1.47000   29.60919   33.75998   31.68458   -4.15078   -0.13100  -26.97028  -59.43380  -43.20204
     1.48000   29.85191   34.00424   31.92808   -4.15232   -0.13005  -16.21249  -46.46310  -31.33780
     1.49000   30.09626   34.25314   32.17470   -4.15689   -0.12920   -5.37867  -33.11124  -19.24496
     1.50000   30.34114   34.50536   32.42325   -4.16422   -0.12843    5.53132  -19.68388   -7.07628
     1.51000   30.58546   34.75953   32.67250   -4.17407   -0.12775   16.93729   -5.79835    5.56947
     1.52000   30.82810   35.01429   32.92119   -4.18619   -0.12716   27.88549    8.46864   18.17707
     1.53000   31.06794   35.26820   33.16807   -4.20026   -0.12664   39.32914   22.04873   30.68893
     1.54000   31.30384   35.51991   33.41188   -4.21606   -0.12618   50.65928   36.39228   43.52578
     1.55000   31.53469   35.76797   33.65133   -4.23329   -0.12580   61.72266   50.20211   55.96238
     1.56000   31.75935   36.01102   33.88519   -4.25167   -0.12547   72.63197   64.16333   68.39765
     1.57000   31.97676   36.24766   34.11221   -4.27090   -0.12520   83.57918   77.51387   80.54652
     1.58000   32.18581   36.47654   34.33118   -4.29074   -0.12498   93.91691   90.94147   92.42919
      1.5900    32.3855    36.6963    34.5409    -4.3109    -0.1248   103.7600   103.7600   103.7600
      1.6000    32.5747    36.9057    34.7402    -4.3310    -0.1247   114.0597   115.9670   115.0133
    1.610      32.75      37.10      34.93     -4.351     -.1246      122.9      128.3      125.6   
    1.620      32.92      37.29      35.10     -4.370     -.1245      131.7      139.2      135.5   
    1.630      33.07      37.46      35.27     -4.389     -.1245      139.8      150.1      145.0   
    1.640      33.21      37.62      35.41     -4.407     -.1244      147.7      160.1      153.9   
    1.650      33.33      37.76      35.54     -4.423     -.1244      154.7      169.4      162.1   
    1.660      33.44      37.88      35.66     -4.438     -.1245      160.9      178.1      169.5   
    1.670      33.53      37.98      35.76     -4.451     -.1245      166.6      185.4      176.0   
    1.680      33.61      38.07      35.84     -4.462     -.1245      171.7      192.6      182.2   
    1.690      33.67      38.14      35.90     -4.472     -.1246      175.9      198.4      187.2   
    1.700      33.71      38.19      35.95     -4.479     -.1246      179.2      203.7      191.5   
    1.710      33.73      38.21      35.97     -4.483     -.1246      182.1      207.7      194.9   
    1.720      33.73      38.22      35.98     -4.485     -.1247      184.1      210.8      197.4   
    1.730      33.72      38.21      35.96     -4.484     -.1247      185.2      213.5      199.4   
    1.740      33.69      38.17      35.93     -4.481     -.1247      185.6      214.5      200.0   
    1.750      33.64      38.11      35.87     -4.475     -.1247      185.2      215.3      200.3   
    1.760      33.57      38.03      35.80     -4.465     -.1247      184.2      214.5      199.4   
    1.770      33.48      37.93      35.71     -4.453     -.1247      182.3      213.5      197.9   
    1.780      33.37      37.81      35.59     -4.437     -.1247      179.7      211.1      195.4   
    1.790      33.25      37.67      35.46     -4.418     -.1246      176.5      207.8      192.1   
    1.800      33.11      37.50      35.31     -4.397     -.1245      172.7      204.1      188.4   
    1.810      32.95      37.32      35.13     -4.372     -.1244      167.7      199.1      183.4   
    1.820      32.77      37.12      34.94     -4.343     -.1243      162.7      194.1      178.4   
    1.830      32.58      36.89      34.74     -4.312     -.1241      156.9      187.6      172.2   
    1.840      32.37      36.65      34.51     -4.278     -.1239      150.5      180.8      165.7   
    1.850      32.15      36.39      34.27     -4.240     -.1237      144.0      173.2      158.6   
    1.860      31.91      36.11      34.01     -4.200     -.1235      136.4      165.5      150.9   
    1.870      31.66      35.82      33.74     -4.157     -.1232      128.7      156.6      142.6   
    1.880      31.40      35.51      33.45     -4.111     -.1229      120.8      147.9      134.4   
    1.890      31.12      35.19      33.15     -4.062     -.1225      112.3      138.2      125.3   
    1.900      30.84      34.85      32.84     -4.011     -.1221      103.8      128.3      116.1   
      1.9100    30.5385    34.4956    32.5171    -3.9571    -0.1217    94.8717   118.6373   106.7545
      1.9200    30.2316    34.1326    32.1821    -3.9010    -0.1212    86.0979   108.1087    97.1033
     1.93000   29.91611   33.75878   31.83744   -3.84267   -0.12070   76.52297   97.73273   87.12785
     1.94000   29.59295   33.37516   31.48406   -3.78222   -0.12013   67.55842   87.20415   77.38129
     1.95000   29.26303   32.98283   31.12293   -3.71980   -0.11952   58.32683   76.21780   67.27232
     1.96000   28.92729   32.58287   30.75508   -3.65559   -0.11886   49.13281   66.14619   57.63950
     1.97000   28.58663   32.17630   30.38147   -3.58967   -0.11815   39.63431   54.85480   47.24455
     1.98000   28.24201   31.76424   30.00312   -3.52224   -0.11740   30.89911   44.86092   37.88002
     1.99000   27.89429   31.34770   29.62099   -3.45341   -0.11659   21.55308   34.14161   27.84734
     2.00000   27.54442   30.92774   29.23608   -3.38331   -0.11572   13.31332   24.26152   18.78742
     2.01000   27.19323   30.50535   28.84929   -3.31213   -0.11481    4.65394   14.22885    9.44139
     2.02000   26.84156   30.08155   28.46155   -3.23999   -0.11384   -3.89100    4.61579    0.36240
     2.03000   26.49028   29.65728   28.07378   -3.16700   -0.11281  -11.59670   -4.80653   -8.20161
     2.04000   26.14016   29.23349   27.68683   -3.09333   -0.11173  -19.30240  -13.73294  -16.51767
     2.05000   25.79198   28.81108   27.30153   -3.01910   -0.11058  -26.62601  -22.23920  -24.43260
     2.06000   25.44646   28.39089   26.91867   -2.94443   -0.10938  -33.68304  -30.51691  -32.09997
     2.07000   25.10430   27.97375   26.53903   -2.86945   -0.10812  -40.24609  -38.10981  -39.17795
     2.08000   24.76618   27.56042   26.16330   -2.79424   -0.10680  -46.19717  -45.73940  -45.96828
     2.09000   24.43267   27.15166   25.79217   -2.71899   -0.10542  -52.18516  -52.03257  -52.10886
     2.10000   24.10438   26.74811   25.42625   -2.64373   -0.10398  -57.44945  -58.63201  -58.04073
     2.11000   23.78184   26.35042   25.06613   -2.56858   -0.10247  -62.17968  -64.23962  -63.20966
     2.12000   23.46551   25.95915   24.71233   -2.49364   -0.10091  -66.83363  -69.65650  -68.24506
     2.13000   23.15586   25.57485   24.36536   -2.41899   -0.09928  -70.64832  -74.23415  -72.44124
     2.14000   22.85328   25.19798   24.02563   -2.34469   -0.09759  -74.19424  -78.54289  -76.36856
     2.15000   22.55812   24.82896   23.69354   -2.27083   -0.09584  -77.32221  -82.47195  -79.89708
     2.16000   22.27069   24.46818   23.36944   -2.19749   -0.09403  -80.07065  -85.44939  -82.76002
     2.17000   21.99127   24.11595   23.05361   -2.12468   -0.09216  -82.24503  -88.31041  -85.27772
    2.180      21.72      23.77      22.75     -2.052     -.9023E-1  -83.92     -90.60     -87.26   
    2.190      21.46      23.44      22.45     -1.981     -.8825E-1  -85.30     -92.20     -88.75   
    2.200      21.20      23.11      22.16     -1.910     -.8620E-1  -86.36     -93.61     -89.99   
    2.210      20.96      22.80      21.88     -1.840     -.8411E-1  -86.98     -94.34     -90.66   
    2.220      20.72      22.49      21.61     -1.771     -.8195E-1  -87.24     -95.06     -91.15   
    2.230      20.49      22.19      21.34     -1.702     -.7975E-1  -87.05     -94.95     -91.00   
    2.240      20.27      21.91      21.09     -1.634     -.7749E-1  -86.63     -94.64     -90.64   
    2.250      20.06      21.63      20.85     -1.567     -.7518E-1  -85.91     -94.11     -90.01   
    2.260      19.86      21.36      20.61     -1.501     -.7283E-1  -84.95     -93.00     -88.98   
    2.270      19.67      21.10      20.38     -1.436     -.7043E-1  -83.62     -91.78     -87.70   
    2.280      19.48      20.85      20.17     -1.371     -.6799E-1  -82.02     -90.26     -86.14   
    2.290      19.30      20.61      19.96     -1.307     -.6551E-1  -80.34     -88.46     -84.40   
    2.300      19.13      20.38      19.76     -1.244     -.6299E-1  -78.35     -86.36     -82.36   
    2.310      18.97      20.15      19.56     -1.182     -.6043E-1  -76.29     -84.23     -80.26   
    2.320      18.82      19.94      19.38     -1.121     -.5784E-1  -73.97     -81.86     -77.92   
    2.330      18.67      19.73      19.20     -1.060     -.5522E-1  -71.64     -79.38     -75.51   
    2.340      18.53      19.53      19.03     -1.001     -.5257E-1  -69.04     -76.83     -72.94   
    2.350      18.40      19.34      18.87     -.9416     -.4989E-1  -66.57     -74.01     -70.29   
    2.360      18.28      19.16      18.72     -.8834     -.4719E-1  -63.82     -71.34     -67.58   
    2.370      18.16      18.98      18.57     -.8259     -.4447E-1  -61.15     -68.51     -64.83   
    2.380      18.04      18.81      18.43     -.7691     -.4174E-1  -58.48     -65.77     -62.12   
    2.390      17.94      18.65      18.29     -.7131     -.3898E-1  -55.66     -62.68     -59.17   
    2.400      17.83      18.49      18.16     -.6577     -.3621E-1  -52.99     -60.12     -56.55   
    2.410      17.74      18.34      18.04     -.6031     -.3343E-1  -50.32     -57.26     -53.79   
    2.420      17.65      18.20      17.92     -.5492     -.3064E-1  -47.49     -54.47     -50.98   
    2.430      17.56      18.06      17.81     -.4960     -.2785E-1  -45.09     -51.92     -48.50   
    2.440      17.48      17.92      17.70     -.4434     -.2505E-1  -42.46     -49.21     -45.83   
    2.450      17.40      17.79      17.60     -.3915     -.2225E-1  -39.86     -46.81     -43.34   
    2.460      17.33      17.67      17.50     -.3404     -.1945E-1  -37.54     -44.44     -40.99   
    2.470      17.26      17.55      17.40     -.2899     -.1666E-1  -35.17     -42.00     -38.59   
    2.480      17.19      17.43      17.31     -.2401     -.1387E-1  -33.07     -39.86     -36.47   
    2.490      17.13      17.32      17.22     -.1910     -.1109E-1  -30.86     -37.92     -34.39   
    2.500      17.07      17.21      17.14     -.1425     -.8318E-2  -28.84     -35.78     -32.31   
    2.510      17.01      17.10      17.06     -.9483E-1  -.5560E-2  -26.93     -34.14     -30.54   
    2.520      16.95      17.00      16.98     -.4783E-1  -.2817E-2  -25.33     -32.46     -28.90   
    2.530      16.90      16.90      16.90     -.1535E-2  -.9084E-4  -23.46     -30.82     -27.14   
    2.540      16.85      16.81      16.83     0.4402E-1  0.2615E-2  -21.93     -29.45     -25.69   
    2.550      16.80      16.72      16.76     0.8882E-1  0.5300E-2  -20.68     -28.08     -24.38   
    2.560      16.76      16.63      16.69     0.1329     0.7960E-2  -19.15     -27.01     -23.08   
    2.570      16.72      16.54      16.63     0.1762     0.1059E-1  -18.08     -25.79     -21.93   
    2.580      16.67      16.46      16.56     0.2187     0.1320E-1  -16.98     -25.14     -21.06   
    2.590      16.63      16.37      16.50     0.2604     0.1578E-1  -15.87     -23.96     -19.91   
    2.600      16.60      16.29      16.45     0.3012     0.1832E-1  -15.03     -23.38     -19.21   
    2.610      16.56      16.22      16.39     0.3413     0.2082E-1  -14.30     -22.81     -18.56   
     2.62000   16.52316   16.14268   16.33292    0.38048    0.02330  -13.58035  -22.27787  -17.92911
     2.63000   16.48899   16.07018   16.27958    0.41880    0.02573  -13.00814  -21.78196  -17.39505
     2.64000   16.45611   15.99986   16.22799    0.45625    0.02812  -12.51223  -21.43864  -16.97544
     2.65000   16.42449   15.93168   16.17808    0.49280    0.03046  -11.97846  -21.22934  -16.60390
     2.66000   16.39406   15.86563   16.12984    0.52843    0.03276  -11.71142  -20.96230  -16.33686
     2.67000   16.36481   15.80167   16.08324    0.56314    0.03501  -11.32967  -20.79014  -16.05991
     2.68000   16.33669   15.73979   16.03824    0.59690    0.03722  -11.25338  -20.65662  -15.95500
     2.69000   16.30969   15.67998   15.99483    0.62971    0.03937  -10.94794  -20.73243  -15.84018
     2.70000   16.28379   15.62224   15.95301    0.66155    0.04147  -10.79536  -20.67521  -15.73528
     2.71000   16.25897   15.56657   15.91277    0.69240    0.04351  -10.75747  -20.63755  -15.69751
     2.72000   16.23522   15.51296   15.87409    0.72226    0.04550  -10.64303  -20.61848  -15.63075
     2.73000   16.21254   15.46142   15.83698    0.75112    0.04743  -10.71932  -20.96180  -15.84056
     2.74000   16.19093   15.41197   15.80145    0.77896    0.04930  -10.64303  -20.69477  -15.66890
     2.75000   16.17039   15.36458   15.76748    0.80580    0.05111  -10.68117  -21.05717  -15.86917
     2.76000   16.15091   15.31931   15.73511    0.83160    0.05285  -10.75747  -21.03810  -15.89778
     2.77000   16.13251   15.27614   15.70432    0.85637    0.05453  -10.79561  -21.15254  -15.97408
     2.78000   16.11519   15.23508   15.67513    0.88011    0.05615  -10.75721  -21.13296  -15.94509
     2.79000   16.09895   15.19614   15.64754    0.90281    0.05770  -10.91006  -21.28605  -16.09805
     2.80000   16.08379   15.15932   15.62156    0.92447    0.05918  -10.79587  -21.34378  -16.06983
     2.81000   16.06972   15.12464   15.59718    0.94508    0.06059  -10.94820  -21.38142  -16.16481
     2.82000   16.05674   15.09210   15.57442    0.96464    0.06194  -10.98635  -21.40049  -16.19342
     2.83000   16.04486   15.06170   15.55328    0.98316    0.06321  -10.87191  -21.40049  -16.13620
     2.84000   16.03407   15.03344   15.53375    1.00063    0.06442  -10.94820  -21.26698  -16.10759
     2.85000   16.02438   15.00730   15.51584    1.01707    0.06555  -10.94820  -21.32420  -16.13620
     2.86000   16.01578   14.98330   15.49954    1.03247    0.06661  -10.71932  -21.19069  -15.95500
     2.87000   16.00825   14.96142   15.48483    1.04683    0.06760  -10.75721  -21.13296  -15.94509
     2.88000   16.00180   14.94165   15.47172    1.06015    0.06852  -10.64277  -20.86594  -15.75435
     2.89000   15.99641   14.92396   15.46019    1.07245    0.06937  -10.47136  -20.84736  -15.65936
     2.90000   15.99207   14.90837   15.45022    1.08371    0.07014  -10.35692  -20.52311  -15.44002
     2.91000   15.98877   14.89482   15.44179    1.09395    0.07084  -10.08989  -20.29423  -15.19206
     2.92000   15.98648   14.88330   15.43489    1.10317    0.07147   -9.84194  -20.06535  -14.95364
     2.93000   15.98517   14.87379   15.42948    1.11137    0.07203   -9.68935  -19.76017  -14.72476
     2.94000   15.98483   14.86626   15.42554    1.11857    0.07251   -9.34625  -19.45546  -14.40085
     2.95000   15.98542   14.86067   15.42304    1.12475    0.07293   -9.07921  -18.99768  -14.03845
     2.96000   15.98692   14.85698   15.42195    1.12994    0.07327   -8.69753  -18.76835  -13.73294
     2.97000   15.98929   14.85517   15.42223    1.13413    0.07354   -8.27771  -18.34829  -13.31300
     2.98000   15.99249   14.85519   15.42384    1.13731    0.07374   -7.97254  -17.85239  -12.91247
     2.99000   15.99649   14.85699   15.42674    1.13950    0.07387   -7.61034  -17.49042  -12.55038
     3.00000   16.00125   14.86055   15.43089    1.14070    0.07392   -7.01906  -16.88007  -11.94956
     3.01000   16.00670   14.86579   15.43625    1.14092    0.07391   -6.75203  -16.53675  -11.64439
     3.02000   16.01284   14.87269   15.44276    1.14015    0.07383   -6.14167  -16.00269  -11.07218
     3.03000   16.01959   14.88118   15.45039    1.13841    0.07368   -5.72206  -15.48770  -10.60488
     3.04000   16.02691   14.89123   15.45907    1.13569    0.07346   -5.14985  -15.10623  -10.12804
     3.05000   16.03475   14.90278   15.46877    1.13197    0.07318   -4.80653  -14.40051   -9.60352
     3.06000   16.04307   14.91577   15.47942    1.12730    0.07283   -4.23422  -13.88519   -9.05971
     3.07000   16.05181   14.93016   15.49098    1.12166    0.07241   -3.66203  -13.38929   -8.52566
     3.08000   16.06092   14.94588   15.50340    1.11504    0.07192   -3.20443  -12.76049   -7.98246
     3.09000   16.07035   14.96288   15.51662    1.10747    0.07137   -2.63221  -12.41716   -7.52468
     3.10000   16.08005   14.98112   15.53058    1.09893    0.07076   -2.21253  -11.67300   -6.94276
     3.11000   16.08996   15.00053   15.54525    1.08943    0.07008   -1.56403  -11.15801   -6.36102
     3.12000   16.10003   15.02105   15.56054    1.07898    0.06934   -1.18256  -10.68117   -5.93187
     3.13000   16.11023   15.04265   15.57644    1.06758    0.06854   -0.61035   -9.99453   -5.30244
     3.14000   16.12048   15.06524   15.59286    1.05524    0.06767   -0.22888   -9.57491   -4.90190
     3.15000   16.13075   15.08879   15.60977    1.04197    0.06675    0.30517   -8.94527   -4.32005
     3.16000   16.14100   15.11323   15.62712    1.02777    0.06577    0.76292   -8.46844   -3.85276
     3.17000   16.15117   15.13852   15.64485    1.01264    0.06473    1.25885   -7.87736   -3.30926
     3.18000   16.16121   15.16461   15.66291    0.99660    0.06363    1.56403   -7.38145   -2.90871
     3.19000   16.17109   15.19143   15.68126    0.97967    0.06247    2.02179   -6.80925   -2.39373
     3.20000   16.18078   15.21893   15.69985    0.96185    0.06127    2.44141   -6.31334   -1.93596
     3.21000   16.19022   15.24706   15.71864    0.94316    0.06000    2.67029   -5.83650   -1.58310
     3.22000   16.19939   15.27577   15.73758    0.92361    0.05869    3.24250   -5.26429   -1.01090
     3.23000   16.20824   15.30501   15.75663    0.90322    0.05732    3.47138   -4.76838   -0.64850
     3.24000   16.21674   15.33473   15.77574    0.88201    0.05591    3.66212   -4.31062   -0.32425
     3.25000   16.22488   15.36488   15.79488    0.86000    0.05445    4.11988   -3.73841    0.19074
     3.26000   16.23261   15.39540   15.81401    0.83721    0.05294    4.23432   -3.29972    0.46730
     3.27000   16.23992   15.42625   15.83309    0.81367    0.05139    4.46320   -2.78473    0.83924
     3.28000   16.24679   15.45738   15.85208    0.78940    0.04980    4.73023   -2.32697    1.20163
     3.29000   16.25318   15.48874   15.87096    0.76443    0.04817    4.80653   -1.75476    1.52588
     3.30000   16.25908   15.52028   15.88968    0.73880    0.04650    5.14985   -1.27793    1.93596
     3.31000   16.26448   15.55195   15.90821    0.71253    0.04479    5.11170   -0.97275    2.06948
     3.32000   16.26937   15.58371   15.92654    0.68566    0.04305    5.45503   -0.30518    2.57493
     3.33000   16.27371   15.61550   15.94460    0.65821    0.04128    5.45490    0.11444    2.78467
     3.34000   16.27750   15.64728   15.96239    0.63022    0.03948    5.37861    0.51497    2.94679
     3.35000   16.28076   15.67901   15.97988    0.60175    0.03766    5.68391    1.04904    3.36648
     3.36000   16.28345   15.71063   15.99704    0.57282    0.03581    5.68391    1.56403    3.62397
     3.37000   16.28556   15.74209   16.01383    0.54347    0.03394    5.64590    1.96462    3.80526
     3.38000   16.28712   15.77336   16.03024    0.51376    0.03205    5.83664    2.42239    4.12952
     3.39000   16.28809   15.80439   16.04624    0.48370    0.03014    5.72206    2.99454    4.35830
     3.40000   16.28848   15.83512   16.06180    0.45337    0.02823    5.79821    3.35686    4.57754
     3.41000   16.28830   15.86551   16.07690    0.42279    0.02630    5.83636    3.83369    4.83502
     3.42000   16.28753   15.89552   16.09153    0.39202    0.02436    5.83650    4.38691    5.11170
     3.43000   16.28619   15.92508   16.10563    0.36110    0.02242    5.87464    4.78745    5.33105
     3.44000   16.28425   15.95417   16.11921    0.33008    0.02048    5.76020    5.11170    5.43595
     3.45000   16.28174   15.98275   16.13224    0.29898    0.01853    5.91279    5.79835    5.85557
     3.46000   16.27863   16.01075   16.14469    0.26788    0.01659    5.72206    6.14167    5.93187
    3.470      16.27      16.04      16.16     0.2368     0.1466E-1   5.875      6.447      6.161   
    3.480      16.27      16.06      16.17     0.2058     0.1273E-1   5.798      7.095      6.447   
    3.490      16.27      16.09      16.18     0.1749     0.1081E-1   5.875      7.439      6.657   
    3.500      16.26      16.12      16.19     0.1442     0.8909E-2   5.875      7.820      6.847   
    3.510      16.25      16.14      16.20     0.1137     0.7019E-2   5.836      8.430      7.133   
    3.520      16.25      16.16      16.21     0.8343E-1  0.5148E-2   5.798      8.545      7.172   
    3.530      16.24      16.19      16.21     0.5344E-1  0.3296E-2   5.989      9.156      7.572   
    3.540      16.23      16.21      16.22     0.2377E-1  0.1465E-2   5.875      9.537      7.706   
    3.550      16.22      16.23      16.23     -.5535E-2  -.3411E-3   6.065      9.804      7.935   
    3.560      16.22      16.25      16.23     -.3447E-1  -.2123E-2   5.874      10.22      8.049   
    3.570      16.21      16.27      16.24     -.6296E-1  -.3877E-2   6.180      10.68      8.430   
    3.580      16.20      16.29      16.24     -.9100E-1  -.5603E-2   6.027      10.95      8.488   
    3.590      16.18      16.30      16.24     -.1185     -.7298E-2   6.142      11.29      8.717   
    3.600      16.17      16.32      16.25     -.1456     -.8961E-2   6.371      11.75      9.060   
    3.610      16.16      16.33      16.25     -.1721     -.1059E-1   6.180      11.83      9.003   
    3.620      16.15      16.35      16.25     -.1980     -.1219E-1   6.409      12.25      9.327   
    3.630      16.14      16.36      16.25     -.2234     -.1375E-1   6.523      12.63      9.575   
    3.640      16.12      16.37      16.25     -.2481     -.1527E-1   6.447      12.78      9.613   
     3.65000   16.10700   16.37920   16.24310   -0.27220   -0.01676    6.67573   13.04629    9.86101
     3.66000   16.09175   16.38741   16.23957   -0.29566   -0.01821    6.75219   13.38993   10.07106
     3.67000   16.07581   16.39427   16.23504   -0.31845   -0.01962    6.79034   13.42808   10.10921
     3.68000   16.05920   16.39979   16.22950   -0.34058   -0.02099    6.82832   13.96182   10.39507
     3.69000   16.04191   16.40391   16.22291   -0.36200   -0.02231    6.94276   13.96182   10.45229
     3.70000   16.02392   16.40663   16.21528   -0.38271   -0.02360    6.98091   14.11441   10.54766
     3.71000   16.00524   16.40794   16.20659   -0.40270   -0.02485    7.17164   14.38144   10.77654
     3.72000   15.98584   16.40781   16.19683   -0.42197   -0.02605    7.07628   14.53402   10.80515
     3.73000   15.96573   16.40623   16.18598   -0.44050   -0.02721    7.19072   14.80105   10.99589
     3.74000   15.94490   16.40316   16.17403   -0.45826   -0.02833    7.19038   14.80035   10.99536
     3.75000   15.92336   16.39861   16.16098   -0.47525   -0.02941    7.32388   14.91478   11.11933
     3.76000   15.90108   16.39257   16.14682   -0.49149   -0.03044    7.09535   15.29697   11.19616
     3.77000   15.87809   16.38500   16.13155   -0.50691   -0.03142    7.45775   15.22067   11.33921
     3.78000   15.85436   16.37591   16.11513   -0.52155   -0.03236    7.20979   15.37326   11.29152
     3.79000   15.82991   16.36527   16.09759   -0.53537   -0.03326    7.15274   15.48807   11.32041
     3.80000   15.80474   16.35309   16.07891   -0.54836   -0.03410    7.24811   15.44992   11.34902
     3.81000   15.77884   16.33937   16.05910   -0.56053   -0.03490    7.09535   15.79288   11.44411
     3.82000   15.75224   16.32406   16.03815   -0.57183   -0.03565    6.98091   15.60214   11.29152
     3.83000   15.72493   16.30720   16.01607   -0.58227   -0.03636    6.98091   15.75473   11.36782
     3.84000   15.69693   16.28876   15.99285   -0.59183   -0.03701    6.82832   15.75473   11.29152
     3.85000   15.66824   16.26875   15.96850   -0.60050   -0.03761    6.65666   15.90732   11.28199
     3.86000   15.63889   16.24714   15.94302   -0.60825   -0.03815    6.46592   15.79288   11.12940
     3.87000   15.60890   16.22396   15.91643   -0.61506   -0.03864    6.31334   15.86917   11.09125
     3.88000   15.57827   16.19919   15.88873   -0.62092   -0.03908    6.12260   15.86917   10.99589
     3.89000   15.54703   16.17283   15.85993   -0.62580   -0.03946    5.85557   15.75473   10.80515
     3.90000   15.51520   16.14490   15.83005   -0.62970   -0.03978    5.60762   15.83102   10.71932
     3.91000   15.48282   16.11538   15.79910   -0.63256   -0.04004    5.32151   15.67844   10.49997
     3.92000   15.44990   16.08430   15.76710   -0.63440   -0.04024    4.99726   15.75473   10.37600
     3.93000   15.41648   16.05163   15.73406   -0.63515   -0.04037    4.63476   15.48733   10.06104
     3.94000   15.38260   16.01742   15.70001   -0.63482   -0.04043    4.36773   15.48733    9.92753
     3.95000   15.34828   15.98166   15.66497   -0.63338   -0.04043    3.96729   15.43048    9.69889
     3.96000   15.31356   15.94436   15.62896   -0.63079   -0.04036    3.45231   15.20160    9.32695
     3.97000   15.27850   15.90553   15.59202   -0.62703   -0.04021    3.29972   15.06808    9.18390
     3.98000   15.24311   15.86520   15.55416   -0.62209   -0.04000    2.61307   14.83920    8.72614
     3.99000   15.20746   15.82339   15.51542   -0.61593   -0.03970    2.21253   14.68661    8.44957
     4.00000   15.17159   15.78011   15.47585   -0.60852   -0.03932    1.83101   14.36202    8.09652
     4.01000   15.13553   15.73539   15.43546   -0.59986   -0.03886    1.20163   14.13348    7.66756
     4.02000   15.09935   15.68926   15.39431   -0.58990   -0.03832    0.76298   13.92434    7.34366
     4.03000   15.06310   15.64173   15.35242   -0.57863   -0.03769    0.19074   13.58035    6.88554
     4.04000   15.02683   15.59285   15.30984   -0.56602   -0.03697   -0.26703   13.04629    6.38963
     4.05000   14.99059   15.54267   15.26663   -0.55208   -0.03616   -0.95368   12.76019    5.90326
     4.06000   14.95444   15.49120   15.22282   -0.53677   -0.03526   -1.41144   12.47408    5.53132
     4.07000   14.91843   15.43849   15.17846   -0.52007   -0.03426   -2.05994   11.88280    4.91143
     4.08000   14.88262   15.38459   15.13361   -0.50197   -0.03317   -2.65122   11.44411    4.39645
     4.09000   14.84708   15.32955   15.08832   -0.48247   -0.03198   -3.10898   10.91006    3.90054
     4.10000   14.81185   15.27342   15.04264   -0.46157   -0.03068   -3.94822   10.39507    3.22343
     4.11000   14.77702   15.21625   14.99663   -0.43923   -0.02929   -4.42485    9.76518    2.67017
     4.12000   14.74263   15.15810   14.95037   -0.41547   -0.02779   -4.88259    9.21207    2.16474
     4.13000   14.70873   15.09903   14.90388   -0.39031   -0.02619   -5.68391    8.56401    1.44005
     4.14000   14.67539   15.03911   14.85725   -0.36372   -0.02448   -6.23704    7.80107    0.78201
     4.15000   14.64268   14.97840   14.81054   -0.33572   -0.02267   -6.90494    7.11476    0.10491
     4.16000   14.61066   14.91698   14.76382   -0.30632   -0.02075   -7.28609    6.46592   -0.41008
     4.17000   14.57937   14.85492   14.71714   -0.27554   -0.01872   -8.12532    5.62669   -1.24932
     4.18000   14.54889   14.79229   14.67059   -0.24339   -0.01659   -8.54494    4.80653   -1.86921
    4.190      14.52      14.73      14.62     -.2099     -.1435E-1  -9.193      4.120     -2.537   
    4.200      14.49      14.67      14.58     -.1751     -.1201E-1  -9.766      3.109     -3.328   
    4.210      14.46      14.60      14.53     -.1390     -.9564E-2  -10.17      2.365     -3.901   
    4.220      14.44      14.54      14.49     -.1016     -.7016E-2  -10.91      1.469     -4.721   
    4.230      14.41      14.47      14.44     -.6304E-1  -.4365E-2  -11.29     0.5150     -5.388   
    4.240      14.39      14.41      14.40     -.2326E-1  -.1616E-2  -11.79     -.3052     -6.046   
    4.250      14.36      14.35      14.35     0.1766E-1  0.1231E-2  -12.28     -1.316     -6.800   
    4.260      14.34      14.28      14.31     0.5969E-1  0.4171E-2  -12.72     -2.213     -7.467   
    4.270      14.32      14.22      14.27     0.1028     0.7202E-2  -13.18     -3.071     -8.125   
    4.280      14.30      14.15      14.23     0.1468     0.1032E-1  -13.52     -4.177     -8.850   
    4.290      14.28      14.09      14.19     0.1919     0.1352E-1  -13.90     -4.921     -9.412   
     4.30000   14.26542   14.02764   14.14653    0.23778    0.01681  -14.36236   -5.98909  -10.17572
     4.31000   14.25010   13.96556   14.10783    0.28454    0.02017  -14.43866   -6.88554  -10.66210
     4.32000   14.23624   13.90418   14.07021    0.33206    0.02360  -15.01086   -7.70570  -11.35828
     4.33000   14.22387   13.84357   14.03372    0.38030    0.02710  -15.02994   -8.69753  -11.86373
     4.34000   14.21300   13.78383   13.99841    0.42918    0.03066  -15.48770   -9.63213  -12.55992
     4.35000   14.20369   13.72505   13.96437    0.47864    0.03428  -15.43048  -10.35692  -12.89370
     4.36000   14.19592   13.66730   13.93161    0.52861    0.03794  -15.67844  -11.29153  -13.48498
     4.37000   14.18971   13.61069   13.90020    0.57902    0.04166  -15.92639  -12.03539  -13.98089
     4.38000   14.18510   13.55528   13.87019    0.62982    0.04541  -15.77380  -12.93185  -14.35283
     4.39000   14.18207   13.50116   13.84161    0.68091    0.04919  -16.05991  -13.58035  -14.82013
     4.40000   14.18064   13.44840   13.81452    0.73224    0.05301  -15.88824  -14.40051  -15.14438
     4.41000   14.18080   13.39708   13.78894    0.78372    0.05684  -15.92639  -14.95364  -15.44002
     4.42000   14.18255   13.34725   13.76490    0.83530    0.06068  -15.83102  -15.67844  -15.75473
     4.43000   14.18588   13.29900   13.74244    0.88689    0.06454  -15.75473  -16.19342  -15.97408
     4.44000   14.19079   13.25236   13.72157    0.93843    0.06839  -15.58307  -16.86099  -16.22203
     4.45000   14.19726   13.20741   13.70233    0.98985    0.07224  -15.31604  -17.31876  -16.31740
     4.46000   14.20526   13.16418   13.68472    1.04108    0.07608  -15.22067  -17.77652  -16.49860
     4.47000   14.21478   13.12274   13.66876    1.09204    0.07989  -14.89713  -18.15886  -16.52800
     4.48000   14.22579   13.08311   13.65445    1.14268    0.08369  -14.60962  -18.53858  -16.57410
     4.49000   14.23827   13.04533   13.64180    1.19293    0.08745  -14.20910  -18.82467  -16.51688
     4.50000   14.25216   13.00944   13.63080    1.24272    0.09117  -13.79016  -19.09260  -16.44138
     4.51000   14.26743   12.97546   13.62144    1.29197    0.09485  -13.50405  -19.30240  -16.40323
     4.52000   14.28405   12.94340   13.61373    1.34065    0.09848  -12.95092  -19.43592  -16.19342
     4.53000   14.30197   12.91329   13.60763    1.38868    0.10205  -12.47408  -19.51221  -15.99315
     4.54000   14.32113   12.88513   13.60313    1.43600    0.10556  -12.01632  -19.43592  -15.72612
     4.55000   14.34150   12.85892   13.60021    1.48258    0.10901  -11.25338  -19.53129  -15.39233
     4.56000   14.36299   12.83465   13.59882    1.52834    0.11239  -10.89098  -19.41685  -15.15391
     4.57000   14.38558   12.81233   13.59896    1.57324    0.11569  -10.07082  -19.30240  -14.68661
     4.58000   14.40917   12.79194   13.60056    1.61722    0.11891   -9.55583  -18.97816  -14.26699
     4.59000   14.43371   12.77345   13.60358    1.66026    0.12205   -8.77382  -18.88279  -13.82830
     4.60000   14.45914   12.75685   13.60799    1.70229    0.12509   -8.12571  -18.40683  -13.26627
     4.61000   14.48537   12.74209   13.61373    1.74329    0.12805   -7.41960  -18.21521  -12.81741
     4.62000   14.51235   12.72915   13.62075    1.78321    0.13092   -6.56129  -17.81467  -12.18798
     4.63000   14.53999   12.71799   13.62899    1.82200    0.13369   -5.81742  -17.22339  -11.52041
     4.64000   14.56820   12.70855   13.63837    1.85965    0.13635   -5.05448  -16.72748  -10.89098
     4.65000   14.59692   12.70078   13.64885    1.89614    0.13892   -4.19618  -16.28879  -10.24248
     4.66000   14.62606   12.69465   13.66036    1.93141    0.14139   -3.37585  -15.60140   -9.48862
     4.67000   14.65554   12.69008   13.67281    1.96546    0.14375   -2.57480  -14.95293   -8.76387
     4.68000   14.68528   12.68700   13.68614    1.99828    0.14601   -1.62125  -14.38144   -8.00134
     4.69000   14.71517   12.68536   13.70027    2.02981    0.14816   -0.91553  -13.54220   -7.22887
     4.70000   14.74516   12.68507   13.71512    2.06009    0.15021    0.15259  -12.85555   -6.35148
     4.71000   14.77514   12.68608   13.73061    2.08907    0.15215    0.80109  -12.09261   -5.64576
     4.72000   14.80504   12.68829   13.74666    2.11675    0.15398    1.86921  -11.25338   -4.69209
     4.73000   14.83475   12.69162   13.76318    2.14313    0.15571    2.53690  -10.35742   -3.91026
     4.74000   14.86420   12.69599   13.78010    2.16821    0.15734    3.49045   -9.57491   -3.04223
     4.75000   14.89331   12.70132   13.79732    2.19199    0.15887    4.32969   -8.67845   -2.17438
     4.76000   14.92198   12.70752   13.81475    2.21447    0.16030    5.14985   -7.83922   -1.34468
     4.77000   14.95014   12.71450   13.83232    2.23564    0.16162    5.91279   -6.82832   -0.45776
     4.78000   14.97771   12.72216   13.84994    2.25555    0.16286    6.84739   -5.97001    0.43869
     4.79000   15.00459   12.73042   13.86751    2.27417    0.16399    7.43867   -5.01634    1.21117
     4.80000   15.03073   12.73919   13.88496    2.29154    0.16504    8.35420   -4.04359    2.15531
     4.81000   15.05603   12.74835   13.90219    2.30768    0.16599    9.02178   -3.14713    2.93732
     4.82000   15.08043   12.75783   13.91913    2.32260    0.16686    9.67028   -2.21253    3.72887
     4.83000   15.10387   12.76754   13.93570    2.33633    0.16765   10.41414   -1.27793    4.56811
     4.84000   15.12626   12.77737   13.95181    2.34889    0.16836   11.06212   -0.30516    5.37848
     4.85000   15.14754   12.78723   13.96739    2.36031    0.16899   11.59615    0.55311    6.07463
     4.86000   15.16766   12.79704   13.98235    2.37063    0.16954   12.26486    1.44966    6.85726
     4.87000   15.18656   12.80670   13.99663    2.37986    0.17003   12.72204    2.34604    7.53404
     4.88000   15.20418   12.81613   14.01015    2.38806    0.17045   13.19888    3.18528    8.19208
     4.89000   15.22049   12.82523   14.02286    2.39525    0.17081   13.77108    4.08173    8.92641
     4.90000   15.23541   12.83393   14.03467    2.40148    0.17111   14.03811    4.76838    9.40325
     4.91000   15.24894   12.84215   14.04555    2.40678    0.17136   14.49588    5.77928   10.13758
     4.92000   15.26101   12.84980   14.05540    2.41121    0.17155   14.74383    6.37056   10.55719
     4.93000   15.27161   12.85681   14.06421    2.41480    0.17170   15.10623    7.11442   11.11033
     4.94000   15.28069   12.86310   14.07190    2.41759    0.17180   15.31604    7.85829   11.58717
     4.95000   15.28825   12.86861   14.07843    2.41963    0.17187   15.39233    8.48772   11.94003
     4.96000   15.29426   12.87327   14.08377    2.42099    0.17190   15.67844    9.09807   12.38825
     4.97000   15.29871   12.87703   14.08787    2.42169    0.17190   15.65936    9.65120   12.65528
     4.98000   15.30159   12.87981   14.09070    2.42178    0.17187   15.75473   10.26156   13.00814
     4.99000   15.30290   12.88157   14.09224    2.42133    0.17182   15.77380   10.75747   13.26564
     5.00000   15.30263   12.88225   14.09244    2.42037    0.17175   15.71658   11.11986   13.41822
     5.01000   15.30079   12.88183   14.09131    2.41896    0.17166   15.58307   11.59670   13.58989
     5.02000   15.29738   12.88024   14.08881    2.41715    0.17156   15.52511   12.05389   13.78950
     5.03000   15.29243   12.87744   14.08494    2.41498    0.17146   15.29697   12.16891   13.73294
     5.04000   15.28594   12.87343   14.07969    2.41251    0.17135   15.12530   12.68389   13.90460
     5.05000   15.27795   12.86815   14.07305    2.40979    0.17123   14.87735   12.77926   13.82830
     5.06000   15.26846   12.86160   14.06503    2.40686    0.17112   14.61032   12.95092   13.78062
     5.07000   15.25751   12.85375   14.05563    2.40377    0.17102   14.28607   13.23702   13.76155
     5.08000   15.24514   12.84457   14.04485    2.40057    0.17092   13.98089   13.25610   13.61849
     5.09000   15.23136   12.83407   14.03271    2.39729    0.17084   13.59942   13.29424   13.44683
     5.10000   15.21623   12.82224   14.01923    2.39399    0.17076   13.19888   13.46591   13.33239
     5.11000   15.19977   12.80906   14.00442    2.39072    0.17071   12.83648   13.33239   13.08444
     5.12000   15.18204   12.79455   13.98829    2.38749    0.17068   12.39779   13.33239   12.86509
     5.13000   15.16306   12.77870   13.97088    2.38436    0.17067   12.01632   13.23702   12.62667
     5.14000   15.14288   12.76153   13.95221    2.38135    0.17068   11.46319   13.19888   12.33103
     5.15000   15.12155   12.74304   13.93230    2.37851    0.17072   11.13894   12.98907   12.06400
     5.16000   15.09911   12.72326   13.91119    2.37586    0.17079   10.60488   12.87463   11.73975
     5.17000   15.07561   12.70218   13.88890    2.37343    0.17089   10.22341   12.68389   11.45365
     5.18000   15.05109   12.67984   13.86547    2.37125    0.17102    9.82333   12.47468   11.14901
     5.19000   15.02559   12.65625   13.84092    2.36933    0.17118    9.28881   12.26427   10.77654
     5.20000   14.99915   12.63144   13.81530    2.36772    0.17138    9.00270   11.94003   10.47136
     5.21000   14.97182   12.60543   13.78862    2.36639    0.17162    8.56360   11.80595   10.18478
     5.22000   14.94363   12.57824   13.76093    2.36539    0.17189    8.12493   11.46264    9.79379
     5.23000   14.91463   12.54990   13.73226    2.36472    0.17220    7.89644   11.23431    9.56537
     5.24000   14.88483   12.52044   13.70264    2.36439    0.17255    7.59126   10.94820    9.26973
     5.25000   14.85428   12.48989   13.67208    2.36439    0.17294    7.22887   10.71932    8.97409
     5.26000   14.82300   12.45826   13.64063    2.36474    0.17336    7.07628   10.49044    8.78336
     5.27000   14.79102   12.42559   13.60830    2.36543    0.17382    6.90462   10.18526    8.54494
     5.28000   14.75834   12.39190   13.57512    2.36645    0.17432    6.69481    9.95638    8.32559
     5.29000   14.72500   12.35721   13.54110    2.36779    0.17486    6.69481    9.74657    8.22069
     5.30000   14.69098   12.32155   13.50626    2.36943    0.17543    6.56129    9.53676    8.04903
     5.31000   14.65631   12.28493   13.47062    2.37138    0.17604    6.71420    9.42277    8.06849
     5.32000   14.62097   12.24737   13.43417    2.37360    0.17668    6.63759    9.17436    7.90597
     5.33000   14.58496   12.20890   13.39693    2.37607    0.17736    6.80925    9.11714    7.96320
     5.34000   14.54828   12.16951   13.35889    2.37877    0.17807    7.11442    9.00270    8.05856
     5.35000   14.51088   12.12922   13.32005    2.38165    0.17880    7.20979    8.96456    8.08717
     5.36000   14.47276   12.08804   13.28040    2.38472    0.17957    7.64848    8.92641    8.28745
     5.37000   14.43387   12.04596   13.23992    2.38791    0.18036    8.01088    8.98363    8.49725
     5.38000   14.39419   12.00299   13.19859    2.39120    0.18117    8.39235    8.96456    8.67845
     5.39000   14.35366   11.95912   13.15639    2.39454    0.18201    9.00227    9.17393    9.08810
     5.40000   14.31223   11.91433   13.11328    2.39790    0.18286    9.55538    9.25022    9.40280
     5.41000   14.26985   11.86862   13.06923    2.40123    0.18373   10.12804    9.46047    9.79425
     5.42000   14.22645   11.82196   13.02421    2.40449    0.18462   10.92913    9.68935   10.30924
     5.43000   14.18196   11.77433   12.97815    2.40763    0.18551   11.63485    9.99453   10.81469
     5.44000   14.13631   11.72571   12.93101    2.41061    0.18642   12.51283   10.28112   11.39697
     5.45000   14.08941   11.67605   12.88273    2.41336    0.18733   13.31332   10.70025   12.00678
     5.46000   14.04117   11.62533   12.83325    2.41585    0.18825   14.32421   11.06264   12.69343
     5.47000   13.99150   11.57349   12.78250    2.41801    0.18917   15.27789   11.57763   13.42776
     5.48000   13.94031   11.52050   12.73041    2.41980    0.19008   16.25064   12.05447   14.15255
     5.49000   13.88749   11.46631   12.67690    2.42118    0.19099   17.39505   12.62667   15.01086
     5.50000   13.83292   11.41085   12.62189    2.42207    0.19189   18.48224   13.17980   15.83102
     5.51000   13.77652   11.35408   12.56530    2.42244    0.19279   19.58851   13.77108   16.67979
     5.52000   13.71815   11.29592   12.50704    2.42223    0.19367   20.79014   14.49588   17.64301
     5.53000   13.65771   11.23632   12.44701    2.42139    0.19454   21.89640   15.08716   18.49178
     5.54000   13.59507   11.17521   12.38514    2.41986    0.19538   23.13618   15.83102   19.48360
     5.55000   13.53012   11.11252   12.32132    2.41761    0.19621   24.26152   16.55582   20.40867
     5.56000   13.46275   11.04817   12.25546    2.41459    0.19702   25.53945   17.29968   21.41957
     5.57000   13.39282   10.98209   12.18745    2.41074    0.19780   26.72073   18.06177   22.39125
     5.58000   13.32022   10.91420   12.11721    2.40603    0.19856   27.84602   18.76745   23.30673
     5.59000   13.24484   10.84443   12.04464    2.40041    0.19929   29.03129   19.55129   24.29129
     5.60000   13.16655   10.77271   11.96963    2.39384    0.19999   30.11709   20.31330   25.21520
     5.61000   13.08525   10.69896   11.89211    2.38629    0.20066   31.26150   21.09532   26.17841
     5.62000   13.00083   10.62310   11.81196    2.37773    0.20130   32.23425   21.78196   27.00811
     5.63000   12.91318   10.54506   11.72912    2.36812    0.20190   33.34052   22.54490   27.94271
     5.64000   12.82220   10.46476   11.64348    2.35743    0.20247   34.17975   23.21248   28.69611
     5.65000   12.72780   10.38215   11.55497    2.34565    0.20300   35.11435   23.89912   29.50674
     5.66000   12.62989   10.29714   11.46352    2.33274    0.20349   35.87730   24.50948   30.19339
     5.67000   12.52839   10.20969   11.36904    2.31870    0.20395   36.62117   25.08168   30.85143
     5.68000   12.42323   10.11973   11.27148    2.30350    0.20437   37.25059   25.61574   31.43317
     5.69000   12.31434   10.02720   11.17077    2.28714    0.20474   37.82280   26.13072   31.97676
     5.70000   12.20167    9.93206   11.06687    2.26961    0.20508   38.26149   26.53127   32.39638
     5.71000   12.08518    9.83427   10.95973    2.25090    0.20538   38.64296   26.87460   32.75878
     5.72000   11.96482    9.73380   10.84931    2.23102    0.20564   38.83369   27.19884   33.01627
     5.73000   11.84058    9.63060   10.73559    2.20998    0.20586   38.98628   27.38958   33.18793
     5.74000   11.71244    9.52466   10.61855    2.18777    0.20603   39.04350   27.54217   33.29283
     5.75000   11.58039    9.41597   10.49818    2.16442    0.20617   38.96535   27.67436   33.31985
     5.76000   11.44445    9.30452   10.37449    2.13994    0.20627   38.66203   27.52309   33.09256
     5.77000   11.30464    9.19031   10.24748    2.11434    0.20633   38.35685   27.46587   32.91136
     5.78000   11.16100    9.07335   10.11718    2.08765    0.20635   37.91816   27.29421   32.60619
     5.79000   11.01357    8.95366    9.98362    2.05991    0.20633   37.28874   26.96996   32.12935
     5.80000   10.86240    8.83128    9.84684    2.03113    0.20627   36.62117   26.64571   31.63344
     5.81000   10.70758    8.70623    9.70690    2.00135    0.20618   35.74378   26.13073   30.93725
     5.82000   10.54918    8.57857    9.56387    1.97061    0.20605   34.80918   25.59667   30.20292
     5.83000   10.38730    8.44835    9.41782    1.93895    0.20588   33.68384   24.91002   29.29693
     5.84000   10.22205    8.31564    9.26884    1.90641    0.20568   32.52036   24.16615   28.34326
     5.85000   10.05355    8.18051    9.11703    1.87304    0.20544   31.16614   23.32692   27.24653
     5.86000    9.88193    8.04305    8.96249    1.83888    0.20517   29.75470   22.35417   26.05443
     5.87000    9.70734    7.90336    8.80535    1.80398    0.20487   28.19067   21.36234   24.77651
     5.88000    9.52992    7.76153    8.64573    1.76840    0.20454   26.58849   20.25608   23.42229
     5.89000    9.34985    7.61767    8.48376    1.73219    0.20418   24.77769   19.03628   21.90699
     5.90000    9.16731    7.47191    8.31961    1.69540    0.20378   22.98359   17.78606   20.38483
     5.91000    8.98246    7.32437    8.15341    1.65809    0.20336   21.05717   16.42230   18.73973
     5.92000    8.79551    7.17518    7.98535    1.62033    0.20291   19.03538   15.04901   17.04219
     5.93000    8.60666    7.02450    7.81558    1.58216    0.20244   16.97544   13.51359   15.24451
     5.94000    8.41611    6.87246    7.64428    1.54365    0.20193   14.91478   12.07296   13.49387
     5.95000    8.22406    6.71921    7.47164    1.50485    0.20141   12.53071   10.34689   11.43880
     5.96000    8.03077    6.56494    7.29785    1.46583    0.20086   10.39507    8.74521    9.57014
    5.970000   7.836435   6.409781   7.123108   1.426654   0.200285   8.096710   7.095350   7.596030
    5.980000   7.641290   6.253917   6.947604   1.387373   0.199691   5.788814   5.369196   5.579005
    5.990000   7.445566   6.097517   6.771542   1.348049   0.199076   3.461844   3.604896   3.533370
    6.000000   7.249496   5.940757   6.595126   1.308739   0.198440   3.461844   3.604896   3.533370
# 
# YAMBO_SURF@dafne x 001 CPUs * 04/06/2013  16:02 [start]
#                               04/06/2013  16:02 [end]
# 
# Cpu Timing [Min/Max/Average]: 08s/08s/08s
#
# .-Input file : Inputs/06_REELS_full
# | sursp                        # [R] Surface Spectroscopy
# | reels                        # [R] Reflection EELS (3-layer model)
# | % BndsRnXd
# |    1 | 200 |                 # [Xd] Polarization function bands
# | %
# | % EnRngeXd
# |  0.000000 | 6.000000 | eV    # [Xd] Energy range
# | %
# | % DmRngeXd
# |    0.0060 |   0.0060 | eV    # [Xd] Damping range
# | %
# | ETStpsXd=  601               # [Xd] Total Energy steps
# | FFTGvecs= 1007         RL    # [FFT] Plane-waves
# | % XfnQP_E
# |  0.500000 | 1.000000 | 1.000000 |        # [EXTQP Xd] E parameters  (c/v) eV|adim|adim
# | %
# | BulkFile= "Experiment/EPSILON_Si_bulk_RPA.dat" # [RAS] File containing bulk
# | BulkForm= "3ir"              # [RAS] Format of bulk (`3ri`,`3ir`,`2KK`,`3KK`)
# | BlkShift= 0.500000     eV    # [RAS] GW shift of bulk eps
# | BlkBroad= 0.000000     eV    # [RAS] Broadening of bulk eps
# | % Layers
# |  22.00000 | 12.00000 |  0.00000 |        # [RAS] Atomic layers in cell/slab/bulk
# | %
# | % q0x
# | 0.1000E-4 | 0.000    | 0.000    |        # [RAS] [cc] X-polarization direction
# | %
# | % q0y
# |  0.000    |0.1000E-4 | 0.000    |        # [RAS] [cc] Y-polarization direction
# | %
# | #Cutoff                      # [RAS] Cutoff mode (Uncomment to use)
# | CutZero= 0.000000            # [RAS] Zero position of cutoff fn (Frac)
# | CutStep= 1.000000            # [RAS] Width of cutoff function (Frac)
# | E0= 40.00000           eV    # [REELS] Incident energy
# | Theta0= 60.00000             # [REELS] Incident angle   (deg)
# | Thetap= 0.000000             # [REELS] Deflection angle (deg)
# | DetAngle=  0.02618           # [REELS] Detector window  (deg)
# | LossForm= "ar"               # [REELS] Functional form of loss (1b/2b/2e/aq/az/ar/ig/iq/id/ip/ap/is)
# | DetIntMd= "av"               # [REELS] Detector integration (`av`,`no`,`nu`)
# | NumIntPt= 1                  # [REELS] Number of points for integral
# | PenDepth= 0.000000           # [REELS] Penetration depth of electron (a.u.)
# | GausConv= 0.700000     eV    # [REELS] Gaussian convolution (FWHM)
