#                                                           
#  **    **    **     ****     ****  ******     *******     
# //**  **    ****   /**/**   **/** /*////**   **/////**    
#  //****    **//**  /**//** ** /** /*   /**  **     //**   
#   //**    **  //** /** //***  /** /******  /**      /**   
#    /**   **********/**  //*   /** /*//// **/**      /**   
#    /**  /**//////**/**   /    /** /*    /**//**     **    
#    /**  /**     /**/**        /** /*******  //*******     
#    //   //      // //         //  ///////    ///////      
#                                                           
#        Version 4.2.0 Revision 14428 Hash 698a636          
#                  MPI+SLK+OpenMP Build                     
#                http://www.yambo-code.org                  
#
# Absorption @ Q(1) [q->0 direction] :0.1000E-4  0.000     0.000   
#
#
#
# - The Green`s function is Retarded -
# - Using the Length Gauge -
# - [r,Vnl] *is* included -
#
#
#    E/ev[1]      EPS-Im[2]    EPS-Re[3]
#
     0.00000      0.00000     56.15900
   0.1001E-1    0.1326E-1     56.16   
   0.2002E-1    0.2652E-1     56.16   
   0.3003E-1    0.3979E-1     56.16   
   0.4004E-1    0.5306E-1     56.17   
   0.5005E-1    0.6634E-1     56.18   
     0.06006      0.07963     56.18273
     0.07007      0.09293     56.19130
     0.08008      0.10625     56.20125
     0.09009      0.11959     56.21249
     0.10010      0.13294     56.22509
     0.11011      0.14632     56.23896
     0.12012      0.15972     56.25420
     0.13013      0.17314     56.27075
     0.14014      0.18659     56.28868
     0.15015      0.20008     56.30793
     0.16016      0.21359     56.32854
     0.17017      0.22714     56.35046
     0.18018      0.24073     56.37376
     0.19019      0.25435     56.39839
     0.20020      0.26802     56.42440
     0.21021      0.28172     56.45176
     0.22022      0.29548     56.48050
     0.23023      0.30928     56.51058
     0.24024      0.32313     56.54210
     0.25025      0.33704     56.57494
     0.26026      0.35100     56.60920
     0.27027      0.36502     56.64482
     0.28028      0.37909     56.68188
     0.29029      0.39323     56.72030
     0.30030      0.40744     56.76015
     0.31031      0.42171     56.80141
     0.32032      0.43605     56.84414
     0.33033      0.45047     56.88822
     0.34034      0.46496     56.93383
     0.35035      0.47953     56.98080
     0.36036      0.49418     57.02929
     0.37037      0.50891     57.07920
     0.38038      0.52372     57.13056
     0.39039      0.53863     57.18345
     0.40040      0.55363     57.23781
     0.41041      0.56872     57.29366
     0.42042      0.58391     57.35102
     0.43043      0.59920     57.40990
     0.44044      0.61459     57.47028
     0.45045      0.63009     57.53222
     0.46046      0.64570     57.59570
     0.47047      0.66142     57.66077
     0.48048      0.67726     57.72736
     0.49049      0.69322     57.79554
     0.50050      0.70930     57.86531
     0.51051      0.72551     57.93672
     0.52052      0.74184     58.00972
     0.53053      0.75831     58.08433
     0.54054      0.77491     58.16063
     0.55055      0.79166     58.23854
     0.56056      0.80855     58.31813
     0.57057      0.82559     58.39944
     0.58058      0.84278     58.48241
     0.59059      0.86012     58.56710
     0.60060      0.87763     58.65354
     0.61061      0.89529     58.74172
     0.62062      0.91313     58.83166
     0.63063      0.93114     58.92340
     0.64064      0.94932     59.01694
     0.65065      0.96769     59.11225
     0.66066      0.98624     59.20939
     0.67067      1.00499     59.30842
     0.68068      1.02393     59.40931
     0.69069      1.04307     59.51208
     0.70070      1.06241     59.61675
     0.71071      1.08197     59.72337
     0.72072      1.10174     59.83192
     0.73073      1.12173     59.94247
     0.74074      1.14195     60.05500
     0.75075      1.16241     60.16954
     0.76076      1.18310     60.28611
     0.77077      1.20403     60.40476
     0.78078      1.22522     60.52551
     0.79079      1.24666     60.64835
     0.80080      1.26836     60.77333
     0.81081      1.29034     60.90047
     0.82082      1.31259     61.02982
     0.83083      1.33512     61.16137
     0.84084      1.35795     61.29519
     0.85085      1.38107     61.43128
     0.86086      1.40450     61.56964
     0.87087      1.42824     61.71035
     0.88088      1.45230     61.85341
     0.89089      1.47670     61.99889
     0.90090      1.50142     62.14684
     0.91091      1.52650     62.29720
     0.92092      1.55193     62.45006
     0.93093      1.57773     62.60545
     0.94094      1.60389     62.76343
     0.95095      1.63044     62.92401
     0.96096      1.65739     63.08724
     0.97097      1.68474     63.25311
     0.98098      1.71250     63.42177
     0.99099      1.74068     63.59310
     1.00100      1.76930     63.76735
     1.01101      1.79837     63.94441
     1.02102      1.82790     64.12432
     1.03103      1.85790     64.30720
     1.04104      1.88839     64.49301
     1.05105      1.91937     64.68194
     1.06106      1.95087     64.87388
     1.07107      1.98288     65.06902
     1.08108      2.01544     65.26729
     1.09109      2.04855     65.46878
     1.10110      2.08223     65.67361
     1.11111      2.11650     65.88177
     1.12112      2.15137     66.09334
     1.13113      2.18685     66.30835
     1.14114      2.22297     66.52688
     1.15115      2.25975     66.74901
     1.16116      2.29720     66.97477
     1.17117      2.33534     67.20428
     1.18118      2.37419     67.43757
     1.19119      2.41378     67.67471
     1.20120      2.45412     67.91575
     1.21121      2.49524     68.16082
     1.22122      2.53715     68.40997
     1.23123      2.57990     68.66326
     1.24124      2.62349     68.92081
     1.25125      2.66795     69.18265
     1.26126      2.71332     69.44891
     1.27127      2.75962     69.71961
     1.28128      2.80687     69.99497
     1.29129      2.85512     70.27497
     1.30130      2.90439     70.55977
     1.31131      2.95470     70.84940
     1.32132      3.00611     71.14402
     1.33133      3.05864     71.44373
     1.34134      3.11232     71.74860
     1.35135      3.16720     72.05881
     1.36136      3.22331     72.37442
     1.37137      3.28071     72.69558
     1.38138      3.33942     73.02238
     1.39139      3.39950     73.35500
     1.40140      3.46099     73.69346
     1.41141      3.52394     74.03808
     1.42142      3.58841     74.38887
     1.43143      3.65444     74.74597
     1.44144      3.72209     75.10965
     1.45145      3.79143     75.47988
     1.46146      3.86250     75.85701
     1.47147      3.93538     76.24110
     1.48148      4.01013     76.63226
     1.49149      4.08683     77.03085
     1.50150      4.16553     77.43692
     1.51151      4.24633     77.85078
     1.52152      4.32931     78.27251
     1.53153      4.41454     78.70235
     1.54154      4.50213     79.14049
     1.55155      4.59215     79.58724
     1.56156      4.68471     80.04284
     1.57157      4.77991     80.50739
     1.58158      4.87786     80.98129
     1.59159      4.97869     81.46462
     1.60160      5.08249     81.95782
     1.61161      5.18942     82.46124
     1.62162      5.29959     82.97485
     1.63163      5.41314     83.49934
     1.64164      5.53025     84.03477
     1.65165      5.65105     84.58154
     1.66166      5.77572     85.14001
     1.67167      5.90442     85.71056
     1.68168      6.03736     86.29353
     1.69169      6.17474     86.88926
     1.70170      6.31675     87.49828
     1.71171      6.46363     88.12099
     1.72172      6.61562     88.75777
     1.73173      6.77297     89.40919
     1.74174      6.93594     90.07558
     1.75175      7.10483     90.75757
     1.76176      7.27994     91.45570
     1.77177      7.46161     92.17054
     1.78178      7.65017     92.90262
     1.79179      7.84600     93.65260
     1.80180      8.04951     94.42118
     1.81181      8.26113     95.20898
     1.82182      8.48129     96.01663
     1.83183      8.71052     96.84505
     1.84184      8.94934     97.69494
     1.85185      9.19830     98.56724
     1.86186      9.45804     99.46272
      1.8719       9.7292     100.3823
      1.8819      10.0125     101.3270
      1.8919      10.3088     102.2980
      1.9019      10.6187     103.2962
      1.9119      10.9434     104.3227
      1.9219      11.2837     105.3789
      1.9319      11.6408     106.4660
      1.9419      12.0157     107.5854
      1.9520      12.4098     108.7385
      1.9620      12.8244     109.9267
      1.9720      13.2611     111.1520
      1.9820      13.7215     112.4157
      1.9920      14.2075     113.7199
      2.0020      14.7211     115.0663
      2.0120      15.2644     116.4573
      2.0220      15.8400     117.8946
      2.0320      16.4505     119.3808
      2.0420      17.0988     120.9182
      2.0521      17.7884     122.5096
      2.0621      18.5229     124.1574
      2.0721      19.3064     125.8648
      2.0821      20.1435     127.6347
      2.0921      21.0393     129.4702
      2.1021      21.9996     131.3748
      2.1121      23.0309     133.3520
      2.1221      24.1404     135.4054
      2.1321      25.3365     137.5388
      2.1421      26.6285     139.7562
      2.1522      28.0270     142.0613
      2.1622      29.5440     144.4583
      2.1722      31.1933     146.9506
      2.1822      32.9906     149.5421
      2.1922      34.9540     152.2357
      2.2022      37.1041     155.0338
      2.2122      39.4645     157.9380
      2.2222      42.0626     160.9483
      2.2322      44.9296     164.0623
      2.2422      48.1016     167.2750
      2.2523      51.6198     170.5773
      2.2623      55.5317     173.9547
      2.2723      59.8908     177.3847
      2.2823      64.7578     180.8353
      2.2923      70.2000     184.2603
      2.3023      76.2912     187.5958
      2.3123      83.1087     190.7547
      2.3223      90.7304     193.6192
      2.3323      99.2277     196.0349
      2.3423     108.6533     197.8009
      2.3524     119.0254     198.6656
      2.3624     130.3018     198.3248
      2.3724     142.3489     196.4288
      2.3824     154.9036     192.6078
      2.3924     167.5414     186.5206
      2.4024     179.6593     177.9301
      2.4124     190.5024     166.7984
      2.4224     199.2460     153.3805
      2.4324     205.1380     138.2699
      2.4424     207.6675     122.3618
      2.4525     206.7010     106.7149
      2.4625     202.5212      92.3571
      2.4725     195.7532      80.0990
      2.4825     187.2123      70.4285
      2.4925     177.7370      63.5011
      2.5025     168.0657      59.2070
      2.5125     158.7717      57.2674
      2.5225     150.2557      57.3263
      2.5325     142.7681      59.0166
      2.5425     136.4467      62.0006
      2.5526     131.3522      65.9877
      2.5626     127.4996      70.7383
      2.5726     124.8810      76.0590
      2.5826     123.4819      81.7948
      2.5926     123.2919      87.8189
      2.6026     124.3112      94.0237
      2.6126     126.5561     100.3104
      2.6226     130.0594     106.5804
      2.6326     134.8714     112.7248
      2.6426     141.0593     118.6150
      2.6527     148.7022     124.0899
      2.6627     157.8856     128.9450
      2.6727     168.6874     132.9169
      2.6827     181.1608     135.6715
      2.6927     195.3035     136.7916
      2.7027     211.0191     135.7749
      2.7127     228.0608     132.0471
      2.7227     245.9745     125.0015
      2.7327     264.0400     114.0789
      2.7427     281.2496      98.8908
      2.7528     296.3462      79.3775
      2.7628     307.9623      55.9562
      2.7728     314.8499      29.6000
      2.7828     316.1591       1.7695
      2.7928     311.6547     -25.8069
      2.8028     301.7814     -51.4586
      2.8128     287.5393     -73.8691
      2.8228     270.2343     -92.2530
      2.8328     251.2051    -106.3664
      2.8428     231.6212    -116.3970
      2.8529     212.3792    -122.8072
      2.8629     194.0887    -126.1836
      2.8729     177.1083    -127.1286
      2.8829     161.6073    -126.1945
      2.8929     147.6209    -123.8531
      2.9029     135.1023    -120.4895
      2.9129     123.9557    -116.4076
      2.9229     114.0640    -111.8406
      2.9329     105.3022    -106.9640
      2.9429      97.5489    -101.9083
     2.95295     90.68978    -96.76797
     2.96296     84.62193    -91.61083
     2.97297     79.25288    -86.48388
     2.98298     74.50175    -81.41976
     2.99299     70.29765    -76.43852
     3.00300     66.57954    -71.55292
     3.01301     63.29440    -66.76862
     3.02302     60.39699    -62.08771
     3.03303     57.84845    -57.50816
     3.04304     55.61573    -53.02631
     3.05305     53.67082    -48.63638
     3.06306     51.99018    -44.33153
     3.07307     50.55408    -40.10424
     3.08308     49.34650    -35.94642
     3.09309     48.35441    -31.84954
     3.10310     47.56768    -27.80482
     3.11311     46.97898    -23.80374
     3.12312     46.58337    -19.83722
     3.13313     46.37849    -15.89683
     3.14314     46.36425    -11.97379
     3.15315     46.54311     -8.05969
     3.16316     46.91993     -4.14640
     3.17317     47.50222     -0.22608
     3.18318     48.30034      3.70878
     3.19319     49.32767      7.66457
     3.20320     50.60094     11.64725
     3.21321     52.14067     15.66147
     3.22322     53.97160     19.71014
     3.23323     56.12320     23.79370
     3.24324     58.63038     27.90995
     3.25325     61.53403     32.05195
     3.26326     64.88190     36.20751
     3.27327     68.72908     40.35632
     3.28328     73.13893     44.46822
     3.29329     78.18271     48.49893
     3.30330     83.94008     52.38600
     3.31331     90.49682     56.04291
     3.32332     97.94260     59.35224
      3.3333     106.3642      62.1568
      3.3433     115.8362      64.2511
      3.3534     126.4052      65.3718
      3.3634     138.0645      65.1923
      3.3734     150.7236      63.3243
      3.3834     164.1647      59.3333
      3.3934     178.0004      52.7780
      3.4034     191.6372      43.2799
      3.4134     204.2722      30.6255
      3.4234     214.9478      14.8818
      3.4334     222.6759      -3.5035
      3.4434     226.6280     -23.6804
      3.4535     226.3324     -44.4852
      3.4635     221.7999     -64.6417
      3.4735     213.5210     -82.9969
      3.4835     202.3346     -98.7179
      3.4935     189.2304    -111.3757
      3.5035     175.1600    -120.9187
      3.5135     160.9165    -127.5706
      3.5235     147.0822    -131.7154
      3.5335     134.0361    -133.7957
      3.5435     121.9864    -134.2453
      3.5536     111.0190    -133.4507
      3.5636     101.1354    -131.7363
      3.5736      92.2869    -129.3637
      3.5836      84.3958    -126.5371
      3.5936      77.3735    -123.4127
      3.6036      71.1293    -120.1077
      3.6136      65.5750    -116.7087
      3.6236      60.6299    -113.2787
      3.6336      56.2207    -109.8628
      3.6436      52.2825    -106.4927
      3.6537      48.7576    -103.1898
     3.66366     45.59608    -99.96837
     3.67367     42.75424    -96.83704
     3.68368     40.19429    -93.80061
     3.69369     37.88312    -90.86066
     3.70370     35.79232    -88.01706
     3.71371     33.89712    -85.26813
     3.72372     32.17609    -82.61124
     3.73373     30.61036    -80.04277
     3.74374     29.18373    -77.55914
     3.75375     27.88198    -75.15618
     3.76376     26.69274    -72.82996
     3.77377     25.60504    -70.57598
     3.78378     24.60940    -68.39025
     3.79379     23.69746    -66.26863
     3.80380     22.86191    -64.20734
     3.81381     22.09620    -62.20230
     3.82382     21.39468    -60.24990
     3.83383     20.75232    -58.34661
     3.84384     20.16474    -56.48904
     3.85385     19.62800    -54.67379
     3.86386     19.13871    -52.89774
     3.87387     18.69389    -51.15794
     3.88388     18.29089    -49.45132
     3.89389     17.92742    -47.77518
     3.90390     17.60156    -46.12674
     3.91391     17.31161    -44.50347
     3.92392     17.05613    -42.90263
     3.93393     16.83397    -41.32184
     3.94394     16.64418    -39.75863
     3.95395     16.48604    -38.21067
     3.96396     16.35905    -36.67551
     3.97397     16.26290    -35.15087
     3.98398     16.19750    -33.63443
     3.99399     16.16299    -32.12394
     4.00400     16.15968    -30.61702
     4.01401     16.18812    -29.11139
     4.02402     16.24908    -27.60473
     4.03403     16.34359    -26.09477
     4.04404     16.47291    -24.57897
     4.05405     16.63859    -23.05499
     4.06406     16.84251    -21.52034
     4.07407     17.08684    -19.97256
     4.08408     17.37415    -18.40894
     4.09409     17.70745    -16.82689
     4.10410     18.09014    -15.22373
     4.11411     18.52623    -13.59657
     4.12412     19.02028    -11.94265
     4.13413     19.57756    -10.25907
     4.14414     20.20408     -8.54300
     4.15415     20.90683     -6.79139
     4.16416     21.69378     -5.00146
     4.17417     22.57409     -3.17046
     4.18418     23.55829     -1.29591
     4.19419     24.65862      0.62457
     4.20420     25.88910      2.59266
     4.21421     27.26592      4.60940
     4.22422     28.80770      6.67472
     4.23423     30.53622      8.78740
     4.24424     32.47628     10.94397
     4.25425     34.65661     13.13828
     4.26426     37.11010     15.36036
     4.27427     39.87471     17.59544
     4.28428     42.99310     19.82158
     4.29429     46.51334     22.00780
     4.30430     50.48827     24.11085
     4.31431     54.97523     26.07170
     4.32432     60.03279     27.81042
     4.33433     65.71739     29.22090
     4.34434     72.07610     30.16486
     4.35435     79.13646     30.46629
     4.36436     86.88919     29.90792
     4.37437     95.26667     28.23338
      4.3844     104.1169      25.1587
      4.3944     113.1733      20.4003
      4.4044     122.0347      13.7225
      4.4144     130.1664       5.0059
      4.4244     136.9419      -5.6780
      4.4344     141.7283     -18.0060
      4.4444     144.0135     -31.3981
      4.4545     143.5298     -45.0845
      4.4645     140.3264     -58.2424
      4.4745     134.7561     -70.1474
      4.4845     127.3814     -80.2939
      4.4945     118.8454     -88.4384
      4.5045     109.7537     -94.5752
      4.5145     100.6027     -98.8668
      4.5245      91.7510    -101.5700
      4.5345      83.4282    -102.9724
      4.5445      75.7574    -103.3519
      4.5546      68.7854    -102.9538
      4.5646      62.5084    -101.9828
      4.5746      56.8918    -100.6033
     4.58458     51.88390    -98.94315
     4.59459     47.42715    -97.10008
     4.60460     43.46289    -95.14729
     4.61461     39.93510    -93.13892
     4.62462     36.79179    -91.11410
     4.63463     33.98646    -89.10112
     4.64464     31.47778    -87.11975
     4.65465     29.22915    -85.18328
     4.66466     27.20885    -83.30066
     4.67467     25.38915    -81.47742
     4.68468     23.74605    -79.71658
     4.69469     22.25851    -78.01927
     4.70470     20.90849    -76.38544
     4.71471     19.68022    -74.81421
     4.72472     18.56006    -73.30400
     4.73473     17.53599    -71.85281
     4.74474     16.59764    -70.45834
     4.75475     15.73590    -69.11837
     4.76476     14.94288    -67.83047
     4.77477     14.21147    -66.59207
     4.78478     13.53558    -65.40087
     4.79479     12.90975    -64.25452
     4.80480     12.32923    -63.15083
     4.81481     11.78970    -62.08747
     4.82482     11.28743    -61.06253
     4.83483     10.81904    -60.07394
     4.84484     10.38157    -59.11999
     4.85485      9.97229    -58.19875
     4.86486      9.58883    -57.30865
     4.87487      9.22905    -56.44818
     4.88488      8.89099    -55.61577
     4.89489      8.57293    -54.81005
     4.90490      8.27328    -54.02976
     4.91491      7.99063    -53.27365
     4.92492      7.72369    -52.54054
     4.93493      7.47127    -51.82938
     4.94494      7.23233    -51.13911
     4.95495      7.00592    -50.46885
     4.96496      6.79111    -49.81758
     4.97497      6.58712    -49.18451
     4.98498      6.39321    -48.56884
     4.99499      6.20872    -47.96981
     5.00500      6.03301    -47.38668
     5.01501      5.86551    -46.81875
     5.02502      5.70571    -46.26544
     5.03503      5.55313    -45.72615
     5.04504      5.40730    -45.20028
     5.05505      5.26783    -44.68727
     5.06506      5.13434    -44.18666
     5.07507      5.00647    -43.69796
     5.08508      4.88390    -43.22066
     5.09509      4.76633    -42.75434
     5.10510      4.65347    -42.29864
     5.11511      4.54507    -41.85313
     5.12512      4.44088    -41.41745
     5.13514      4.34066    -40.99121
     5.14514      4.24423    -40.57412
     5.15515      4.15137    -40.16585
     5.16516      4.06190    -39.76609
     5.17518      3.97566    -39.37454
     5.18518      3.89247    -38.99092
     5.19519      3.81219    -38.61497
     5.20520      3.73467    -38.24645
     5.21522      3.65979    -37.88512
     5.22522      3.58741    -37.53075
     5.23523      3.51743    -37.18311
     5.24524      3.44972    -36.84195
     5.25526      3.38419    -36.50716
     5.26526      3.32073    -36.17848
     5.27527      3.25927    -35.85575
     5.28528      3.19970    -35.53878
     5.29530      3.14194    -35.22741
     5.30531      3.08593    -34.92147
     5.31531      3.03157    -34.62084
     5.32533      2.97881    -34.32530
     5.33534      2.92758    -34.03477
     5.34535      2.87782    -33.74907
     5.35536      2.82946    -33.46808
     5.36537      2.78245    -33.19171
     5.37538      2.73674    -32.91977
     5.38539      2.69228    -32.65219
     5.39540      2.64901    -32.38883
     5.40541      2.60690    -32.12960
     5.41541      2.56590    -31.87439
     5.42543      2.52597    -31.62307
     5.43544      2.48706    -31.37558
     5.44545      2.44915    -31.13181
     5.45545      2.41219    -30.89168
     5.46547      2.37616    -30.65507
     5.47548      2.34101    -30.42191
     5.48549      2.30672    -30.19215
     5.49549      2.27326    -29.96566
     5.50551      2.24059    -29.74239
     5.51552      2.20870    -29.52227
     5.52553      2.17756    -29.30521
     5.53553      2.14714    -29.09116
     5.54555      2.11741    -28.88002
     5.55556      2.08836    -28.67177
     5.56557      2.05997    -28.46630
     5.57558      2.03221    -28.26359
     5.58559      2.00506    -28.06357
     5.59560      1.97850    -27.86615
     5.60561      1.95252    -27.67131
     5.61562      1.92709    -27.47897
     5.62563      1.90221    -27.28911
     5.63564      1.87785    -27.10167
     5.64565      1.85400    -26.91657
     5.65566      1.83064    -26.73379
     5.66567      1.80776    -26.55328
     5.67568      1.78534    -26.37498
     5.68569      1.76338    -26.19885
     5.69570      1.74186    -26.02487
     5.70571      1.72076    -25.85298
     5.71572      1.70007    -25.68315
     5.72573      1.67979    -25.51531
     5.73574      1.65990    -25.34946
     5.74575      1.64039    -25.18554
     5.75576      1.62125    -25.02353
     5.76577      1.60247    -24.86337
     5.77578      1.58405    -24.70505
     5.78579      1.56596    -24.54852
     5.79580      1.54820    -24.39375
     5.80581      1.53078    -24.24074
     5.81582      1.51366    -24.08941
     5.82583      1.49685    -23.93974
     5.83584      1.48035    -23.79173
     5.84585      1.46413    -23.64533
     5.85586      1.44820    -23.50051
     5.86587      1.43255    -23.35724
     5.87588      1.41717    -23.21551
     5.88589      1.40205    -23.07529
     5.89590      1.38719    -22.93656
     5.90591      1.37258    -22.79925
     5.91592      1.35822    -22.66339
     5.92593      1.34410    -22.52894
     5.93594      1.33021    -22.39586
     5.94595      1.31655    -22.26415
     5.95596      1.30311    -22.13377
     5.96597      1.28989    -22.00472
     5.97598      1.27689    -21.87696
     5.98599      1.26409    -21.75048
     5.99600      1.25150    -21.62524
     6.00601      1.23911    -21.50125
     6.01602      1.22691    -21.37847
     6.02603      1.21490    -21.25689
     6.03604      1.20308    -21.13649
     6.04605      1.19144    -21.01725
     6.05606      1.17998    -20.89915
     6.06607      1.16869    -20.78218
     6.07608      1.15757    -20.66632
     6.08609      1.14662    -20.55154
     6.09610      1.13584    -20.43785
     6.10611      1.12521    -20.32521
     6.11612      1.11474    -20.21362
     6.12613      1.10443    -20.10307
     6.13614      1.09426    -19.99351
     6.14615      1.08425    -19.88497
     6.15616      1.07437    -19.77741
     6.16617      1.06464    -19.67082
     6.17618      1.05505    -19.56519
     6.18619      1.04560    -19.46051
     6.19620      1.03627    -19.35675
     6.20621      1.02708    -19.25392
     6.21622      1.01802    -19.15198
     6.22623      1.00908    -19.05095
     6.23624      1.00027    -18.95078
     6.24625      0.99157    -18.85150
     6.25626      0.98300    -18.75307
     6.26627      0.97454    -18.65548
     6.27628      0.96619    -18.55873
     6.28629      0.95796    -18.46279
     6.29630      0.94984    -18.36767
     6.30631      0.94183    -18.27335
     6.31632      0.93392    -18.17982
     6.32633      0.92612    -18.08707
     6.33634      0.91841    -17.99509
     6.34635      0.91081    -17.90388
     6.35636      0.90331    -17.81341
     6.36637      0.89591    -17.72367
     6.37638      0.88860    -17.63467
     6.38639      0.88138    -17.54639
     6.39640      0.87426    -17.45883
     6.40641      0.86722    -17.37197
     6.41642      0.86028    -17.28581
     6.42643      0.85342    -17.20032
     6.43644      0.84665    -17.11551
     6.44645      0.83996    -17.03139
     6.45646      0.83336    -16.94792
     6.46647      0.82684    -16.86509
     6.47648      0.82039    -16.78291
     6.48649      0.81403    -16.70136
     6.49650      0.80774    -16.62046
     6.50651      0.80154    -16.54016
     6.51652      0.79540    -16.46049
     6.52653      0.78934    -16.38141
     6.53654      0.78335    -16.30294
     6.54655      0.77744    -16.22507
     6.55656      0.77159    -16.14777
     6.56657      0.76582    -16.07105
     6.57658      0.76011    -15.99491
     6.58659      0.75447    -15.91932
     6.59660      0.74890    -15.84431
     6.60661      0.74339    -15.76983
     6.61662      0.73794    -15.69591
     6.62663      0.73256    -15.62253
     6.63664      0.72725    -15.54966
     6.64665      0.72199    -15.47733
     6.65666      0.71679    -15.40552
     6.66667      0.71166    -15.33422
     6.67668      0.70658    -15.26344
     6.68669      0.70156    -15.19316
     6.69670      0.69660    -15.12336
     6.70671      0.69169    -15.05408
     6.71672      0.68684    -14.98525
     6.72673      0.68204    -14.91693
     6.73674      0.67730    -14.84907
     6.74675      0.67261    -14.78168
     6.75676      0.66798    -14.71476
     6.76677      0.66339    -14.64830
     6.77678      0.65886    -14.58229
     6.78679      0.65438    -14.51673
     6.79680      0.64995    -14.45161
     6.80681      0.64556    -14.38694
     6.81682      0.64123    -14.32270
     6.82683      0.63694    -14.25889
     6.83684      0.63270    -14.19549
     6.84685      0.62851    -14.13253
     6.85686      0.62436    -14.06997
     6.86687      0.62026    -14.00783
     6.87688      0.61621    -13.94610
     6.88689      0.61220    -13.88477
     6.89690      0.60823    -13.82383
     6.90691      0.60431    -13.76329
     6.91692      0.60043    -13.70313
     6.92693      0.59659    -13.64337
     6.93694      0.59279    -13.58397
     6.94695      0.58904    -13.52496
     6.95696      0.58532    -13.46632
     6.96697      0.58165    -13.40805
     6.97698      0.57802    -13.35014
     6.98699      0.57443    -13.29260
     6.99700      0.57088    -13.23541
     7.00701      0.56736    -13.17857
     7.01702      0.56389    -13.12207
     7.02703      0.56045    -13.06593
     7.03704      0.55705    -13.01013
     7.04705      0.55369    -12.95466
     7.05706      0.55037    -12.89952
     7.06707      0.54708    -12.84472
     7.07708      0.54383    -12.79024
     7.08709      0.54062    -12.73609
     7.09710      0.53744    -12.68226
     7.10711      0.53430    -12.62873
     7.11712      0.53120    -12.57552
     7.12713      0.52813    -12.52262
     7.13714      0.52509    -12.47003
     7.14715      0.52209    -12.41773
     7.15716      0.51913    -12.36574
     7.16717      0.51619    -12.31403
     7.17718      0.51330    -12.26262
     7.18719      0.51044    -12.21149
     7.19720      0.50761    -12.16065
     7.20721      0.50481    -12.11010
     7.21722      0.50205    -12.05982
     7.22723      0.49933    -12.00981
     7.23724      0.49663    -11.96007
     7.24725      0.49397    -11.91060
     7.25726      0.49135    -11.86141
     7.26727      0.48876    -11.81246
     7.27728      0.48620    -11.76378
     7.28729      0.48367    -11.71535
     7.29730      0.48118    -11.66716
     7.30731      0.47872    -11.61924
     7.31732      0.47630    -11.57155
     7.32733      0.47390    -11.52410
     7.33734      0.47155    -11.47690
     7.34735      0.46922    -11.42993
     7.35736      0.46693    -11.38319
     7.36737      0.46468    -11.33667
     7.37738      0.46246    -11.29038
     7.38739      0.46027    -11.24432
     7.39740      0.45812    -11.19847
     7.40741      0.45600    -11.15284
     7.41742      0.45392    -11.10742
     7.42743      0.45187    -11.06220
     7.43744      0.44986    -11.01720
     7.44745      0.44789    -10.97239
     7.45746      0.44596    -10.92778
     7.46747      0.44406    -10.88336
     7.47748      0.44220    -10.83913
     7.48749      0.44038    -10.79509
     7.49750      0.43860    -10.75123
     7.50751      0.43686    -10.70755
     7.51752      0.43516    -10.66404
     7.52753      0.43350    -10.62071
     7.53754      0.43189    -10.57755
     7.54755      0.43032    -10.53455
     7.55756      0.42879    -10.49170
     7.56757      0.42731    -10.44901
     7.57758      0.42588    -10.40647
     7.58759      0.42449    -10.36408
     7.59760      0.42316    -10.32183
     7.60761      0.42188    -10.27971
     7.61762      0.42065    -10.23772
     7.62763      0.41947    -10.19586
     7.63764      0.41836    -10.15413
     7.64765      0.41730    -10.11251
     7.65766      0.41630    -10.07100
     7.66767      0.41537    -10.02960
    7.677677     0.414504    -9.988298
    7.687687     0.413707    -9.947087
    7.697698     0.412983    -9.905962
    7.707707     0.412335    -9.864926
    7.717717     0.411766    -9.823961
    7.727727     0.411280    -9.783057
    7.737737     0.410882    -9.742217
    7.747747     0.410576    -9.701432
    7.757758     0.410367    -9.660682
    7.767767     0.410261    -9.619979
    7.777778     0.410264    -9.579297
    7.787787     0.410381    -9.538631
    7.797797     0.410620    -9.497978
    7.807807     0.410989    -9.457321
    7.817817     0.411495    -9.416655
    7.827827     0.412149    -9.375965
    7.837838     0.412960    -9.335238
    7.847847     0.413940    -9.294465
    7.857858     0.415099    -9.253621
    7.867867     0.416453    -9.212712
    7.877877     0.418014    -9.171713
    7.887888     0.419800    -9.130610
    7.897897     0.421829    -9.089381
    7.907907     0.424119    -9.048016
    7.917918     0.426694    -9.006493
    7.927927     0.429578    -8.964794
    7.937938     0.432798    -8.922898
    7.947948     0.436385    -8.880782
    7.957957     0.440372    -8.838429
    7.967968     0.444797    -8.795807
    7.977978     0.449704    -8.752895
    7.987987     0.455140    -8.709669
    7.997998     0.461160    -8.666083
    8.008007     0.467824    -8.622133
    8.018017     0.475203    -8.577780
    8.028028     0.483375    -8.532983
    8.038037     0.492430    -8.487727
    8.048048     0.502469    -8.441968
    8.058058     0.513608    -8.395687
    8.068068     0.525982    -8.348844
    8.078078     0.539744    -8.301418
    8.088088     0.555069    -8.253403
    8.098097     0.572158    -8.204777
    8.108108     0.591247    -8.155533
    8.118117     0.612600    -8.105705
    8.128128     0.636532    -8.055326
    8.138138     0.663393    -8.004475
    8.148148     0.693593    -7.953273
    8.158158     0.727604    -7.901886
    8.168168     0.765950    -7.850593
    8.178178     0.809231    -7.799755
    8.188188     0.858111    -7.749894
    8.198197     0.913294    -7.701738
    8.208207     0.975525    -7.656228
    8.218218     1.045531    -7.614657
    8.228228     1.123921    -7.578707
    8.238238     1.211102    -7.550503
    8.248248     1.307034    -7.532716
    8.258258     1.411011    -7.528500
    8.268268     1.521312    -7.541397
    8.278277     1.634806    -7.575012
    8.288287     1.746724    -7.632457
    8.298298     1.850588    -7.715542
    8.308308     1.938605    -7.823765
    8.318318     2.002738    -7.953607
    8.328328     2.036185    -8.098203
    8.338338     2.035026    -8.248156
    8.348349     1.999242    -8.393079
    8.358357     1.932748    -8.523521
    8.368367     1.842320    -8.632647
    8.378378     1.735997    -8.716893
    8.388388     1.621576    -8.775746
    8.398398     1.505534    -8.811013
    8.408408     1.392681    -8.825784
    8.418418     1.286127    -8.823683
    8.428429     1.187602    -8.808244
    8.438438     1.097840    -8.782625
    8.448447     1.016862    -8.749487
    8.458458     0.944268    -8.710979
    8.468468     0.879453    -8.668780
    8.478477     0.821687    -8.624174
    8.488488     0.770227    -8.578117
    8.498498     0.724367    -8.531338
    8.508509     0.683440    -8.484348
    8.518518     0.646855    -8.437526
    8.528528     0.614078    -8.391136
    8.538538     0.584637    -8.345350
    8.548548     0.558130    -8.300299
    8.558558     0.534197    -8.256050
    8.568568     0.512527    -8.212646
    8.578578     0.492854    -8.170110
    8.588589     0.474943    -8.128439
    8.598598     0.458593    -8.087627
    8.608608     0.443628    -8.047651
    8.618618     0.429893    -8.008488
    8.628628     0.417256    -7.970113
    8.638638     0.405599    -7.932498
    8.648648     0.394820    -7.895606
    8.658658     0.384830    -7.859412
    8.668669     0.375549    -7.823882
    8.678679     0.366909    -7.788988
    8.688688     0.358847    -7.754705
    8.698699     0.351309    -7.721000
    8.708708     0.344248    -7.687847
    8.718718     0.337619    -7.655232
    8.728728     0.331385    -7.623117
    8.738738     0.325511    -7.591486
    8.748748     0.319967    -7.560317
    8.758759     0.314726    -7.529588
    8.768768     0.309762    -7.499287
    8.778779     0.305054    -7.469388
    8.788789     0.300581    -7.439879
    8.798798     0.296326    -7.410749
    8.808808     0.292271    -7.381968
    8.818818     0.288403    -7.353538
    8.828828     0.284708    -7.325442
    8.838839     0.281172    -7.297661
    8.848848     0.277786    -7.270190
    8.858859     0.274538    -7.243011
    8.868869     0.271420    -7.216124
    8.878879     0.268423    -7.189516
    8.888888     0.265539    -7.163168
    8.898898     0.262761    -7.137084
    8.908908     0.260083    -7.111249
    8.918919     0.257497    -7.085655
    8.928928     0.254999    -7.060297
    8.938939     0.252583    -7.035171
    8.948949     0.250245    -7.010262
    8.958959     0.247980    -6.985574
    8.968968     0.245784    -6.961090
    8.978978     0.243653    -6.936812
    8.988988     0.241584    -6.912733
    8.998999     0.239573    -6.888844
    9.009008     0.237617    -6.865147
    9.019018     0.235714    -6.841628
    9.029029     0.233860    -6.818294
    9.039039     0.232054    -6.795132
    9.049048     0.230292    -6.772143
    9.059058     0.228573    -6.749314
    9.069068     0.226896    -6.726658
    9.079079     0.225256    -6.704154
    9.089088     0.223655    -6.681811
    9.099098     0.222088    -6.659620
    9.109109     0.220555    -6.637578
    9.119119     0.219055    -6.615680
    9.129129     0.217585    -6.593930
    9.139139     0.216145    -6.572321
    9.149148     0.214734    -6.550853
    9.159159     0.213350    -6.529516
    9.169168     0.211992    -6.508316
    9.179178     0.210659    -6.487247
    9.189189     0.209350    -6.466301
    9.199199     0.208064    -6.445487
    9.209209     0.206801    -6.424801
    9.219219     0.205560    -6.404230
    9.229229     0.204339    -6.383787
    9.239239     0.203138    -6.363461
    9.249249     0.201956    -6.343247
    9.259258     0.200793    -6.323151
    9.269269     0.199648    -6.303170
    9.279279     0.198520    -6.283294
    9.289289     0.197409    -6.263541
    9.299299     0.196314    -6.243886
    9.309309     0.195235    -6.224341
    9.319319     0.194171    -6.204903
    9.329329     0.193122    -6.185568
    9.339338     0.192088    -6.166334
    9.349349     0.191067    -6.147202
    9.359359     0.190059    -6.128173
    9.369369     0.189065    -6.109241
    9.379379     0.188083    -6.090407
    9.389389     0.187114    -6.071670
    9.399399     0.186157    -6.053026
    9.409409     0.185211    -6.034477
    9.419418     0.184277    -6.016024
    9.429429     0.183353    -5.997661
    9.439439     0.182441    -5.979387
    9.449449     0.181539    -5.961206
    9.459459     0.180647    -5.943111
    9.469469     0.179765    -5.925105
    9.479480     0.178892    -5.907188
    9.489489     0.178030    -5.889353
    9.499498     0.177176    -5.871609
    9.509509     0.176331    -5.853943
    9.519519     0.175496    -5.836363
    9.529529     0.174669    -5.818868
    9.539539     0.173850    -5.801448
    9.549549     0.173039    -5.784117
    9.559559     0.172237    -5.766867
    9.569570     0.171442    -5.749685
    9.579579     0.170655    -5.732592
    9.589589     0.169876    -5.715572
    9.599599     0.169104    -5.698630
    9.609609     0.168339    -5.681769
    9.619619     0.167581    -5.664976
    9.629629     0.166830    -5.648262
    9.639639     0.166086    -5.631622
    9.649650     0.165349    -5.615058
    9.659659     0.164618    -5.598561
    9.669669     0.163894    -5.582143
    9.679679     0.163176    -5.565792
    9.689689     0.162464    -5.549515
    9.699699     0.161758    -5.533309
    9.709709     0.161059    -5.517171
    9.719719     0.160365    -5.501102
    9.729730     0.159676    -5.485103
    9.739739     0.158994    -5.469174
    9.749749     0.158317    -5.453310
    9.759759     0.157645    -5.437515
    9.769769     0.156979    -5.421785
    9.779779     0.156318    -5.406123
    9.789789     0.155663    -5.390526
    9.799799     0.155012    -5.374994
    9.809810     0.154367    -5.359525
    9.819819     0.153726    -5.344121
    9.829829     0.153091    -5.328782
    9.839839     0.152460    -5.313508
    9.849849     0.151834    -5.298293
    9.859859     0.151212    -5.283139
    9.869869     0.150595    -5.268048
    9.879879     0.149983    -5.253021
    9.889890     0.149375    -5.238050
    9.899899     0.148772    -5.223143
    9.909909     0.148173    -5.208300
    9.919920     0.147578    -5.193507
    9.929930     0.146987    -5.178780
    9.939939     0.146401    -5.164111
    9.949949     0.145819    -5.149498
    9.959959     0.145240    -5.134943
    9.969970     0.144666    -5.120446
    9.979980     0.144096    -5.106006
    9.989989     0.143529    -5.091625
    10.00000      0.14297     -5.07730
# 
# 04/10/2017 at 17:09 YAMBO_RT @ anomaly [start]
# 04/10/2017 at 17:09                    [end]
#
# .-Input file : yambo.in
# | optics                       # [R OPT] Optics
# | bse                          # [R BSE] Bethe Salpeter Equation.
# | BoseTemp= 0.000000     eV    # Bosonic Temperature
# | FFTGvecs=  387         RL    # [FFT] Plane-waves
# | X_Threads= 1                 # [OPENMP/X] Number of threads for response functions
# | DIP_Threads= 1               # [OPENMP/X] Number of threads for dipoles
# | K_Threads= 1                 # [OPENMP/BSK] Number of threads for response functions
# | BSEmod= "retarded"           # [BSE] resonant/retarded/coupling
# | BSKmod= "IP"                 # [BSE] IP/Hartree/HF/ALDA/SEX/BSfxc
# | % BEnRange
# |   0.00000 | 10.00000 | eV    # [BSS] Energy range
# | %
# | % BDmRange
# |   0.10000 |  0.10000 | eV    # [BSS] Damping range
# | %
# | BEnSteps= 1000               # [BSS] Energy steps
# | % BLongDir
# | 0.1000E-4 | 0.000    | 0.000    |        # [BSS] [cc] Electric Field
# | %
# | % BSEBands
# |   2 |  7 |                   # [BSK] Bands range
# | %
