#                                                           
#  ____  ____     _       ____    ____  ______      ___     
# |_  _||_  _|   / \     |_   \  /   _||_   _ \   ."   `.   
#   \ \  / /    / _ \      |   \/   |    | |_) | /  .-.  \  
#    \ \/ /    / ___ \     | |\  /| |    |  __". | |   | |  
#    _|  |_  _/ /   \ \_  _| |_\/_| |_  _| |__) |\  `-"  /  
#   |______||____| |____||_____||_____||_______/  `.___."   
#                                                           
#                                                           
#                                                           
#        Version 4.2.0 Revision 14239 Hash f1a5d3c          
#                      MPI+SLK Build                        
#                http://www.yambo-code.org                  
#
# Absorption @ Q(1) [q->0 direction] :0.1000E-4  0.000     0.000   
#
#
#
# - The Green`s function is Retarded -
# - Using the Length Gauge -
# - [r,Vnl] *is* included -
#
#
#  E/ev[1]    EPS-Im[2]  EPS-Re[3]
#
   0.50000    0.10135   14.59866
   0.51403    0.10445   14.61307
   0.52806    0.10758   14.62783
   0.54208    0.11073   14.64316
   0.55611    0.11390   14.65891
   0.57014    0.11710   14.67503
   0.58417    0.12032   14.69160
   0.59820    0.12357   14.70868
   0.61222    0.12685   14.72619
   0.62625    0.13016   14.74402
   0.64028    0.13350   14.76247
   0.65431    0.13686   14.78142
   0.66834    0.14026   14.80076
   0.68236    0.14369   14.82070
   0.69639    0.14716   14.84087
   0.71042    0.15065   14.86161
   0.72445    0.15419   14.88297
   0.73848    0.15776   14.90474
   0.75251    0.16136   14.92696
   0.76653    0.16501   14.94978
   0.78056    0.16869   14.97314
   0.79459    0.17242   14.99701
   0.80862    0.17619   15.02133
   0.82265    0.18000   15.04625
   0.83667    0.18385   15.07168
   0.85070    0.18775   15.09762
   0.86473    0.19170   15.12403
   0.87876    0.19570   15.15107
   0.89279    0.19974   15.17876
   0.90681    0.20384   15.20695
   0.92084    0.20799   15.23580
   0.93487    0.21219   15.26512
   0.94890    0.21646   15.29504
   0.96293    0.22077   15.32555
   0.97695    0.22515   15.35668
   0.99098    0.22959   15.38839
   1.00501    0.23409   15.42075
   1.01904    0.23865   15.45372
   1.03307    0.24329   15.48734
   1.04709    0.24799   15.52166
   1.06112    0.25276   15.55669
   1.07515    0.25760   15.59226
   1.08918    0.26252   15.62851
   1.10321    0.26751   15.66544
   1.11723    0.27258   15.70321
   1.13126    0.27773   15.74148
   1.14529    0.28297   15.78074
   1.15932    0.28829   15.82050
   1.17335    0.29370   15.86113
   1.18737    0.29920   15.90261
   1.20140    0.30480   15.94470
   1.21543    0.31050   15.98745
   1.22946    0.31629   16.03118
   1.24349    0.32219   16.07576
   1.25752    0.32819   16.12110
   1.27154    0.33431   16.16731
   1.28557    0.34053   16.21441
   1.29960    0.34687   16.26228
   1.31363    0.35334   16.31110
   1.32766    0.35993   16.36070
   1.34168    0.36665   16.41144
   1.35571    0.37350   16.46297
   1.36974    0.38049   16.51556
   1.38377    0.38762   16.56901
   1.39780    0.39489   16.62354
   1.41182    0.40231   16.67915
   1.42585    0.40989   16.73582
   1.43988    0.41764   16.79336
   1.45391    0.42555   16.85209
   1.46794    0.43363   16.91206
   1.48196    0.44189   16.97294
   1.49599    0.45034   17.03506
   1.51002    0.45898   17.09828
   1.52405    0.46783   17.16287
   1.53808    0.47687   17.22863
   1.55210    0.48613   17.29552
   1.56613    0.49562   17.36399
   1.58016    0.50532   17.43353
   1.59419    0.51528   17.50453
   1.60822    0.52548   17.57693
   1.62224    0.53593   17.65079
   1.63627    0.54666   17.72606
   1.65030    0.55766   17.80291
   1.66433    0.56896   17.88095
   1.67836    0.58056   17.96088
   1.69238    0.59247   18.04245
   1.70641    0.60470   18.12562
   1.72044    0.61728   18.21042
   1.73447    0.63022   18.29703
   1.74850    0.64352   18.38548
   1.76253    0.65721   18.47576
   1.77655    0.67132   18.56800
   1.79058    0.68584   18.66212
   1.80461    0.70080   18.75827
   1.81864    0.71622   18.85651
   1.83267    0.73213   18.95697
   1.84669    0.74854   19.05939
   1.86072    0.76548   19.16426
   1.87475    0.78298   19.27160
   1.88878    0.80108   19.38109
   1.90281    0.81978   19.49328
   1.91683    0.83912   19.60792
   1.93086    0.85915   19.72545
   1.94489    0.87990   19.84564
   1.95892    0.90141   19.96886
   1.97295    0.92371   20.09495
   1.98697    0.94685   20.22416
   2.00100    0.97087   20.35643
   2.01503    0.99585   20.49202
   2.02906    1.02180   20.63107
   2.04309    1.04881   20.77365
   2.05711    1.07695   20.92002
   2.07114    1.10628   21.07019
   2.08517    1.13687   21.22433
   2.09920    1.16880   21.38262
   2.11323    1.20217   21.54527
   2.12725    1.23707   21.71246
   2.14128    1.27360   21.88454
   2.15531    1.31189   22.06141
   2.16934    1.35206   22.24354
   2.18337    1.39423   22.43094
   2.19739    1.43858   22.62409
   2.21142    1.48524   22.82321
   2.22545    1.53444   23.02855
   2.23948    1.58634   23.24045
   2.25351    1.64120   23.45918
   2.26754    1.69925   23.68525
   2.28156    1.76075   23.91910
   2.29559    1.82603   24.16096
   2.30962    1.89544   24.41120
   2.32365    1.96935   24.67037
   2.33768    2.04822   24.93867
   2.35170    2.13249   25.21764
   2.36573    2.22276   25.50735
   2.37976    2.31965   25.80837
   2.39379    2.42386   26.12152
   2.40782    2.53622   26.44768
   2.42184    2.65765   26.78762
   2.43587    2.78925   27.14223
   2.44990    2.93223   27.51245
   2.46393    3.08804   27.89945
   2.47796    3.25836   28.30445
   2.49198    3.44515   28.72840
   2.50601    3.65070   29.17336
   2.52004    3.87773   29.64007
   2.53407    4.12943   30.13049
   2.54810    4.40961   30.64578
   2.56212    4.72287   31.18818
   2.57615    5.07460   31.75890
   2.59018    5.47148   32.35957
   2.60421    5.92142   32.99156
   2.61824    6.43421   33.65517
   2.63226    7.02152   34.35080
   2.64629    7.69784   35.07698
   2.66032    8.48057   35.82973
   2.67435    9.39092   36.60256
   2.68838   10.45427   37.38344
   2.70240   11.70035   38.15262
   2.71643   13.16271   38.87954
   2.73046   14.87721   39.51649
   2.74449   16.87627   39.99342
   2.75852   19.17988   40.20982
   2.77255   21.77767   40.03227
   2.78657   24.60224   39.29684
   2.80060   27.49734   37.83558
   2.81463   30.19480   35.52974
   2.82866   32.33406   32.39133
   2.84269   33.54785   28.63494
   2.85671   33.60342   24.66836
   2.87074   32.51298   20.97910
   2.88477   30.52724   17.96270
   2.89880   28.01903   15.81401
   2.91283   25.34497   14.53156
   2.92685   22.76459   13.98979
   2.94088   20.42721   14.01973
   2.95491   18.39524   14.46056
   2.96894   16.67743   15.18210
   2.98297   15.25413   16.08824
   2.99699   14.09419   17.11152
   3.01102   13.16455   18.20749
   3.02505   12.43443   19.34839
   3.03908   11.87778   20.51660
   3.05311   11.47344   21.70194
   3.06713   11.20486   22.89953
   3.08116   11.06011   24.10793
   3.09519   11.03113   25.32713
   3.10922   11.11364   26.55806
   3.12325   11.30681   27.80252
   3.13727   11.61308   29.06148
   3.15130   12.03835   30.33382
   3.16533   12.59161   31.61798
   3.17936   13.28478   32.90666
   3.19339   14.13192   34.18775
   3.20741   15.14783   35.44244
   3.22144   16.34487   36.64000
   3.23547   17.72646   37.73899
   3.24950   19.27900   38.68745
   3.26353   20.96067   39.43127
   3.27756   22.69455   39.93227
   3.29158   24.37607   40.19581
   3.30561   25.90289   40.29240
   3.31964   27.22325   40.35415
   3.33367   28.37028   40.52922
   3.34770   29.45663   40.92752
   3.36172   30.63062   41.58398
   3.37575   32.02999   42.46629
   3.38978   33.75947   43.50040
   3.40381   35.89464   44.59657
   3.41784   38.49419   45.65448
   3.43186   41.60203   46.55087
   3.44589   45.23111   47.13667
   3.45992   49.34478   47.24843
   3.47395   53.84983   46.74028
   3.48798   58.62259   45.50791
   3.50200   63.54998   43.48124
   3.51603   68.54142   40.56790
   3.53006   73.46289   36.60332
   3.54409   78.02392   31.38636
   3.55812   81.71253   24.83123
   3.57214   83.88943   17.17034
   3.58617   84.04576    9.03908
   3.60020   82.08280    1.33085
   3.61423   78.40226   -5.12934
   3.62826   73.73828   -9.86886
   3.64228   68.87887  -12.84232
   3.65631   64.44907  -14.32518
   3.67034   60.83990  -14.75199
   3.68437   58.22455  -14.59388
   3.69840   56.60259  -14.29417
   3.71242   55.83543  -14.23691
   3.72645   55.66676  -14.71385
   3.74048   55.75838  -15.88446
   3.75451   55.75745  -17.74216
   3.76854   55.38480  -20.13648
   3.78257   54.48761  -22.85265
   3.79659   53.01171  -25.69432
   3.81062   50.93903  -28.49891
   3.82465   48.26270  -31.09313
   3.83868   45.03203  -33.27329
   3.85271   41.39470  -34.85029
   3.86673   37.58005  -35.72108
   3.88076   33.82571  -35.90142
   3.89479   30.31627  -35.49506
   3.90882   27.15886  -34.64748
   3.92285   24.39327  -33.50034
   3.93687   22.01422  -32.17226
   3.95090   19.99270  -30.75369
   3.96493   18.28921  -29.31066
   3.97896   16.86219  -27.89068
   3.99299   15.66996  -26.52801
   4.00701   14.67097  -25.24830
   4.02104   13.82232  -24.06704
   4.03507   13.07985  -22.98907
   4.04910   12.40219  -22.00513
   4.06313   11.75825  -21.09243
   4.07715   11.13287  -20.22140
   4.09118   10.52749  -19.36797
   4.10521    9.95236  -18.51651
   4.11924    9.41805  -17.66549
   4.13327    8.93015  -16.81749
   4.14729    8.48893  -15.97635
   4.16132    8.09202  -15.14362
   4.17535    7.73730  -14.31911
   4.18938    7.42425  -13.50154
   4.20341    7.15340  -12.69048
   4.21744    6.92561  -11.88626
   4.23146    6.74095  -11.09037
   4.24549    6.59952  -10.30357
  4.259520   6.501055  -9.526847
  4.273547   6.445773  -8.761093
  4.287575   6.434059  -8.006794
  4.301603   6.466712  -7.265644
  4.315631   6.544748  -6.538941
  4.329659   6.668937  -5.828279
  4.343688   6.839704  -5.136365
  4.357716   7.057548  -4.464127
  4.371744   7.324292  -3.811455
  4.385772   7.645002  -3.178939
  4.399800   8.028693  -2.569517
  4.413828   8.486985  -1.992940
  4.427856   9.029655  -1.468146
  4.441884   9.659278  -1.022654
   4.45591   10.36500   -0.68895
   4.46994   11.11930   -0.49670
   4.48397   11.87946   -0.46148
   4.49800   12.59931   -0.57565
   4.51202   13.24665   -0.81013
   4.52605   13.81474   -1.13283
   4.54008   14.31408   -1.52970
   4.55411   14.74809   -2.01194
   4.56814   15.09086   -2.59894
   4.58216   15.28748   -3.28706
   4.59619   15.28028   -4.02864
   4.61022   15.04584   -4.73877
   4.62425   14.61330   -5.32999
   4.63828   14.04992   -5.74722
   4.65231   13.42858   -5.97803
   4.66633   12.80453   -6.03764
   4.68036   12.21189   -5.94800
   4.69439   11.67455   -5.72646
   4.70842   11.21602   -5.38782
   4.72245   10.86167   -4.95043
   4.73647   10.63562   -4.44045
   4.75050   10.55676   -3.89136
   4.76453   10.63637   -3.34326
   4.77856   10.87701   -2.84134
   4.79259   11.26948   -2.43654
   4.80661   11.78679   -2.18381
   4.82064   12.37653   -2.13555
   4.83467   12.95599   -2.32615
   4.84870   13.41895   -2.74972
   4.86273   13.66241   -3.34126
   4.87675   13.62670   -3.98305
   4.89078   13.32407   -4.54062
   4.90481   12.83286   -4.91036
   4.91884   12.26241   -5.04788
   4.93287   11.71479   -4.96424
   4.94689   11.26418   -4.70545
   4.96092   10.95418   -4.33150
   4.97495   10.80306   -3.90396
   4.98898   10.81001   -3.48153
   5.00301   10.95696   -3.11782
   5.01703   11.20894   -2.85805
   5.03106   11.51462   -2.73152
   5.04509   11.81419   -2.74233
   5.05912   12.05459   -2.86582
   5.07315   12.20647   -3.05860
   5.08717   12.26831   -3.27914
   5.10120   12.25256   -3.50373
   5.11523   12.16682   -3.72514
   5.12926   12.00472   -3.93726
   5.14329   11.75267   -4.12027
   5.15731   11.40657   -4.23714
   5.17134   10.98492   -4.24464
   5.18537   10.52843   -4.11110
   5.19940   10.08843   -3.82720
  5.213427   9.711495  -3.405061
  5.227455   9.431925  -2.869787
  5.241483   9.271335  -2.250122
  5.255511   9.241895  -1.572979
  5.269539   9.351678  -0.862838
  5.283567   9.607220  -0.141716
   5.29760   10.01552    0.56723
   5.31162   10.58379    1.23781
   5.32565   11.31769    1.83716
   5.33968   12.21713    2.32388
   5.35371   13.27020    2.64755
   5.36774   14.44488    2.75254
   5.38176   15.68148    2.58772
   5.39579   16.89065    2.12505
   5.40982   17.96631    1.38098
   5.42385   18.81755    0.42597
   5.43788   19.40216   -0.63300
   5.45190   19.73781   -1.69157
   5.46593   19.88261   -2.67923
   5.47996   19.90617   -3.56709
   5.49399   19.87335   -4.35932
   5.50802   19.83453   -5.08837
   5.52204   19.81274   -5.80982
   5.53607   19.78802   -6.58447
   5.55010   19.69888   -7.44727
   5.56413   19.46857   -8.38094
   5.57816   19.04611   -9.31946
   5.59219   18.42973  -10.18003
   5.60621   17.65879  -10.89752
   5.62024   16.78783  -11.43689
   5.63427   15.87124  -11.78320
   5.64830   14.96264  -11.93527
   5.66232   14.11606  -11.90730
   5.67635   13.37974  -11.73249
   5.69038   12.78566  -11.46076
   5.70441   12.34300  -11.14879
   5.71844   12.03724  -10.84931
   5.73247   11.83576  -10.59949
   5.74649   11.69834  -10.41512
   5.76052   11.59051  -10.29070
   5.77455   11.49376  -10.20982
   5.78858   11.40617  -10.15741
   5.80261   11.33483  -10.13020
   5.81663   11.28473  -10.13857
   5.83066   11.24825  -10.20167
   5.84469   11.19962  -10.33606
   5.85872   11.09832  -10.54000
   5.87275   10.90558  -10.78494
   5.88677   10.60345  -11.02050
   5.90080   10.20487  -11.19286
   5.91483    9.74814  -11.26425
   5.92886    9.28132  -11.22138
   5.94289    8.84920  -11.07250
   5.95691    8.48616  -10.84153
   5.97094    8.21361  -10.56061
   5.98497    8.03945  -10.26582
  5.998999   7.957867  -9.992954
  6.013027   7.949818  -9.772596
  6.027055   7.985133  -9.624405
  6.041082   8.028375  -9.552544
  6.055110   8.048052  -9.543493
  6.069139   8.025579  -9.572395
  6.083167   7.957870  -9.612367
  6.097195   7.853989  -9.642653
  6.111223   7.727771  -9.652211
  6.125251   7.591736  -9.637366
  6.139279   7.456183  -9.596299
  6.153307   7.332356  -9.528029
  6.167335   7.235635  -9.435136
  6.181363   7.182442  -9.329709
  6.195391   7.183743  -9.234539
  6.209419   7.237026  -9.179454
  6.223447   7.323200  -9.192301
  6.237475   7.408297  -9.289799
  6.251503   7.451869  -9.469125
  6.265532   7.418252  -9.707191
  6.279560   7.286874  -9.965811
   6.29359    7.05719  -10.20177
   6.30762    6.74896  -10.37629
   6.32164    6.39685  -10.46562
   6.33567    6.04046  -10.46499
   6.34970    5.71396  -10.38736
   6.36373    5.43981  -10.25757
   6.37776    5.22720  -10.10355
  6.391784   5.073214  -9.951652
  6.405812   4.965590  -9.823710
  6.419840   4.885784  -9.733117
  6.433868   4.812554  -9.684117
  6.447896   4.725798  -9.671870
  6.461924   4.610393  -9.683226
  6.475952   4.459572  -9.700289
  6.489980   4.276889  -9.705204
  6.504008   4.073723  -9.686445
  6.518036   3.863478  -9.641690
  6.532064   3.654913  -9.576019
  6.546093   3.450218  -9.495426
  6.560121   3.247348  -9.402680
  6.574149   3.044312  -9.296169
  6.588177   2.842602  -9.171925
  6.602205   2.646998  -9.027822
  6.616233   2.463218  -8.864639
  6.630261   2.295754  -8.685937
  6.644289   2.146948  -8.496308
  6.658317   2.017099  -8.300005
  6.672345   1.905364  -8.100774
  6.686373   1.810183  -7.900926
  6.700401   1.729953  -7.702255
  6.714429   1.663080  -7.505800
  6.728457   1.608248  -7.311935
  6.742485   1.564390  -7.121039
  6.756513   1.530743  -6.932897
  6.770541   1.506818  -6.747426
  6.784570   1.492393  -6.564444
  6.798598   1.487536  -6.383630
  6.812625   1.492598  -6.205227
  6.826653   1.508205  -6.028910
  6.840682   1.535300  -5.855065
  6.854710   1.575112  -5.684317
  6.868738   1.629191  -5.517559
  6.882765   1.699252  -5.356656
  6.896793   1.787041  -5.204555
  6.910821   1.893894  -5.065333
  6.924850   2.020130  -4.944401
  6.938878   2.164083  -4.848720
  6.952906   2.321224  -4.785422
  6.966934   2.483587  -4.760660
  6.980962   2.640514  -4.777694
  6.994990   2.780178  -4.836160
  7.009018   2.890815  -4.932235
  7.023046   2.960835  -5.058671
  7.037075   2.979415  -5.203808
  7.051103   2.939614  -5.349649
  7.065131   2.843409  -5.474409
  7.079159   2.703359  -5.558920
  7.093187   2.538816  -5.593049
  7.107215   2.369462  -5.576395
  7.121243   2.210415  -5.515716
  7.135271   2.070888  -5.420776
  7.149299   1.955265  -5.300923
  7.163327   1.864833  -5.164092
  7.177355   1.799345  -5.016289
  7.191383   1.758084  -4.862009
  7.205411   1.740334  -4.704710
  7.219439   1.745819  -4.547165
  7.233467   1.774696  -4.392293
  7.247495   1.827510  -4.243262
  7.261523   1.904927  -4.104133
  7.275551   2.007207  -3.980319
  7.289579   2.133365  -3.878833
  7.303607   2.279844  -3.807852
  7.317635   2.439335  -3.775941
  7.331663   2.599630  -3.789591
  7.345691   2.744424  -3.850451
  7.359719   2.855857  -3.952036
  7.373747   2.919724  -4.078754
  7.387775   2.931105  -4.208791
  7.401803   2.897341  -4.321183
  7.415832   2.834520  -4.403139
  7.429860   2.760587  -4.452814
  7.443887   2.688704  -4.477138
  7.457915   2.624225  -4.486453
  7.471943   2.565326  -4.489466
  7.485972   2.506026  -4.489767
  7.500000   2.440650  -4.484614
# 
# 01/26/2017 at 16:21 YAMBO @ narro [start]
# 01/26/2017 at 16:21               [end]
#  
# Timing   [Min/Max/Average]: 01s/01s/01s
#
# .-Input file : yambo.in
# | optics                       # [R OPT] Optics
# | bse                          # [R BSE] Bethe Salpeter Equation.
# | BoseTemp= 0.000000     eV    # Bosonic Temperature
# | FFTGvecs=  411         RL    # [FFT] Plane-waves
# | BSEmod= "retarded"           # [BSE] resonant/retarded/coupling
# | BSKmod= "IP"                 # [BSE] IP/Hartree/HF/ALDA/SEX/BSfxc
# | DipApproach= "Shifted grids" # [Xd] [G-space v/R-space x/Covariant/Shifted grids]
# | ShiftedPaths= "SHIFTED_GRID/shift_1 SHIFTED_GRID/shift_2 SHIFTED_GRID/shift_3" # [Xd] Shifted grids paths (separated by a space)
# | % BEnRange
# |  0.500000 | 7.500000 | eV    # [BSS] Energy range
# | %
# | % BDmRange
# |   0.10000 |  0.10000 | eV    # [BSS] Damping range
# | %
# | BEnSteps=  500               # [BSS] Energy steps
# | % BLongDir
# | 0.1000E-4 | 0.000    | 0.000    |        # [BSS] [cc] Electric Field
# | %
# | % BSEBands
# |    1 |  32 |                 # [BSK] Bands range
# | %
