#                                                           
#  __  __   ________   ___ __ __    _______   ______        
# /_/\/_/\ /_______/\ /__//_//_/\ /_______/\ /_____/\       
# \ \ \ \ \\::: _  \ \\::\| \| \ \\::: _  \ \\:::_ \ \      
#  \:\_\ \ \\::(_)  \ \\:.      \ \\::(_)  \/_\:\ \ \ \     
#   \::::_\/ \:: __  \ \\:.\-/\  \ \\::  _  \ \\:\ \ \ \    
#     \::\ \  \:.\ \  \ \\. \  \  \ \\::(_)  \ \\:\_\ \ \   
#      \__\/   \__\/\__\/ \__\/ \__\/ \_______\/ \_____\/   
#                                                           
#                                                           
#        Version 4.2.0 Revision 14239 Hash f1a5d3c          
#                      MPI+SLK Build                        
#                http://www.yambo-code.org                  
#
# Absorption @ Q(1) [q->0 direction] :0.1000E-4  0.000     0.000   
#
#
#
# - The Green`s function is Retarded -
# - Using the Length Gauge -
# - [r,Vnl] *is* included -
#
#
#  E/ev[1]    EPS-Im[2]  EPS-Re[3]
#
   0.50000    0.10133   14.59542
   0.51403    0.10444   14.60983
   0.52806    0.10756   14.62454
   0.54208    0.11071   14.63981
   0.55611    0.11388   14.65559
   0.57014    0.11708   14.67169
   0.58417    0.12030   14.68827
   0.59820    0.12356   14.70531
   0.61222    0.12683   14.72269
   0.62625    0.13014   14.74074
   0.64028    0.13348   14.75909
   0.65431    0.13684   14.77805
   0.66834    0.14024   14.79742
   0.68236    0.14367   14.81721
   0.69639    0.14714   14.83748
   0.71042    0.15063   14.85834
   0.72445    0.15416   14.87951
   0.73848    0.15773   14.90132
   0.75251    0.16134   14.92361
   0.76653    0.16498   14.94644
   0.78056    0.16867   14.96980
   0.79459    0.17239   14.99370
   0.80862    0.17616   15.01804
   0.82265    0.17997   15.04281
   0.83667    0.18382   15.06819
   0.85070    0.18773   15.09415
   0.86473    0.19167   15.12062
   0.87876    0.19567   15.14764
   0.89279    0.19971   15.17524
   0.90681    0.20381   15.20355
   0.92084    0.20796   15.23237
   0.93487    0.21217   15.26172
   0.94890    0.21643   15.29169
   0.96293    0.22074   15.32226
   0.97695    0.22512   15.35332
   0.99098    0.22956   15.38505
   1.00501    0.23406   15.41741
   1.01904    0.23862   15.45033
   1.03307    0.24325   15.48395
   1.04709    0.24795   15.51830
   1.06112    0.25272   15.55319
   1.07515    0.25756   15.58886
   1.08918    0.26248   15.62504
   1.10321    0.26747   15.66190
   1.11723    0.27254   15.69952
   1.13126    0.27769   15.73812
   1.14529    0.28293   15.77719
   1.15932    0.28825   15.81702
   1.17335    0.29366   15.85765
   1.18737    0.29917   15.89902
   1.20140    0.30476   15.94123
   1.21543    0.31046   15.98401
   1.22946    0.31625   16.02769
   1.24349    0.32215   16.07223
   1.25752    0.32815   16.11751
   1.27154    0.33426   16.16380
   1.28557    0.34049   16.21088
   1.29960    0.34683   16.25882
   1.31363    0.35330   16.30757
   1.32766    0.35988   16.35724
   1.34168    0.36660   16.40793
   1.35571    0.37345   16.45950
   1.36974    0.38044   16.51201
   1.38377    0.38757   16.56565
   1.39780    0.39484   16.62012
   1.41182    0.40227   16.67555
   1.42585    0.40984   16.73209
   1.43988    0.41759   16.78984
   1.45391    0.42549   16.84850
   1.46794    0.43357   16.90839
   1.48196    0.44184   16.96928
   1.49599    0.45029   17.03158
   1.51002    0.45893   17.09484
   1.52405    0.46777   17.15935
   1.53808    0.47681   17.22504
   1.55210    0.48607   17.29205
   1.56613    0.49556   17.36042
   1.58016    0.50527   17.43008
   1.59419    0.51522   17.50083
   1.60822    0.52542   17.57326
   1.62224    0.53587   17.64697
   1.63627    0.54660   17.72234
   1.65030    0.55760   17.79912
   1.66433    0.56890   17.87736
   1.67836    0.58049   17.95720
   1.69238    0.59240   18.03859
   1.70641    0.60464   18.12181
   1.72044    0.61721   18.20666
   1.73447    0.63015   18.29323
   1.74850    0.64345   18.38164
   1.76253    0.65714   18.47199
   1.77655    0.67124   18.56421
   1.79058    0.68576   18.65833
   1.80461    0.70072   18.75447
   1.81864    0.71615   18.85262
   1.83267    0.73205   18.95306
   1.84669    0.74847   19.05552
   1.86072    0.76540   19.16035
   1.87475    0.78290   19.26760
   1.88878    0.80099   19.37728
   1.90281    0.81969   19.48952
   1.91683    0.83904   19.60413
   1.93086    0.85907   19.72169
   1.94489    0.87982   19.84176
   1.95892    0.90132   19.96486
   1.97295    0.92362   20.09087
   1.98697    0.94676   20.21994
   2.00100    0.97078   20.35232
   2.01503    0.99575   20.48804
   2.02906    1.02170   20.62691
   2.04309    1.04872   20.76967
   2.05711    1.07685   20.91584
   2.07114    1.10617   21.06598
   2.08517    1.13676   21.22025
   2.09920    1.16869   21.37858
   2.11323    1.20206   21.54135
   2.12725    1.23696   21.70842
   2.14128    1.27350   21.88038
   2.15531    1.31178   22.05730
   2.16934    1.35195   22.23930
   2.18337    1.39412   22.42677
   2.19739    1.43847   22.61984
   2.21142    1.48514   22.81901
   2.22545    1.53433   23.02422
   2.23948    1.58623   23.23613
   2.25351    1.64107   23.45509
   2.26754    1.69912   23.68096
   2.28156    1.76062   23.91481
   2.29559    1.82592   24.15642
   2.30962    1.89531   24.40683
   2.32365    1.96922   24.66597
   2.33768    2.04807   24.93433
   2.35170    2.13236   25.21319
   2.36573    2.22263   25.50292
   2.37976    2.31951   25.80375
   2.39379    2.42372   26.11712
   2.40782    2.53608   26.44327
   2.42184    2.65750   26.78317
   2.43587    2.78910   27.13753
   2.44990    2.93209   27.50782
   2.46393    3.08789   27.89497
   2.47796    3.25821   28.29979
   2.49198    3.44501   28.72398
   2.50601    3.65057   29.16898
   2.52004    3.87761   29.63544
   2.53407    4.12928   30.12575
   2.54810    4.40949   30.64096
   2.56212    4.72274   31.18345
   2.57615    5.07449   31.75425
   2.59018    5.47136   32.35483
   2.60421    5.92134   32.98679
   2.61824    6.43410   33.65066
   2.63226    7.02145   34.34614
   2.64629    7.69777   35.07209
   2.66032    8.48049   35.82507
   2.67435    9.39090   36.59808
   2.68838   10.45423   37.37837
   2.70240   11.70040   38.14763
   2.71643   13.16282   38.87463
   2.73046   14.87732   39.51150
   2.74449   16.87643   39.98823
   2.75852   19.18010   40.20469
   2.77255   21.77794   40.02702
   2.78657   24.60261   39.29158
   2.80060   27.49777   37.83050
   2.81463   30.19534   35.52418
   2.82866   32.33466   32.38589
   2.84269   33.54852   28.62929
   2.85671   33.60408   24.66238
   2.87074   32.51359   20.97278
   2.88477   30.52776   17.95626
   2.89880   28.01939   15.80754
   2.91283   25.34521   14.52492
   2.92685   22.76476   13.98307
   2.94088   20.42723   14.01292
   2.95491   18.39508   14.45367
   2.96894   16.67725   15.17510
   2.98297   15.25385   16.08108
   2.99699   14.09389   17.10451
   3.01102   13.16409   18.20040
   3.02505   12.43392   19.34126
   3.03908   11.87723   20.50912
   3.05311   11.47279   21.69433
   3.06713   11.20417   22.89207
   3.08116   11.05936   24.10010
   3.09519   11.03029   25.31941
   3.10922   11.11269   26.55006
   3.12325   11.30579   27.79469
   3.13727   11.61198   29.05323
   3.15130   12.03714   30.32541
   3.16533   12.59031   31.60946
   3.17936   13.28328   32.89790
   3.19339   14.13035   34.17904
   3.20741   15.14606   35.43372
   3.22144   16.34293   36.63119
   3.23547   17.72429   37.72993
   3.24950   19.27667   38.67805
   3.26353   20.95804   39.42173
   3.27756   22.69165   39.92297
   3.29158   24.37290   40.18642
   3.30561   25.89967   40.28341
   3.31964   27.21983   40.34484
   3.33367   28.36682   40.51979
   3.34770   29.45313   40.91779
   3.36172   30.62702   41.57408
   3.37575   32.02600   42.45580
   3.38978   33.75532   43.48922
   3.40381   35.88984   44.58537
   3.41784   38.48880   45.64259
   3.43186   41.59576   46.53879
   3.44589   45.22395   47.12444
   3.45992   49.33669   47.23670
   3.47395   53.84052   46.72837
   3.48798   58.61210   45.49639
   3.50200   63.53834   43.47015
   3.51603   68.52882   40.55758
   3.53006   73.44910   36.59404
   3.54409   78.00898   31.37827
   3.55812   81.69715   24.82465
   3.57214   83.87360   17.16561
   3.58617   84.03029    9.03621
   3.60020   82.06772    1.32969
   3.61423   78.38792   -5.12880
   3.62826   73.72546   -9.86708
   3.64228   68.86703  -12.83983
   3.65631   64.43851  -14.32212
   3.67034   60.83070  -14.74878
   3.68437   58.21633  -14.59051
   3.69840   56.59532  -14.29121
   3.71242   55.82899  -14.23401
   3.72645   55.66096  -14.71112
   3.74048   55.75309  -15.88204
   3.75451   55.75261  -17.74009
   3.76854   55.38025  -20.13464
   3.78257   54.48326  -22.85120
   3.79659   53.00761  -25.69308
   3.81062   50.93523  -28.49779
   3.82465   48.25912  -31.09232
   3.83868   45.02848  -33.27261
   3.85271   41.39153  -34.84969
   3.86673   37.57697  -35.72071
   3.88076   33.82289  -35.90118
   3.89479   30.31353  -35.49500
   3.90882   27.15628  -34.64761
   3.92285   24.39097  -33.50068
   3.93687   22.01194  -32.17283
   3.95090   19.99043  -30.75447
   3.96493   18.28704  -29.31152
   3.97896   16.85991  -27.89146
   3.99299   15.66769  -26.52879
   4.00701   14.66868  -25.24916
   4.02104   13.81997  -24.06803
   4.03507   13.07753  -22.99013
   4.04910   12.39993  -22.00623
   4.06313   11.75606  -21.09348
   4.07715   11.13080  -20.22240
   4.09118   10.52560  -19.36889
   4.10521    9.95067  -18.51764
   4.11924    9.41650  -17.66654
   4.13327    8.92884  -16.81876
   4.14729    8.48773  -15.97763
   4.16132    8.09096  -15.14532
   4.17535    7.73631  -14.32100
   4.18938    7.42328  -13.50345
   4.20341    7.15247  -12.69262
   4.21744    6.92464  -11.88865
   4.23146    6.73997  -11.09288
   4.24549    6.59851  -10.30615
  4.259520   6.500021  -9.529538
  4.273547   6.444663  -8.763984
  4.287575   6.432869  -8.009665
  4.301603   6.465467  -7.268677
  4.315631   6.543431  -6.542062
  4.329659   6.667566  -5.831431
  4.343688   6.838267  -5.139562
  4.357716   7.056061  -4.467155
  4.371744   7.322786  -3.814531
  4.385772   7.643534  -3.181926
  4.399800   8.027281  -2.572499
  4.413828   8.485676  -1.995931
  4.427856   9.028432  -1.471194
  4.441884   9.658194  -1.025702
   4.45591   10.36409   -0.69206
   4.46994   11.11853   -0.49990
   4.48397   11.87877   -0.46470
   4.49800   12.59873   -0.57901
   4.51202   13.24621   -0.81366
   4.52605   13.81444   -1.13660
   4.54008   14.31383   -1.53370
   4.55411   14.74785   -2.01611
   4.56814   15.09072   -2.60326
   4.58216   15.28728   -3.29170
   4.59619   15.28010   -4.03351
   4.61022   15.04561   -4.74386
   4.62425   14.61304   -5.33525
   4.63828   14.04958   -5.75267
   4.65231   13.42815   -5.98366
   4.66633   12.80402   -6.04347
   4.68036   12.21128   -5.95406
   4.69439   11.67388   -5.73265
   4.70842   11.21526   -5.39412
   4.72245   10.86081   -4.95691
   4.73647   10.63466   -4.44716
   4.75050   10.55571   -3.89813
   4.76453   10.63522   -3.35016
   4.77856   10.87575   -2.84844
   4.79259   11.26810   -2.44373
   4.80661   11.78535   -2.19114
   4.82064   12.37496   -2.14308
   4.83467   12.95431   -2.33385
   4.84870   13.41711   -2.75749
   4.86273   13.66047   -3.34921
   4.87675   13.62469   -3.99112
   4.89078   13.32192   -4.54880
   4.90481   12.83065   -4.91867
   4.91884   12.26009   -5.05640
   4.93287   11.71238   -4.97301
   4.94689   11.26163   -4.71442
   4.96092   10.95149   -4.34069
   4.97495   10.80022   -3.91335
   4.98898   10.80694   -3.49117
   5.00301   10.95364   -3.12765
   5.01703   11.20536   -2.86810
   5.03106   11.51087   -2.74169
   5.04509   11.81015   -2.75260
   5.05912   12.05028   -2.87622
   5.07315   12.20200   -3.06910
   5.08717   12.26363   -3.28976
   5.10120   12.24773   -3.51447
   5.11523   12.16186   -3.73608
   5.12926   11.99957   -3.94840
   5.14329   11.74736   -4.13165
   5.15731   11.40118   -4.24872
   5.17134   10.97928   -4.25662
   5.18537   10.52262   -4.12345
   5.19940   10.08230   -3.84006
  5.213427   9.705047  -3.418400
  5.227455   9.425055  -2.883759
  5.241483   9.263883  -2.264656
  5.255511   9.233810  -1.588177
  5.269539   9.342808  -0.878653
  5.283567   9.597375  -0.158201
   5.29760   10.00451    0.55014
   5.31162   10.57144    1.22020
   5.32565   11.30370    1.81914
   5.33968   12.20129    2.30564
   5.35371   13.25238    2.62935
   5.36774   14.42477    2.73487
   5.38176   15.65909    2.57109
   5.39579   16.86606    2.11003
   5.40982   17.94004    1.36806
   5.42385   18.79011    0.41549
   5.43788   19.37428   -0.64100
   5.45190   19.70998   -1.69735
   5.46593   19.85516   -2.68316
   5.47996   19.87910   -3.56963
   5.49399   19.84661   -4.36068
   5.50802   19.80796   -5.08849
   5.52204   19.78608   -5.80871
   5.53607   19.76142   -6.58192
   5.55010   19.67237   -7.44294
   5.56413   19.44261   -8.37463
   5.57816   19.02124   -9.31127
   5.59219   18.40637  -10.17023
   5.60621   17.63709  -10.88668
   5.62024   16.76803  -11.42534
   5.63427   15.85316  -11.77146
   5.64830   14.94604  -11.92363
   5.66232   14.10081  -11.89595
   5.67635   13.36543  -11.72158
   5.69038   12.77207  -11.45024
   5.70441   12.32980  -11.13872
   5.71844   12.02440  -10.83954
   5.73247   11.82315  -10.58983
   5.74649   11.68603  -10.40557
   5.76052   11.57847  -10.28124
   5.77455   11.48189  -10.20030
   5.78858   11.39466  -10.14790
   5.80261   11.32350  -10.12070
   5.81663   11.27353  -10.12891
   5.83066   11.23730  -10.19188
   5.84469   11.18877  -10.32602
   5.85872   11.08776  -10.52959
   5.87275   10.89535  -10.77410
   5.88677   10.59378  -11.00923
   5.90080   10.19577  -11.18131
   5.91483    9.73972  -11.25240
   5.92886    9.27367  -11.20939
   5.94289    8.84235  -11.06066
   5.95691    8.48008  -10.82983
   5.97094    8.20816  -10.54920
   5.98497    8.03468  -10.25478
  5.998999   7.953664  -9.982228
  6.013027   7.946155  -9.762219
  6.027055   7.981925  -9.614664
  6.041082   8.025463  -9.543200
  6.055110   8.045404  -9.534682
  6.069139   8.023084  -9.564151
  6.083167   7.955457  -9.604533
  6.097195   7.851582  -9.635240
  6.111223   7.725344  -9.645220
  6.125251   7.589230  -9.630721
  6.139279   7.453614  -9.589878
  6.153307   7.329726  -9.521763
  6.167335   7.232940  -9.428972
  6.181363   7.179705  -9.323706
  6.195391   7.180863  -9.228779
  6.209419   7.234002  -9.173637
  6.223447   7.320126  -9.186639
  6.237475   7.405049  -9.284207
  6.251503   7.448646  -9.463341
  6.265532   7.415054  -9.701335
  6.279560   7.283732  -9.960026
   6.29359    7.05417  -10.19585
   6.30762    6.74606  -10.37027
   6.32164    6.39413  -10.45951
   6.33567    6.03794  -10.45899
   6.34970    5.71160  -10.38142
   6.36373    5.43760  -10.25174
   6.37776    5.22510  -10.09770
  6.391784   5.071220  -9.946230
  6.405812   4.963724  -9.818373
  6.419840   4.883970  -9.727867
  6.433868   4.810787  -9.679049
  6.447896   4.724082  -9.666918
  6.461924   4.608717  -9.678386
  6.475952   4.457891  -9.695560
  6.489980   4.275172  -9.700508
  6.504008   4.071986  -9.681867
  6.518036   3.861661  -9.637254
  6.532064   3.653053  -9.571574
  6.546093   3.448354  -9.490941
  6.560121   3.245488  -9.398269
  6.574149   3.042518  -9.291583
  6.588177   2.840848  -9.167323
  6.602205   2.645358  -9.023229
  6.616233   2.461702  -8.860090
  6.630261   2.294357  -8.681372
  6.644289   2.145639  -8.491858
  6.658317   2.015890  -8.295762
  6.672345   1.904211  -8.096545
  6.686373   1.809124  -7.896804
  6.700401   1.728943  -7.698262
  6.714429   1.662114  -7.501902
  6.728457   1.607326  -7.308181
  6.742485   1.563510  -7.117286
  6.756513   1.529876  -6.929241
  6.770541   1.505967  -6.743852
  6.784570   1.491549  -6.561016
  6.798598   1.486703  -6.380397
  6.812625   1.491760  -6.201940
  6.826653   1.507354  -6.025803
  6.840682   1.534434  -5.852086
  6.854710   1.574232  -5.681241
  6.868738   1.628276  -5.514581
  6.882765   1.698294  -5.353801
  6.896793   1.786026  -5.201779
  6.910821   1.892820  -5.062535
  6.924850   2.018985  -4.941660
  6.938878   2.162867  -4.846062
  6.952906   2.319932  -4.782787
  6.966934   2.482249  -4.758006
  6.980962   2.639152  -4.774965
  6.994990   2.778816  -4.833349
  7.009018   2.889491  -4.929347
  7.023046   2.959582  -5.055719
  7.037075   2.978229  -5.200947
  7.051103   2.938530  -5.346751
  7.065131   2.842389  -5.471551
  7.079159   2.702408  -5.556130
  7.093187   2.537943  -5.590284
  7.107215   2.368628  -5.573702
  7.121243   2.209632  -5.513155
  7.135271   2.070136  -5.418233
  7.149299   1.954531  -5.298489
  7.163327   1.864141  -5.161743
  7.177355   1.798662  -5.014055
  7.191383   1.757399  -4.859818
  7.205411   1.739661  -4.702527
  7.219439   1.745150  -4.545105
  7.233467   1.774016  -4.390352
  7.247495   1.826828  -4.241319
  7.261523   1.904232  -4.102308
  7.275551   2.006495  -3.978600
  7.289579   2.132631  -3.877215
  7.303607   2.279083  -3.806312
  7.317635   2.438509  -3.774467
  7.331663   2.598808  -3.788197
  7.345691   2.743569  -3.849174
  7.359719   2.854945  -3.950842
  7.373747   2.918690  -4.077674
  7.387775   2.930002  -4.207786
  7.401803   2.896094  -4.320340
  7.415832   2.833134  -4.402328
  7.429860   2.759009  -4.452002
  7.443887   2.686945  -4.476298
  7.457915   2.622261  -4.485593
  7.471943   2.563209  -4.488472
  7.485972   2.503789  -4.488673
  7.500000   2.438341  -4.483399
# 
# 01/26/2017 at 16:21 YAMBO @ narro [start]
# 01/26/2017 at 16:21               [end]
#  
# Timing   [Min/Max/Average]: 01s/01s/01s
#
# .-Input file : yambo.in
# | optics                       # [R OPT] Optics
# | bse                          # [R BSE] Bethe Salpeter Equation.
# | BoseTemp= 0.000000     eV    # Bosonic Temperature
# | FFTGvecs=  411         RL    # [FFT] Plane-waves
# | BSEmod= "retarded"           # [BSE] resonant/retarded/coupling
# | BSKmod= "IP"                 # [BSE] IP/Hartree/HF/ALDA/SEX/BSfxc
# | % BEnRange
# |  0.500000 | 7.500000 | eV    # [BSS] Energy range
# | %
# | % BDmRange
# |   0.10000 |  0.10000 | eV    # [BSS] Damping range
# | %
# | BEnSteps=  500               # [BSS] Energy steps
# | % BLongDir
# | 0.1000E-4 | 0.000    | 0.000    |        # [BSS] [cc] Electric Field
# | %
# | % BSEBands
# |    1 |  32 |                 # [BSK] Bands range
# | %
