#                                                           
# :::   :::   :::     ::::    ::::  :::::::::   ::::::::    
# :+:   :+: :+: :+:   +:+:+: :+:+:+ :+:    :+: :+:    :+:   
#  +:+ +:+ +:+   +:+  +:+ +:+:+ +:+ +:+    +:+ +:+    +:+   
#   +#++: +#++:++#++: +#+  +:+  +#+ +#++:++#+  +#+    +:+   
#    +#+  +#+     +#+ +#+       +#+ +#+    +#+ +#+    +#+   
#    #+#  #+#     #+# #+#       #+# #+#    #+# #+#    #+#   
#    ###  ###     ### ###       ### #########   ########    
#                                                           
#                                                           
#        Version 4.2.0 Revision 14239 Hash f1a5d3c          
#                      MPI+SLK Build                        
#                http://www.yambo-code.org                  
#
# Absorption @ Q(1) [q->0 direction] :0.1000E-4  0.000     0.000   
#
#
#
# - The Green`s function is Retarded -
# - Using the Length Gauge -
# - [r,Vnl] *is* included -
#
#
#  E/ev[1]    EPS-Im[2]  EPS-Re[3]
#
   0.50000    0.09939   14.59907
   0.51403    0.10254   14.61346
   0.52806    0.10570   14.62826
   0.54208    0.10889   14.64355
   0.55611    0.11211   14.65923
   0.57014    0.11534   14.67538
   0.58417    0.11860   14.69198
   0.59820    0.12189   14.70899
   0.61222    0.12520   14.72652
   0.62625    0.12854   14.74431
   0.64028    0.13190   14.76277
   0.65431    0.13530   14.78170
   0.66834    0.13872   14.80103
   0.68236    0.14218   14.82095
   0.69639    0.14566   14.84114
   0.71042    0.14919   14.86187
   0.72445    0.15274   14.88320
   0.73848    0.15633   14.90495
   0.75251    0.15996   14.92719
   0.76653    0.16363   14.95001
   0.78056    0.16733   14.97336
   0.79459    0.17107   14.99721
   0.80862    0.17486   15.02151
   0.82265    0.17869   15.04647
   0.83667    0.18256   15.07186
   0.85070    0.18647   15.09779
   0.86473    0.19044   15.12422
   0.87876    0.19445   15.15126
   0.89279    0.19851   15.17893
   0.90681    0.20262   15.20710
   0.92084    0.20678   15.23599
   0.93487    0.21100   15.26531
   0.94890    0.21527   15.29519
   0.96293    0.21960   15.32570
   0.97695    0.22399   15.35686
   0.99098    0.22843   15.38856
   1.00501    0.23294   15.42091
   1.01904    0.23752   15.45393
   1.03307    0.24216   15.48749
   1.04709    0.24687   15.52182
   1.06112    0.25165   15.55686
   1.07515    0.25650   15.59239
   1.08918    0.26142   15.62865
   1.10321    0.26642   15.66558
   1.11723    0.27150   15.70335
   1.13126    0.27666   15.74163
   1.14529    0.28190   15.78088
   1.15932    0.28723   15.82063
   1.17335    0.29265   15.86127
   1.18737    0.29815   15.90277
   1.20140    0.30376   15.94483
   1.21543    0.30946   15.98760
   1.22946    0.31526   16.03133
   1.24349    0.32116   16.07590
   1.25752    0.32717   16.12126
   1.27154    0.33328   16.16745
   1.28557    0.33951   16.21454
   1.29960    0.34586   16.26242
   1.31363    0.35233   16.31125
   1.32766    0.35892   16.36082
   1.34168    0.36564   16.41157
   1.35571    0.37249   16.46308
   1.36974    0.37948   16.51568
   1.38377    0.38661   16.56912
   1.39780    0.39389   16.62367
   1.41182    0.40132   16.67930
   1.42585    0.40890   16.73595
   1.43988    0.41664   16.79350
   1.45391    0.42455   16.85222
   1.46794    0.43263   16.91221
   1.48196    0.44090   16.97309
   1.49599    0.44935   17.03521
   1.51002    0.45799   17.09843
   1.52405    0.46683   17.16302
   1.53808    0.47587   17.22878
   1.55210    0.48513   17.29567
   1.56613    0.49462   17.36412
   1.58016    0.50433   17.43371
   1.59419    0.51428   17.50472
   1.60822    0.52447   17.57705
   1.62224    0.53493   17.65092
   1.63627    0.54565   17.72619
   1.65030    0.55666   17.80306
   1.66433    0.56794   17.88110
   1.67836    0.57954   17.96102
   1.69238    0.59145   18.04259
   1.70641    0.60368   18.12575
   1.72044    0.61625   18.21055
   1.73447    0.62918   18.29718
   1.74850    0.64248   18.38563
   1.76253    0.65618   18.47594
   1.77655    0.67026   18.56817
   1.79058    0.68478   18.66229
   1.80461    0.69974   18.75843
   1.81864    0.71515   18.85667
   1.83267    0.73105   18.95713
   1.84669    0.74746   19.05955
   1.86072    0.76439   19.16444
   1.87475    0.78188   19.27179
   1.88878    0.79997   19.38127
   1.90281    0.81866   19.49344
   1.91683    0.83801   19.60814
   1.93086    0.85802   19.72564
   1.94489    0.87876   19.84585
   1.95892    0.90026   19.96909
   1.97295    0.92254   20.09515
   1.98697    0.94567   20.22438
   2.00100    0.96968   20.35670
   2.01503    0.99464   20.49224
   2.02906    1.02058   20.63130
   2.04309    1.04758   20.77390
   2.05711    1.07570   20.92027
   2.07114    1.10501   21.07043
   2.08517    1.13559   21.22457
   2.09920    1.16751   21.38289
   2.11323    1.20085   21.54552
   2.12725    1.23574   21.71273
   2.14128    1.27225   21.88485
   2.15531    1.31052   22.06169
   2.16934    1.35066   22.24385
   2.18337    1.39281   22.43124
   2.19739    1.43713   22.62443
   2.21142    1.48377   22.82353
   2.22545    1.53294   23.02889
   2.23948    1.58481   23.24080
   2.25351    1.63963   23.45958
   2.26754    1.69765   23.68567
   2.28156    1.75912   23.91958
   2.29559    1.82437   24.16139
   2.30962    1.89374   24.41169
   2.32365    1.96762   24.67090
   2.33768    2.04642   24.93922
   2.35170    2.13066   25.21822
   2.36573    2.22089   25.50794
   2.37976    2.31771   25.80905
   2.39379    2.42188   26.12219
   2.40782    2.53418   26.44845
   2.42184    2.65555   26.78839
   2.43587    2.78708   27.14305
   2.44990    2.92997   27.51337
   2.46393    3.08573   27.90041
   2.47796    3.25596   28.30548
   2.49198    3.44266   28.72953
   2.50601    3.64813   29.17460
   2.52004    3.87506   29.64140
   2.53407    4.12665   30.13197
   2.54810    4.40671   30.64739
   2.56212    4.71985   31.18994
   2.57615    5.07147   31.76088
   2.59018    5.46820   32.36181
   2.60421    5.91802   32.99407
   2.61824    6.43067   33.65806
   2.63226    7.01786   34.35402
   2.64629    7.69405   35.08064
   2.66032    8.47673   35.83402
   2.67435    9.38706   36.60744
   2.68838   10.45044   37.38905
   2.70240   11.69663   38.15920
   2.71643   13.15943   38.88724
   2.73046   14.87448   39.52531
   2.74449   16.87450   40.00360
   2.75852   19.17969   40.22132
   2.77255   21.77970   40.04492
   2.78657   24.60717   39.31016
   2.80060   27.50575   37.84834
   2.81463   30.20714   35.54097
   2.82866   32.34963   32.39905
   2.84268   33.56519   28.63787
   2.85671   33.62050   24.66601
   2.87074   32.52768   20.97218
   2.88477   30.53826   17.95273
   2.89880   28.02628   15.80278
   2.91283   25.34867   14.52040
   2.92685   22.76558   13.97949
   2.94088   20.42610   14.01070
   2.95491   18.39282   14.45293
   2.96894   16.67405   15.17579
   2.98297   15.25026   16.08310
   2.99699   14.08998   17.10739
   3.01102   13.16013   18.20424
   3.02505   12.42993   19.34592
   3.03908   11.87323   20.51472
   3.05311   11.46884   21.70070
   3.06713   11.20031   22.89879
   3.08116   11.05557   24.10760
   3.09519   11.02656   25.32722
   3.10922   11.10909   26.55855
   3.12325   11.30221   27.80343
   3.13727   11.60848   29.06279
   3.15130   12.03378   30.33558
   3.16533   12.58706   31.62016
   3.17936   13.28022   32.90932
   3.19339   14.12747   34.19104
   3.20742   15.14362   35.44627
   3.22144   16.34090   36.64439
   3.23547   17.72290   37.74400
   3.24950   19.27617   38.69297
   3.26353   20.95854   39.43703
   3.27756   22.69315   39.93805
   3.29158   24.37551   40.20111
   3.30561   25.90273   40.29708
   3.31964   27.22297   40.35809
   3.33367   28.36934   40.53273
   3.34770   29.45496   40.93103
   3.36172   30.62813   41.58797
   3.37575   32.02702   42.47112
   3.38978   33.75620   43.50640
   3.40381   35.89132   44.60390
   3.41784   38.49106   45.66309
   3.43186   41.59967   46.56105
   3.44589   45.22997   47.14829
   3.45992   49.34520   47.26138
   3.47395   53.85249   46.75402
   3.48798   58.62734   45.52216
   3.50200   63.55689   43.49572
   3.51603   68.55114   40.58229
   3.53006   73.47614   36.61710
   3.54409   78.04044   31.39855
   3.55812   81.73269   24.83978
   3.57214   83.91190   17.17375
   3.58617   84.06837    9.03627
   3.60020   82.10263    1.32280
   3.61423   78.41750   -5.14126
   3.62826   73.74886   -9.88208
   3.64228   68.88457  -12.85503
   3.65631   64.45149  -14.33601
   3.67034   60.84011  -14.76026
   3.68437   58.22367  -14.59936
   3.69840   56.60204  -14.29722
   3.71243   55.83584  -14.23802
   3.72645   55.66894  -14.71377
   3.74048   55.76228  -15.88420
   3.75451   55.76299  -17.74251
   3.76854   55.39133  -20.13795
   3.78256   54.49464  -22.85549
   3.79659   53.01881  -25.69863
   3.81062   50.94592  -28.50477
   3.82465   48.26877  -31.10035
   3.83868   45.03672  -33.28159
   3.85271   41.39767  -34.85934
   3.86673   37.58133  -35.73016
   3.88076   33.82536  -35.91008
   3.89479   30.31485  -35.50288
   3.90882   27.15648  -34.65434
   3.92285   24.39036  -33.50630
   3.93687   22.01109  -32.17732
   3.95090   19.98943  -30.75792
   3.96493   18.28598  -29.31420
   3.97896   16.85902  -27.89363
   3.99299   15.66697  -26.53046
   4.00701   14.66829  -25.25035
   4.02104   13.81983  -24.06883
   4.03507   13.07755  -22.99057
   4.04910   12.40013  -22.00658
   4.06313   11.75628  -21.09383
   4.07715   11.13100  -20.22270
   4.09118   10.52570  -19.36923
   4.10521    9.95055  -18.51768
   4.11924    9.41626  -17.66654
   4.13327    8.92839  -16.81845
   4.14729    8.48718  -15.97719
   4.16132    8.09028  -15.14441
   4.17535    7.73563  -14.31981
   4.18938    7.42260  -13.50219
   4.20341    7.15179  -12.69101
   4.21744    6.92399  -11.88667
   4.23146    6.73941  -11.09070
   4.24549    6.59799  -10.30379
  4.259519   6.499533  -9.527034
  4.273548   6.444313  -8.761122
  4.287575   6.432599  -8.006763
  4.301603   6.465303  -7.265521
  4.315631   6.543347  -6.538751
  4.329659   6.667610  -5.828006
  4.343687   6.838407  -5.136020
  4.357715   7.056302  -4.463684
  4.371743   7.323083  -3.810921
  4.385772   7.643867  -3.178288
  4.399800   8.027598  -2.568738
  4.413828   8.485978  -1.992034
  4.427855   9.028746  -1.467093
  4.441884   9.658546  -1.021444
   4.45591   10.36453   -0.68763
   4.46994   11.11912   -0.49533
   4.48397   11.87951   -0.46016
   4.49800   12.59960   -0.57445
   4.51202   13.24716   -0.80907
   4.52605   13.81537   -1.13192
   4.54008   14.31483   -1.52890
   4.55411   14.74900   -2.01128
   4.56814   15.09194   -2.59845
   4.58216   15.28867   -3.28687
   4.59619   15.28152   -4.02881
   4.61022   15.04693   -4.73933
   4.62425   14.61418   -5.33086
   4.63828   14.05046   -5.74820
   4.65230   13.42885   -5.97907
   4.66633   12.80451   -6.03865
   4.68036   12.21167   -5.94893
   4.69439   11.67410   -5.72728
   4.70842   11.21539   -5.38848
   4.72244   10.86090   -4.95092
   4.73647   10.63478   -4.44072
   4.75050   10.55585   -3.89137
   4.76453   10.63553   -3.34301
   4.77856   10.87630   -2.84085
   4.79259   11.26895   -2.43581
   4.80661   11.78656   -2.18291
   4.82064   12.37665   -2.13463
   4.83467   12.95647   -2.32533
   4.84870   13.41974   -2.74915
   4.86273   13.66336   -3.34110
   4.87675   13.62764   -3.98333
   4.89078   13.32475   -4.54124
   4.90481   12.83325   -4.91116
   4.91884   12.26246   -5.04872
   4.93287   11.71453   -4.96499
   4.94689   11.26369   -4.70602
   4.96092   10.95357   -4.33181
   4.97495   10.80245   -3.90405
   4.98898   10.80944   -3.48141
   5.00301   10.95648   -3.11752
   5.01703   11.20863   -2.85763
   5.03106   11.51455   -2.73108
   5.04509   11.81427   -2.74193
   5.05912   12.05483   -2.86556
   5.07315   12.20679   -3.05846
   5.08717   12.26860   -3.27912
   5.10120   12.25286   -3.50379
   5.11523   12.16713   -3.72530
   5.12926   12.00500   -3.93756
   5.14329   11.75286   -4.12068
   5.15731   11.40668   -4.23766
   5.17134   10.98483   -4.24525
   5.18537   10.52815   -4.11172
   5.19940   10.08794   -3.82773
  5.213428   9.710825  -3.405487
  5.227456   9.431149  -2.870070
  5.241483   9.270467  -2.250257
  5.255512   9.241002  -1.572912
  5.269539   9.350758  -0.862625
  5.283567   9.606279  -0.141293
   5.29760   10.01467    0.56787
   5.31162   10.58302    1.23863
   5.32565   11.31699    1.83818
   5.33968   12.21660    2.32510
   5.35371   13.26994    2.64895
   5.36774   14.44490    2.75406
   5.38176   15.68190    2.58925
   5.39579   16.89141    2.12647
   5.40982   17.96740    1.38217
   5.42385   18.81879    0.42685
   5.43788   19.40349   -0.63248
   5.45190   19.73907   -1.69131
   5.46593   19.88376   -2.67913
   5.47996   19.90714   -3.56713
   5.49399   19.87428   -4.35939
   5.50802   19.83536   -5.08840
   5.52204   19.81357   -5.80981
   5.53607   19.78899   -6.58453
   5.55010   19.69993   -7.44744
   5.56413   19.46966   -8.38133
   5.57816   19.04718   -9.32007
   5.59219   18.43063  -10.18085
   5.60621   17.65950  -10.89847
   5.62024   16.78832  -11.43792
   5.63427   15.87150  -11.78424
   5.64830   14.96268  -11.93626
   5.66232   14.11592  -11.90819
   5.67635   13.37950  -11.73322
   5.69038   12.78537  -11.46133
   5.70441   12.34264  -11.14921
   5.71844   12.03694  -10.84957
   5.73246   11.83555  -10.59966
   5.74649   11.69819  -10.41525
   5.76052   11.59044  -10.29083
   5.77455   11.49364  -10.20991
   5.78858   11.40612  -10.15750
   5.80261   11.33485  -10.13026
   5.81663   11.28471  -10.13861
   5.83066   11.24835  -10.20171
   5.84469   11.19974  -10.33614
   5.85872   11.09860  -10.54015
   5.87275   10.90585  -10.78518
   5.88677   10.60368  -11.02086
   5.90080   10.20502  -11.19328
   5.91483    9.74817  -11.26471
   5.92886    9.28121  -11.22186
   5.94289    8.84902  -11.07292
   5.95691    8.48595  -10.84191
   5.97094    8.21332  -10.56083
   5.98497    8.03917  -10.26595
  5.998999   7.957607  -9.993000
  6.013027   7.949652  -9.772583
  6.027055   7.985049  -9.624363
  6.041083   8.028328  -9.552521
  6.055111   8.048062  -9.543491
  6.069139   8.025618  -9.572444
  6.083167   7.957925  -9.612467
  6.097195   7.854006  -9.642774
  6.111223   7.727776  -9.652321
  6.125251   7.591701  -9.637510
  6.139279   7.456131  -9.596412
  6.153307   7.332294  -9.528102
  6.167335   7.235530  -9.435210
  6.181363   7.182372  -9.329744
  6.195391   7.183673  -9.234522
  6.209419   7.237016  -9.179381
  6.223447   7.323238  -9.192212
  6.237475   7.408423  -9.289743
  6.251503   7.452089  -9.469117
  6.265532   7.418485  -9.707259
  6.279560   7.287142  -9.965985
   6.29359    7.05735  -10.20203
   6.30762    6.74909  -10.37657
   6.32164    6.39686  -10.46595
   6.33567    6.04041  -10.46534
   6.34970    5.71388  -10.38763
   6.36373    5.43968  -10.25778
   6.37776    5.22704  -10.10368
  6.391785   5.073088  -9.951780
  6.405812   4.965496  -9.823829
  6.419840   4.885730  -9.733186
  6.433868   4.812528  -9.684196
  6.447896   4.725793  -9.671947
  6.461924   4.610414  -9.683326
  6.475952   4.459614  -9.700428
  6.489980   4.276865  -9.705380
  6.504008   4.073718  -9.686613
  6.518036   3.863414  -9.641880
  6.532064   3.654864  -9.576200
  6.546093   3.450150  -9.495582
  6.560121   3.247246  -9.402856
  6.574149   3.044208  -9.296306
  6.588177   2.842489  -9.172097
  6.602205   2.646870  -9.028005
  6.616233   2.463073  -8.864797
  6.630261   2.295617  -8.686052
  6.644289   2.146794  -8.496409
  6.658318   2.016935  -8.300121
  6.672345   1.905201  -8.100828
  6.686373   1.810024  -7.900951
  6.700401   1.729788  -7.702306
  6.714429   1.662923  -7.505845
  6.728457   1.608094  -7.311974
  6.742485   1.564239  -7.121070
  6.756513   1.530598  -6.932929
  6.770541   1.506680  -6.747443
  6.784570   1.492254  -6.564441
  6.798598   1.487395  -6.383607
  6.812625   1.492462  -6.205184
  6.826653   1.508069  -6.028888
  6.840682   1.535159  -5.855048
  6.854710   1.574982  -5.684255
  6.868738   1.629069  -5.517533
  6.882765   1.699137  -5.356602
  6.896793   1.786932  -5.204470
  6.910821   1.893799  -5.065242
  6.924850   2.020040  -4.944299
  6.938878   2.164033  -4.848598
  6.952906   2.321198  -4.785306
  6.966934   2.483580  -4.760532
  6.980961   2.640535  -4.777596
  6.994990   2.780239  -4.836089
  7.009018   2.890903  -4.932152
  7.023046   2.960943  -5.058633
  7.037075   2.979525  -5.203828
  7.051103   2.939720  -5.349706
  7.065130   2.843494  -5.474494
  7.079159   2.703394  -5.559042
  7.093187   2.538826  -5.593169
  7.107215   2.369427  -5.576523
  7.121243   2.210351  -5.515833
  7.135271   2.070813  -5.420867
  7.149299   1.955177  -5.300991
  7.163327   1.864736  -5.164148
  7.177355   1.799241  -5.016341
  7.191382   1.757971  -4.862039
  7.205410   1.740225  -4.704708
  7.219439   1.745711  -4.547153
  7.233468   1.774590  -4.392263
  7.247495   1.827415  -4.243216
  7.261524   1.904845  -4.104078
  7.275551   2.007130  -3.980233
  7.289579   2.133310  -3.878732
  7.303607   2.279811  -3.807749
  7.317635   2.439311  -3.775836
  7.331663   2.599660  -3.789492
  7.345691   2.744478  -3.850356
  7.359719   2.855937  -3.951970
  7.373747   2.919789  -4.078731
  7.387774   2.931186  -4.208781
  7.401803   2.897412  -4.321208
  7.415831   2.834565  -4.403180
  7.429860   2.760614  -4.452859
  7.443887   2.688720  -4.477182
  7.457915   2.624227  -4.486492
  7.471943   2.565336  -4.489495
  7.485972   2.506022  -4.489795
  7.500000   2.440652  -4.484670
# 
# 01/26/2017 at 16:21 YAMBO @ narro [start]
# 01/26/2017 at 16:21               [end]
#  
# Timing   [Min/Max/Average]: 01s/01s/01s
#
# .-Input file : yambo.in
# | optics                       # [R OPT] Optics
# | bse                          # [R BSE] Bethe Salpeter Equation.
# | BoseTemp= 0.000000     eV    # Bosonic Temperature
# | FFTGvecs=  411         RL    # [FFT] Plane-waves
# | BSEmod= "retarded"           # [BSE] resonant/retarded/coupling
# | BSKmod= "IP"                 # [BSE] IP/Hartree/HF/ALDA/SEX/BSfxc
# | DipApproach= "Shifted grids" # [Xd] [G-space v/R-space x/Covariant/Shifted grids]
# | ShiftedPaths= "SHIFTED_GRID/shift_1 SHIFTED_GRID/shift_2 SHIFTED_GRID/shift_3" # [Xd] Shifted grids paths (separated by a space)
# | MetDamp                      # [BSE] Define \w+=sqrt(\w*(\w+i\eta))
# | % BEnRange
# |  0.500000 | 7.500000 | eV    # [BSS] Energy range
# | %
# | % BDmRange
# |   0.10000 |  0.10000 | eV    # [BSS] Damping range
# | %
# | BEnSteps=  500               # [BSS] Energy steps
# | % BLongDir
# | 0.1000E-4 | 0.000    | 0.000    |        # [BSS] [cc] Electric Field
# | %
# | % BSEBands
# |    1 |  32 |                 # [BSK] Bands range
# | %
