#  __      __   ______   __       __  _______    ______     
# |  \    /  \ /      \ |  \     /  \|       \  /      \    
#  \$$\  /  $$|  $$$$$$\| $$\   /  $$| $$$$$$$\|  $$$$$$\   
#   \$$\/  $$ | $$__| $$| $$$\ /  $$$| $$__/ $$| $$  | $$   
#    \$$  $$  | $$    $$| $$$$\  $$$$| $$    $$| $$  | $$   
#     \$$$$   | $$$$$$$$| $$\$$ $$ $$| $$$$$$$\| $$  | $$   
#     | $$    | $$  | $$| $$ \$$$| $$| $$__/ $$| $$__/ $$   
#     | $$    | $$  | $$| $$  \$ | $$| $$    $$ \$$    $$   
#      \$$     \$$   \$$ \$$      \$$ \$$$$$$$   \$$$$$$    
#                                                           
#        Version 4.3.0 Revision 15169 Hash 3ae439d          
#                      MPI+SLK Build                        
#                http://www.yambo-code.org                  
#
# Absorption @ Q(1) [q->0 direction] : 1.0000000  0.0000000  0.0000000
#
#
# - Energies      are Slater exchange(X)+Perdew & Zunger(C)
# - Wavefunctions are Slater exchange(X)+Perdew & Zunger(C)
#
# - The Green`s function is Retarded -
# - Using the Length Gauge -
# - [r,Vnl] *is* included -
#
#    E/ev[1]       EPS-Im[2]     EPS-Re[3]     EPSo-Im[4]    EPSo-Re[5]
#
   0.10000        234.76       -828.35        235.94       -806.92   
   0.10982        195.83       -653.42        196.86       -631.54   
   0.11964        166.13       -519.56        167.13       -497.40   
   0.12946        142.92       -414.72        144.01       -392.45   
   0.13928        124.40       -330.99        125.71       -308.76   
   0.14910        109.64       -263.30        111.00       -240.89   
   0.15892        97.559       -207.58        99.037       -185.06   
      0.16874      87.62202    -161.19232      89.19432    -138.52415
      0.17856      79.31055    -122.09306      81.02318     -99.29070
     0.188377     72.360428    -88.832405     74.187416    -65.866035
     0.198196     66.497093    -60.257015     68.432129    -37.117455
     0.208016     61.504639    -35.495853     63.561420    -12.172999
     0.217836     57.244125    -13.863794     59.422710      9.647847
     0.227655     53.587051      5.164322     55.895882     28.882208
     0.237475     50.441998     22.026726     52.885406     45.958931
     0.247295     47.729290     37.064503     50.314598     61.223732
     0.257114     45.393372     50.558994     48.121391     74.958076
     0.266934     43.374573     62.740246     46.255230     87.392868
     0.276754     41.630573     73.797867     44.674664     98.719231
      0.28657      40.14238      83.89970      43.34554     109.09656
      0.29639      38.86142      93.16467      42.23959     118.65854
      0.30621      37.76995     101.70840      41.33337     127.51844
      0.31603      36.85772     109.64083      40.60734     135.77255
      0.32585      36.09258     117.02267      40.04531     143.50325
      0.33567      35.47258     123.94083      39.63378     150.78152
      0.34549      34.97747     130.44655      39.36161     157.66913
      0.35531      34.60595     136.60785      39.21961     164.21974
      0.36513      34.34332     142.45221      39.20031     170.48047
      0.37495      34.18279     148.03011      39.29772     176.49301
      0.38477      34.11595     153.36020      39.50718     182.29430
      0.39459      34.13679     158.48563      39.82519     187.91747
      0.40441      34.25966     163.46922      40.24932     193.39214
      0.41423      34.45829     168.27451      40.77810     198.74535
      0.42405      34.74303     172.96480      41.41100     204.00168
      0.43387      35.11183     177.55118      42.14835     209.18367
      0.44369      35.57058     182.10156      42.99131     214.31226
      0.45351      36.09996     186.54977      43.94189     219.40695
      0.46333      36.70932     190.94109      45.00289     224.48601
      0.47315      37.40330     195.29858      46.17799     229.56691
      0.48297      38.18306     199.63663      47.47171     234.66614
      0.49279      39.05328     203.99113      48.88948     239.79979
      0.50261      40.00436     208.32437      50.43771     244.98309
      0.51242      41.05197     212.69295      52.12382     250.23135
      0.52224      42.19696     217.08290      53.95634     255.55951
      0.53206      43.45414     221.55750      55.94503     260.98227
      0.54188      44.80527     226.05145      58.10096     266.51447
      0.55170      46.27432     230.62979      60.43670     272.17084
      0.56152      47.85692     235.26671      62.96646     277.96646
      0.57134      49.56546     240.01350      65.70630     283.91638
      0.58116      51.41908     244.85896      68.67436     290.03607
      0.59098      53.43901     249.87003      71.89109     296.34122
      0.60080      55.59882     254.94289      75.37962     302.84805
      0.61062      57.90984     260.13977      79.16609     309.57278
      0.62044      60.43932     265.54266      83.28006     316.53220
      0.63026      63.17363     271.08093      87.75509     323.74338
      0.64008      66.12283     276.85010      92.62918     331.22351
      0.64990      69.29784     282.76541      97.94560     338.98993
      0.65972      72.75110     288.87436     103.75360     347.05945
      0.66954      76.49724     295.23215     110.10928     355.44891
      0.67936      80.53188     301.85645     117.07679     364.17383
      0.68918      84.94682     308.68094     124.72960     373.24835
      0.69900      89.75412     315.81870     133.15176     382.68405
      0.70882      95.00681     323.20743     142.43987     392.48892
      0.71864     100.75098     330.95343     152.70479     402.66568
      0.72846     107.04050     338.97656     164.07407     413.20975
      0.73828     113.95811     347.41870     176.69429     424.10614
      0.74810     121.50753     356.07239     190.73389     435.32593
      0.75792     129.82274     365.09329     206.38608     446.82086
      0.76774     139.01230     374.38504     223.87169     458.51636
      0.77756     149.11763     384.17191     243.44194     470.30246
      0.78737     160.45821     394.30215     265.38025     482.02310
      0.79719     172.89436     404.70782     290.00241     493.45862
      0.80701     186.87189     415.36813     317.65375     504.30719
      0.81683     202.50018     426.42700     348.70160     514.15997
      0.82665     219.84583     437.49600     383.51898     522.47070
      0.83647     239.23033     448.60419     422.45587     528.52100
      0.84629     261.05505     459.68222     465.79257     531.38348
      0.85611     285.52350     470.22128     513.66638     529.88989
      0.86593     312.73087     480.24295     565.96686     522.61407
      0.87575     343.88693     489.07379     622.19495     507.89276
      0.88557     378.50381     496.13885     681.29340     483.90961
      0.89539     417.41736     500.76062     741.47485     448.88010
      0.90521     460.05896     502.18698     800.10547     401.35794
      0.91503     507.39423     498.26974     853.73163     340.66217
      0.92485     558.62494     488.63852     898.34674     267.33981
      0.93467     613.82910     471.09424     929.94928     183.51213
   0.94449        669.94        444.51        945.31        92.900   
   0.95431        727.64        405.94        942.75       0.39314   
      0.96413     781.38464     355.88074     922.54858     -88.77192
      0.97395     828.68219     293.59979     886.88983    -169.96455
      0.98377     866.22296     219.72920     839.30255    -239.89189
      0.99359     890.35321     136.98021     783.86121    -296.89612
      1.00341     898.04297      49.56652     724.46021    -340.81995
      1.01323     888.37054     -37.13238     664.33740    -372.60776
      1.02305     862.67450    -118.78351     605.88287    -393.83942
      1.03287     823.68903    -192.04053     550.66248    -406.33450
      1.04269     774.98407    -253.16379     499.55865    -411.88007
      1.05250     720.64703    -303.10205     452.94388    -412.07834
      1.06232     663.62042    -339.11707     410.84610    -408.28284
      1.07214     607.10266    -364.90637     373.07874    -401.59183
      1.08196     552.71350    -381.44464     339.33569    -392.87039
      1.09178     501.98627    -390.17435     309.25632    -382.78525
      1.10160     455.32828    -393.38870     282.46692    -371.84113
      1.11142     413.10202    -391.81604     258.60507    -360.41428
      1.12124     374.61917    -387.27850     237.33310    -348.78174
      1.13106     340.39655    -379.87643     218.34380    -337.14371
      1.14088     309.86447    -371.06421     201.36299    -325.64331
      1.15070     282.72391    -361.10556     186.14807    -314.37961
      1.16052     258.33191    -350.31644     172.48598    -303.41989
      1.17034     236.74586    -339.35513     160.19066    -292.80722
      1.18016     217.56752    -328.31265     149.09987    -282.56708
      1.18998     200.38112    -317.37332     139.07237    -272.71207
      1.19980     185.00485    -306.50952     129.98538    -263.24561
      1.20962     171.14964    -295.89178     121.73195    -254.16437
      1.21944     158.68285    -285.68356     114.21884    -245.46045
      1.22926     147.60350    -275.72726     107.36497    -237.12299
      1.23908     137.46399    -266.13193     101.09924    -229.13884
      1.24890     128.37859    -256.95523      95.35950    -221.49356
      1.25872     120.10130    -248.13423      90.09131    -214.17213
      1.26854     112.55780    -239.62990      85.24680    -207.15942
      1.27836     105.70466    -231.50497      80.78376    -200.44014
      1.28818      99.44942    -223.74348      76.66502    -193.99940
      1.29800      93.71007    -216.30313      72.85766    -187.82274
      1.30782      88.45719    -209.17062      69.33255    -181.89621
      1.31764      83.63484    -202.32787      66.06380    -176.20636
      1.32745      79.18634    -195.80309      63.02834    -170.74045
      1.33727      75.08532    -189.51566      60.20568    -165.48631
      1.34709      71.29221    -183.52609      57.57743    -160.43250
      1.35691      67.78922    -177.75462      55.12718    -155.56798
      1.36673      64.54729    -172.22661      52.84021    -150.88254
      1.37655      61.54246    -166.90659      50.70325    -146.36641
      1.38637      58.74963    -161.80159      48.70442    -142.01047
      1.39619      56.14205    -156.88402      46.83296    -137.80592
      1.40601      53.72028    -152.15627      45.07920    -133.74471
      1.41583      51.45620    -147.60234      43.43437    -129.81905
      1.42565      49.34433    -143.21835      41.89053    -126.02175
      1.43547      47.37200    -138.99544      40.44047    -122.34591
      1.44529      45.52464    -134.91855      39.07767    -118.78500
      1.45511      43.79726    -130.98621      37.79618    -115.33283
      1.46493      42.17488    -127.18206      36.59063    -111.98383
      1.47475      40.64977    -123.49872      35.45607    -108.73232
      1.48457      39.22345    -119.94446      34.38803    -105.57323
      1.49439      37.87976    -116.49908      33.38242    -102.50158
      1.50421      36.61514    -113.15752      32.43552     -99.51267
      1.51403      35.42989    -109.92221      31.54392     -96.60213
      1.52385      34.30939    -106.77673      30.70454     -93.76569
      1.53367      33.25959    -103.72946      29.91452     -90.99934
      1.54349      32.26664    -100.76147      29.17132     -88.29926
     1.553306     31.331127    -97.875038     28.472563    -85.661743
     1.563126     30.451754    -95.068062     27.816116    -83.083298
     1.572946     29.621382    -92.331375     27.200048    -80.560524
     1.582765     28.843033    -89.669090     26.622612    -78.090271
     1.592585     28.108057    -87.069466     26.082216    -75.669350
     1.602405     27.417311    -84.532173     25.577446    -73.294800
     1.612224     26.766127    -82.050331     25.107040    -70.963722
     1.622044     26.153324    -79.623466     24.669868    -68.673271
     1.631864     25.580450    -77.251770     24.264952    -66.420784
     1.641683     25.041462    -74.926292     23.891434    -64.203568
     1.651503     24.538017    -72.648727     23.548605    -62.019054
     1.661323     24.067381    -70.414627     23.235855    -59.864689
     1.671142     23.629675    -68.222176     22.952730    -57.738041
     1.680962     23.220795    -66.065216     22.698872    -55.636642
     1.690781     22.842443    -63.944386     22.474058    -53.558048
     1.700601     22.492317    -61.855869     22.278202    -51.499935
     1.710421     22.172611    -59.799698     22.111315    -49.459862
     1.720240     21.879311    -57.770390     21.973572    -47.435566
     1.730060     21.614365    -55.768154     21.865261    -45.424595
     1.739880     21.375378    -53.788139     21.786829    -43.424664
     1.749699     21.163363    -51.829517     21.738871    -41.433327
     1.759519     20.979748    -49.891617     21.722132    -39.448261
     1.769339     20.821356    -47.969620     21.737541    -37.466953
     1.779158     20.690554    -46.062614     21.786209    -35.487034
     1.788978     20.587639    -44.168671     21.869459    -33.505905
     1.798797     20.511307    -42.284676     21.988813    -31.521099
     1.808617     20.464781    -40.409916     22.146069    -29.529894
     1.818437     20.445330    -38.539768     22.343271    -27.529696
     1.828256     20.456722    -36.674274     22.582779    -25.517658
     1.838076     20.498510    -34.810139     22.867287    -23.491039
     1.847896     20.572153    -32.944645     23.199863    -21.446795
     1.857715     20.678238    -31.077097     23.583990    -19.382019
     1.867535     20.819643    -29.203218     24.023666    -17.293478
     1.877355     20.998016    -27.320896     24.523384    -15.178085
     1.887174     21.216732    -25.427105     25.088320    -13.032444
     1.896994     21.476383    -23.520527     25.724293    -10.853274
     1.906814     21.779907    -21.598104     26.437990     -8.637052
     1.916633     22.130899    -19.656385     27.236979     -6.380379
     1.926453     22.531736    -17.693220     28.129940     -4.079667
     1.936272     22.988325    -15.705273     29.126740     -1.731576
     1.946092     23.504986    -13.689800     30.238737      0.667304
     1.955912     24.086817    -11.642002     31.478844      3.119999
     1.965731     24.738924     -9.561432     32.861977      5.629338
     1.975551     25.469353     -7.443275     34.405159      8.197395
     1.985370     26.285271     -5.283281     36.128044     10.825612
     1.995190     27.196190     -3.079934     38.053246     13.514269
     2.005010     28.211718     -0.829007     40.206676     16.261852
     2.014829     29.343809      1.471688     42.618298     19.064835
     2.024649     30.606049      3.826126     45.322380     21.916325
     2.034469     32.013462      6.234648     48.358364     24.805468
     2.044288     33.584312      8.702102     51.771111     27.715487
     2.054108     35.338703     11.226248     55.611755     30.622229
     2.063928     37.299644     13.806291     59.937412     33.490997
     2.073747     39.493805     16.439985     64.811798     36.273895
     2.083567     41.952881     19.124531     70.303490     38.905075
     2.093387     44.711712     21.850306     76.484695     41.295914
     2.103206     47.811378     24.600363     83.426582     43.328529
     2.113026     51.295788     27.359627     91.193291     44.848949
     2.122845     55.223286     30.090889     99.830009     45.660034
      2.13267      59.64753      32.76414     109.34785      45.51614
      2.14248      64.63133      35.31849     119.69936      44.12207
      2.15230      70.24118      37.67923     130.75027      41.14101
      2.16212      76.55100      39.74314     142.24391      36.21793
      2.17194      83.61798      41.38540     153.77208      29.02359
      2.18176      91.49853      42.42524     164.75909      19.32492
      2.19158     100.21320      42.65181     174.48491       7.07149
      2.20140     109.74715      41.79493     182.15678      -7.51712
      2.21122     119.98410      39.59012     187.03838     -23.90588
      2.22104     130.76764      35.63094     188.60403     -41.26982
      2.23086     141.75246      29.60844     186.66943     -58.61344
      2.24068     152.43777      21.30146     181.44037     -74.94503
      2.25050     162.16017      10.59493     173.45786     -89.45496
      2.26032     170.24536      -2.46400     163.46585    -101.62494
      2.27014     175.93216     -17.46822     152.25514    -111.25339
      2.27996     178.62041     -33.68759     140.53978    -118.40279
      2.28978     177.99968     -50.23974     128.88510    -123.31440
      2.29960     174.14168     -66.16100     117.69097    -126.32024
      2.30942     167.45879     -80.61509     107.20528    -127.77559
      2.31924     158.59880     -93.03040      97.55714    -128.01538
      2.32906     148.32927    -103.03016      88.78916    -127.33224
      2.33888     137.31242    -110.65973      80.88827    -125.96918
      2.34870     126.19353    -116.06133      73.80710    -124.12077
      2.35852     115.42079    -119.53176      67.48125    -121.93903
      2.36834     105.19073    -121.40675      61.83873    -119.54006
      2.37816      95.74595    -122.00192      56.80779    -117.01137
      2.38798      87.12837    -121.68379      52.31941    -114.41759
      2.39780      79.33713    -120.60236      48.31056    -111.80640
      2.40762      72.35345    -119.00225      44.72391    -109.21166
      2.41743      66.10219    -117.03471      41.50881    -106.65752
      2.42725      60.52107    -114.81688      38.62033    -104.16046
      2.43707      55.55057    -112.45876      36.01935    -101.73153
      2.44689      51.11617    -110.01638      33.67149     -99.37746
      2.45671      47.15895    -107.54331      31.54701     -97.10216
      2.46653      43.62358    -105.07952      29.61985     -94.90714
      2.47635      40.44146    -102.62511      27.86748     -92.79253
      2.48617      37.59471    -100.23929      26.27015     -90.75718
     2.495992     35.035637    -97.912415     24.810768    -88.799263
     2.505811     32.725704    -95.649437     23.474293    -86.916405
     2.515631     30.634830    -93.465805     22.247673    -85.105919
     2.525451     28.744698    -91.360756     21.119398    -83.364868
     2.535270     27.025507    -89.324455     20.079412    -81.690292
     2.545090     25.462559    -87.367836     19.118828    -80.079147
     2.554909     24.032255    -85.478561     18.229868    -78.528534
     2.564729     22.723616    -83.669243     17.405584    -77.035439
     2.574549     21.524715    -81.925850     16.639908    -75.597145
     2.584369     20.420902    -80.248962     15.927363    -74.210876
     2.594188     19.406281    -78.639046     15.263170    -72.874069
     2.604008     18.467947    -77.088921     14.642991    -71.584251
     2.613827     17.601978    -75.595657     14.063011    -70.339111
     2.623647     16.800301    -74.161690     13.519789    -69.136406
     2.633467     16.054928    -72.778000     13.010223    -67.974007
     2.643286     15.360919    -71.440605     12.531569    -66.849991
     2.653106     14.714448    -70.150948     12.081312    -65.762436
     2.662925     14.112259    -68.910538     11.657223    -64.709656
     2.672745     13.549840    -67.716728     11.257247    -63.689903
     2.682565     13.022429    -66.560196     10.879567    -62.701660
     2.692384     12.528347    -65.443146     10.522492    -61.743427
     2.702204     12.064454    -64.361862     10.184529    -60.813850
     2.712024     11.628614    -63.315918      9.864280    -59.911591
     2.721843     11.218197    -62.306034      9.560501    -59.035439
     2.731663     10.831128    -61.328163      9.272036    -58.184166
     2.741483     10.465285    -60.378265      8.997842    -57.356808
     2.751302     10.119627    -59.456532      8.736953    -56.552200
     2.761122      9.791876    -58.562168      8.488497    -55.769413
     2.770942      9.483036    -57.696762      8.251655    -55.007523
     2.780761      9.189290    -56.855289      8.025692    -54.265648
     2.790581      8.910647    -56.036945      7.809919    -53.542999
     2.800400      8.645549    -55.242222      7.603715    -52.838764
     2.810220      8.394187    -54.470612      7.406479    -52.152195
     2.820040      8.154427    -53.719357      7.217694    -51.482639
     2.829859      7.926169    -52.987534      7.036844    -50.829376
     2.839679      7.708562    -52.275894      6.863479    -50.191826
     2.849499      7.500638    -51.582737      6.697163    -49.569370
     2.859318      7.301697    -50.905125      6.537507    -48.961452
     2.869138      7.111839    -50.246578      6.384135    -48.367531
     2.878958      6.930044    -49.604301      6.236710    -47.787094
     2.888777      6.756077    -48.977665      6.094906    -47.219658
     2.898597      6.589295    -48.365898      5.958430    -46.664772
     2.908417      6.429307    -47.769360      5.826997    -46.121967
     2.918236      6.275596    -47.185600      5.700355    -45.590858
     2.928056      6.128159    -46.615784      5.578253    -45.071022
     2.937876      5.986317    -46.058998      5.460469    -44.562099
     2.947695      5.850224    -45.515739      5.346788    -44.063705
     2.957515      5.719050    -44.982891      5.237012    -43.575520
     2.967335      5.592864    -44.462826      5.130948    -43.097183
     2.977154      5.470750    -43.953094      5.028428    -42.628395
     2.986974      5.353623    -43.455254      4.929278    -42.168846
     2.996793      5.240425    -42.966579      4.833351    -41.718273
     3.006613      5.131178    -42.489258      4.740492    -41.276363
     3.016433      5.025644    -42.020508      4.650570    -40.842857
     3.026252      4.923820    -41.560726      4.563449    -40.417515
     3.036072      4.825418    -41.110748      4.479012    -40.000095
     3.045892      4.730253    -40.671101      4.397137    -39.590351
     3.055711      4.638212    -40.238819      4.317719    -39.188072
     3.065531      4.549110    -39.814537      4.240653    -38.793037
     3.075350      4.462853    -39.399189      4.165842    -38.405018
     3.085170      4.379241    -38.990635      4.093191    -38.023861
     3.094990      4.298311    -38.590725      4.022615    -37.649349
     3.104810      4.219727    -38.196896      3.954028    -37.281300
     3.114629      4.143771    -37.811768      3.887355    -36.919533
     3.124449      4.069818    -37.433102      3.822514    -36.563892
     3.134268      3.998029    -37.060352      3.759442    -36.214218
     3.144088      3.928450    -36.695034      3.698066    -35.870327
     3.153908      3.860763    -36.335506      3.638325    -35.532066
     3.163727      3.794980    -35.982426      3.580155    -35.199318
     3.173547      3.731120    -35.635452      3.523499    -34.871937
     3.183367      3.669010    -35.294453      3.468303    -34.549774
     3.193186      3.608589    -34.959274      3.414514    -34.232700
     3.203006      3.549683    -34.629059      3.362078    -33.920601
     3.212825      3.492489    -34.304813      3.310952    -33.613342
     3.222645      3.436733    -33.985432      3.261087    -33.310802
     3.232465      3.382529    -33.671753      3.212442    -33.012878
     3.242284      3.329601    -33.362850      3.164972    -32.719452
     3.252104      3.278073    -33.058052      3.118640    -32.430428
     3.261924      3.227761    -32.758373      3.073408    -32.145695
     3.271743      3.178753    -32.463272      3.029237    -31.865128
     3.281563      3.131138    -32.173763      2.986095    -31.588684
     3.291383      3.084550    -31.888012      2.943946    -31.316216
     3.301202      3.039038    -31.606060      2.902760    -31.047680
     3.311022      2.994658    -31.328547      2.862506    -30.782942
     3.320841      2.951387    -31.055601      2.823155    -30.521963
     3.330661      2.909111    -30.786552      2.784677    -30.264624
     3.340481      2.867731    -30.520756      2.747049    -30.010868
     3.350300      2.827386    -30.259153      2.710241    -29.760593
     3.360120      2.787984    -30.001762      2.674232    -29.513746
     3.369940      2.749321    -29.747107      2.638995    -29.270243
     3.379759      2.711699    -29.497021      2.604509    -29.030025
     3.389579      2.674795    -29.249233      2.570752    -28.792999
     3.399398      2.638728    -29.005976      2.537702    -28.559118
     3.409218      2.603498    -28.766006      2.505339    -28.328318
     3.419038      2.569021    -28.528780      2.473645    -28.100533
     3.428857      2.535268    -28.295038      2.442600    -27.875694
     3.438677      2.502173    -28.064432      2.412186    -27.653742
     3.448497      2.469861    -27.836779      2.382385    -27.434614
     3.458317      2.438198    -27.612604      2.353183    -27.218271
     3.468136      2.407250    -27.391172      2.324562    -27.004644
     3.477956      2.376894    -27.172279      2.296507    -26.793686
     3.487776      2.347169    -26.956230      2.269001    -26.585320
     3.497595      2.318043    -26.743069      2.242034    -26.379538
     3.507415      2.289543    -26.532728      2.215589    -26.176256
     3.517235      2.261514    -26.324585      2.189653    -25.975443
     3.527054      2.234128    -26.119751      2.164215    -25.777044
     3.536874      2.207234    -25.916943      2.139262    -25.581013
     3.546693      2.180924    -25.716845      2.114782    -25.387312
     3.556513      2.155030    -25.519508      2.090761    -25.195881
     3.566333      2.129647    -25.323851      2.067192    -25.006697
     3.576152      2.104815    -25.131159      2.044062    -24.819700
     3.585972      2.080469    -24.940542      2.021362    -24.634863
     3.595792      2.056518    -24.752134      1.999082    -24.452137
     3.605611      2.033113    -24.566097      1.977212    -24.271490
     3.615431      2.010100    -24.382551      1.955744    -24.092888
     3.625250      1.987495    -24.200592      1.934668    -23.916275
     3.635070      1.965312    -24.021046      1.913975    -23.741631
     3.644890      1.943528    -23.843388      1.893658    -23.568914
     3.654709      1.922180    -23.667990      1.873710    -23.398088
     3.664529      1.901179    -23.494289      1.854122    -23.229118
     3.674349      1.880606    -23.322716      1.834887    -23.061968
     3.684168      1.860417    -23.153563      1.816000    -22.896618
     3.693988      1.840529    -22.985569      1.797452    -22.733034
     3.703807      1.821056    -22.819548      1.779238    -22.571167
     3.713627      1.801901    -22.655346      1.761350    -22.410986
     3.723447      1.783086    -22.492571      1.743785    -22.252483
     3.733266      1.764654    -22.332052      1.726536    -22.095619
     3.743086      1.746531    -22.173389      1.709598    -21.940359
     3.752906      1.728687    -22.016031      1.692966    -21.786671
     3.762725      1.711179    -21.860479      1.676636    -21.634533
     3.772545      1.694005    -21.706593      1.660603    -21.483925
     3.782364      1.677141    -21.554514      1.644863    -21.334808
     3.792184      1.660547    -21.403889      1.629411    -21.187140
     3.802004      1.644226    -21.254370      1.614246    -21.040922
     3.811824      1.628203    -21.106758      1.599362    -20.896120
     3.821643      1.612506    -20.960375      1.584758    -20.752708
     3.831463      1.597048    -20.815699      1.570431    -20.610641
     3.841283      1.581890    -20.672426      1.556377    -20.469913
     3.851102      1.567006    -20.530499      1.542596    -20.330503
     3.860922      1.552359    -20.390154      1.529085    -20.192373
     3.870741      1.538016    -20.251009      1.515844    -20.055508
     3.880561      1.523952    -20.113302      1.502869    -19.919863
     3.890381      1.510109    -19.976732      1.490163    -19.785431
     3.900200      1.496499    -19.841476      1.477723    -19.652189
     3.910020      1.483132    -19.707426      1.465551    -19.520121
     3.919840      1.470071    -19.574648      1.453647    -19.389172
     3.929659      1.457223    -19.443235      1.442012    -19.259335
     3.939479      1.444661    -19.313112      1.430648    -19.130600
     3.949298      1.432309    -19.183870      1.419557    -19.002924
     3.959118      1.420185    -19.055899      1.408741    -18.876278
     3.968938      1.408352    -18.929218      1.398205    -18.750656
     3.978757      1.396746    -18.803391      1.387952    -18.626026
     3.988577      1.385394    -18.678917      1.377988    -18.502365
     3.998397      1.374241    -18.555243      1.368319    -18.379641
     4.008216      1.363383    -18.432724      1.358951    -18.257833
     4.018036      1.352756    -18.311316      1.349893    -18.136923
     4.027855      1.342353    -18.190563      1.341153    -18.016876
     4.037675      1.332242    -18.071096      1.332742    -17.897665
     4.047495      1.322342    -17.952593      1.324672    -17.779270
     4.057314      1.312703    -17.834730      1.316957    -17.661659
     4.067134      1.303361    -17.718039      1.309612    -17.544817
     4.076954      1.294237    -17.602175      1.302654    -17.428696
     4.086773      1.285434    -17.487158      1.296104    -17.313276
     4.096593      1.276867    -17.372923      1.289984    -17.198532
     4.106412      1.268609    -17.259600      1.284320    -17.084440
     4.116232      1.260652    -17.147039      1.279139    -16.970955
     4.126052      1.252972    -17.035244      1.274476    -16.858055
     4.135871      1.245615    -16.924101      1.270368    -16.745708
     4.145691      1.238618    -16.813841      1.266857    -16.633884
     4.155511      1.231921    -16.704098      1.263990    -16.522554
     4.165330      1.225575    -16.594934      1.261825    -16.411680
     4.175150      1.219653    -16.486641      1.260422    -16.301237
     4.184969      1.214117    -16.378920      1.259852    -16.191195
     4.194789      1.209022    -16.271767      1.260197    -16.081533
     4.204609      1.204360    -16.165279      1.261551    -15.972227
     4.214428      1.200173    -16.059233      1.264017    -15.863256
     4.224248      1.196521    -15.953683      1.267715    -15.754616
     4.234068      1.193422    -15.848452      1.272782    -15.646294
     4.243887      1.190919    -15.743839      1.279370    -15.538315
     4.253707      1.189080    -15.639778      1.287650    -15.430708
     4.263527      1.187946    -15.535937      1.297810    -15.323540
     4.273347      1.187582    -15.432636      1.310057    -15.216888
     4.283166      1.188118    -15.329538      1.324606    -15.110897
     4.292986      1.189513    -15.227001      1.341680    -15.005737
     4.302805      1.191925    -15.124629      1.361495    -14.901650
     4.312625      1.195442    -15.022721      1.384242    -14.798911
     4.322445      1.200094    -14.921081      1.410069    -14.697877
     4.332264      1.206170    -14.820004      1.439058    -14.598932
     4.342084      1.213511    -14.719271      1.471214    -14.502471
     4.351904      1.222433    -14.619055      1.506477    -14.408839
     4.361723      1.232871    -14.519114      1.544752    -14.318313
     4.371543      1.245123    -14.419901      1.586001    -14.231075
     4.381362      1.259190    -14.321024      1.630329    -14.147251
     4.391182      1.275451    -14.222721      1.678077    -14.067028
     4.401002      1.293896    -14.124850      1.729811    -13.990856
     4.410821      1.315092    -14.027604      1.786237    -13.919594
     4.420641      1.339375    -13.931236      1.847977    -13.854700
     4.430461      1.367026    -13.835982      1.915280    -13.798258
     4.440280      1.398592    -13.742061      1.987670    -13.752909
     4.450100      1.434407    -13.650202      2.063626    -13.721616
     4.459919      1.474772    -13.561067      2.140304    -13.707202
     4.469739      1.519995    -13.475284      2.213426    -13.711824
     4.479559      1.570090    -13.394122      2.277446    -13.736186
     4.489378      1.625083    -13.318071      2.326159    -13.778868
     4.499198      1.684962    -13.248402      2.353714    -13.835902
     4.509017      1.749543    -13.186231      2.355851    -13.901014
     4.518837      1.818552    -13.133056      2.330963    -13.966468
     4.528657      1.891362    -13.090558      2.280525    -14.024490
     4.538476      1.967002    -13.061172      2.208682    -14.068682
     4.548296      2.043230    -13.046955      2.121224    -14.094912
     4.558116      2.116791    -13.049957      2.024355    -14.101553
     4.567935      2.183123    -13.071478      1.923709    -14.089052
     4.577755      2.236667    -13.110929      1.823757    -14.059294
     4.587575      2.271704    -13.165608      1.727662    -14.014907
     4.597394      2.283557    -13.230455      1.637389    -13.958698
     4.607214      2.269437    -13.298501      1.553962    -13.893328
     4.617034      2.229568    -13.362077      1.477713    -13.821113
     4.626853      2.167052    -13.414417      1.408524    -13.743999
     4.636673      2.086933    -13.450413      1.346009    -13.663514
     4.646493      1.995217    -13.467712      1.289652    -13.580874
     4.656312      1.897688    -13.465740      1.238868    -13.497005
     4.666132      1.799154    -13.445989      1.193076    -13.412593
     4.675952      1.703317    -13.410822      1.151719    -13.328146
     4.685771      1.612479    -13.362947      1.114290    -13.244043
     4.695591      1.528119    -13.304974      1.080323    -13.160551
     4.705410      1.450712    -13.239402      1.049411    -13.077844
     4.715230      1.380247    -13.168233      1.021188    -12.996060
     4.725050      1.316585    -13.093096      0.995340    -12.915278
     4.734869      1.259144    -13.015502      0.971588    -12.835549
     4.744689      1.207399    -12.936235      0.949692    -12.756892
     4.754509      1.160815    -12.856151      0.929439    -12.679317
     4.764328      1.118775    -12.775830      0.910648    -12.602816
     4.774148      1.080828    -12.695771      0.893158    -12.527382
     4.783967      1.046410    -12.615982      0.876830    -12.452994
     4.793787      1.015126    -12.537073      0.861542    -12.379621
     4.803607      0.986676    -12.458880      0.847189    -12.307246
     4.813426      0.960652    -12.381656      0.833675    -12.235828
     4.823246      0.936802    -12.305496      0.820921    -12.165357
     4.833066      0.914828    -12.230229      0.808851    -12.095785
     4.842885      0.894567    -12.156081      0.797404    -12.027096
     4.852705      0.875831    -12.082952      0.786522    -11.959263
     4.862525      0.858404    -12.010709      0.776156    -11.892252
     4.872344      0.842178    -11.939663      0.766260    -11.826041
     4.882164      0.827016    -11.869619      0.756796    -11.760603
     4.891984      0.812797    -11.800320      0.747727    -11.695918
     4.901803      0.799448    -11.732078      0.739024    -11.631961
     4.911623      0.786881    -11.664930      0.730655    -11.568711
     4.921443      0.774995    -11.598380      0.722597    -11.506145
     4.931262      0.763750    -11.532857      0.714827    -11.444252
     4.941082      0.753076    -11.468108      0.707324    -11.383005
     4.950902      0.742930    -11.404173      0.700068    -11.322383
     4.960721      0.733261    -11.340995      0.693043    -11.262379
     4.970541      0.724011    -11.278492      0.686235    -11.202975
     4.980361      0.715176    -11.216817      0.679627    -11.144151
     4.990180      0.706707    -11.155797      0.673209    -11.085894
     5.000000      0.698590    -11.095526      0.666968    -11.028192
# 
# 07/24/2018 at 07:03 YAMBO @ NewLaptop [start]
# 07/24/2018 at 07:03                   [end]
#
# .-Input file : yambo.in
# | optics                         # [R OPT] Optics
# | chi                            # [R CHI] Dyson equation for Chi.
# | ElecTemp=  0.02586     eV      # Electronic Temperature
# | BoseTemp=  0.02586     eV      # Bosonic Temperature
# | FFTGvecs= 181          RL      # [FFT] Plane-waves
# | Chimod= "Hartree"              # [X] IP/Hartree/ALDA/LRC/BSfxc
# | NGsBlkXd=  51          RL      # [Xd] Response block size
# | % QpntsRXd
# |  1 | 1 |                       # [Xd] Transferred momenta
# | %
# | % BndsRnXd
# |   1 | 20 |                     # [Xd] Polarization function bands
# | %
# | GrFnTpXd= "R"                  # [Xd] Green`s function (T)ordered,(R)etarded,(r)senant,(a)ntiresonant [T, R, r, Ta, Ra]
# | % EnRngeXd
# |   0.10000 |  5.00000 | eV      # [Xd] Energy range
# | %
# | % DmRngeXd
# |   0.10000 |  0.10000 | eV      # [Xd] Damping range
# | %
# | ETStpsXd=  500                 # [Xd] Total Energy steps
# | DrudeWXd= ( 3.200000 , 4.100000 )  eV  # [Xd] Drude plasmon
# | % LongDrXd
# | 0.1000E-4 | 0.000    | 0.000    |        # [Xd] [cc] Electric Field
# | %
