#                                                           
#  __  __   ________   ___ __ __    _______   ______        
# /_/\/_/\ /_______/\ /__//_//_/\ /_______/\ /_____/\       
# \ \ \ \ \\::: _  \ \\::\| \| \ \\::: _  \ \\:::_ \ \      
#  \:\_\ \ \\::(_)  \ \\:.      \ \\::(_)  \/_\:\ \ \ \     
#   \::::_\/ \:: __  \ \\:.\-/\  \ \\::  _  \ \\:\ \ \ \    
#     \::\ \  \:.\ \  \ \\. \  \  \ \\::(_)  \ \\:\_\ \ \   
#      \__\/   \__\/\__\/ \__\/ \__\/ \_______\/ \_____\/   
#                                                           
#                                                           
#        Version 4.2.0 Revision 14428 Hash 698a636          
#                  MPI+SLK+OpenMP Build                     
#                http://www.yambo-code.org                  
#
# Absorption @ Q(1) [q->0 direction] :0.1000E-4  0.000     0.000   
#
#
# - Energies      are COHSEX
# - Wavefunctions are Slater exchange(X)+Perdew & Zunger(C)
#
# - The Green`s function is Retarded -
# - Using the Length Gauge -
# - [r,Vnl] *is* included -
#
#   BSK|Identifier              :44
#      |Dimension               :72
#      |Bands                   :2 - 7
#      |Exchange           [res]: yes
#      |Correlation        [res]: yes
#      |Kernel`s coupling       : no
#      |Exchange           [cpl]: no
#      |Correlation        [cpl]: no
#      |W interaction is bare   : no
#      |ALDA kernel in R-space  : no
#      |RL vectors    [exchange]:531
#      |RL vectors [correlation]:59
#      |E/h energy range    [ev]:-1.000000 - -1.000000
#      |Coupling range     [o/o]: 100.0000 -  100.0000
#    W |Interaction is diagonal : no
#      |Matrix size             :59
#      |Bands                   :1 - 8
#      |e/h energy range    [ev]:-1.000000 - -1.000000
#      |Poles              [o/o]: 100.0000
#      |RL vectors in the sum   :387
#      |[r,Vnl] included        : yes
#      |Field direction         :0.1000E-4  0.000000  0.000000
#      |Coulomb Cutoff          :none
#      |xc-Kernel               :none
#   RIM|RL components      [col]:0
#      |Random points      [col]:0
#  
#   Haydock|Accuracy (requested) [o/o]:  0.02000
#          |Accuracy (reached)   [o/o]:  0.01585
#          |Iteration                 :23
#
#    E/ev[1]      EPS-Im[2]    EPS-Re[3]    EPSo-Im[4]   EPSo-Re[5]   EPS`-Im[6]   EPS`-Re[7]
#
     0.00000      0.00000     42.70978      0.00000     36.43351      0.00000     42.70978
   0.2004E-1    0.1082E-1     42.71       0.6680E-2     36.43       0.1082E-1     42.71   
   0.4008E-1    0.2165E-1     42.71       0.1336E-1     36.44       0.2165E-1     42.71   
   0.6012E-1    0.3249E-1     42.72       0.2005E-1     36.44       0.3249E-1     42.72   
   0.8016E-1    0.4333E-1     42.73       0.2673E-1     36.44       0.4333E-1     42.73   
   0.1002       0.5419E-1     42.74       0.3343E-1     36.45       0.5419E-1     42.74   
   0.1202       0.6507E-1     42.75       0.4013E-1     36.46       0.6507E-1     42.75   
     0.14028      0.07597     42.76285      0.04685     36.46628      0.07597     42.76285
     0.16032      0.08689     42.77913      0.05357     36.47631      0.08689     42.77913
     0.18036      0.09784     42.79759      0.06031     36.48769      0.09784     42.79759
     0.20040      0.10882     42.81824      0.06706     36.50043      0.10882     42.81824
     0.22044      0.11984     42.84109      0.07383     36.51453      0.11984     42.84109
     0.24048      0.13090     42.86615      0.08061     36.52997      0.13090     42.86615
     0.26052      0.14200     42.89342      0.08742     36.54676      0.14200     42.89342
     0.28056      0.15314     42.92291      0.09424     36.56493      0.15314     42.92291
     0.30060      0.16434     42.95463      0.10109     36.58445      0.16434     42.95463
     0.32064      0.17559     42.98860      0.10796     36.60538      0.17559     42.98860
     0.34068      0.18689     43.02482      0.11486     36.62765      0.18689     43.02482
     0.36072      0.19826     43.06331      0.12179     36.65132      0.19826     43.06331
     0.38076      0.20969     43.10407      0.12875     36.67636      0.20969     43.10407
     0.40080      0.22120     43.14713      0.13573     36.70283      0.22120     43.14713
     0.42084      0.23277     43.19249      0.14275     36.73066      0.23277     43.19249
     0.44088      0.24442     43.24017      0.14981     36.75991      0.24442     43.24017
     0.46092      0.25616     43.29018      0.15690     36.79058      0.25616     43.29018
     0.48096      0.26798     43.34256      0.16403     36.82268      0.26798     43.34256
     0.50100      0.27989     43.39730      0.17120     36.85619      0.27989     43.39730
     0.52104      0.29190     43.45443      0.17842     36.89116      0.29190     43.45443
     0.54108      0.30400     43.51397      0.18568     36.92757      0.30400     43.51397
     0.56112      0.31621     43.57593      0.19298     36.96543      0.31621     43.57593
     0.58116      0.32853     43.64035      0.20033     37.00476      0.32853     43.64035
     0.60120      0.34096     43.70724      0.20774     37.04554      0.34096     43.70724
     0.62124      0.35350     43.77662      0.21519     37.08786      0.35350     43.77662
     0.64128      0.36617     43.84852      0.22270     37.13164      0.36617     43.84852
     0.66132      0.37897     43.92297      0.23027     37.17691      0.37897     43.92297
     0.68136      0.39190     43.99998      0.23789     37.22372      0.39190     43.99998
     0.70140      0.40497     44.07959      0.24558     37.27206      0.40497     44.07959
     0.72144      0.41819     44.16182      0.25333     37.32195      0.41819     44.16182
     0.74148      0.43155     44.24671      0.26114     37.37340      0.43155     44.24671
     0.76152      0.44507     44.33429      0.26903     37.42640      0.44507     44.33429
     0.78156      0.45875     44.42457      0.27698     37.48099      0.45875     44.42457
     0.80160      0.47259     44.51760      0.28501     37.53718      0.47259     44.51760
     0.82164      0.48661     44.61342      0.29311     37.59497      0.48661     44.61342
     0.84168      0.50081     44.71206      0.30128     37.65440      0.50081     44.71206
     0.86172      0.51520     44.81354      0.30954     37.71547      0.51520     44.81354
     0.88176      0.52978     44.91792      0.31788     37.77819      0.52978     44.91792
     0.90180      0.54455     45.02523      0.32631     37.84259      0.54455     45.02523
     0.92184      0.55954     45.13550      0.33482     37.90870      0.55954     45.13550
     0.94188      0.57474     45.24879      0.34343     37.97651      0.57474     45.24879
     0.96192      0.59015     45.36514      0.35213     38.04601      0.59015     45.36514
     0.98196      0.60580     45.48457      0.36093     38.11731      0.60580     45.48457
     1.00200      0.62169     45.60717      0.36983     38.19036      0.62169     45.60717
     1.02204      0.63782     45.73295      0.37883     38.26520      0.63782     45.73295
     1.04208      0.65421     45.86198      0.38793     38.34184      0.65421     45.86198
     1.06212      0.67086     45.99429      0.39715     38.42033      0.67086     45.99429
     1.08216      0.68778     46.12997      0.40648     38.50065      0.68778     46.12997
     1.10220      0.70498     46.26904      0.41593     38.58285      0.70498     46.26904
     1.12224      0.72248     46.41158      0.42549     38.66697      0.72248     46.41158
     1.14228      0.74027     46.55762      0.43518     38.75300      0.74027     46.55762
     1.16232      0.75838     46.70726      0.44500     38.84097      0.75838     46.70726
     1.18236      0.77681     46.86053      0.45495     38.93091      0.77681     46.86053
     1.20240      0.79557     47.01751      0.46503     39.02287      0.79557     47.01751
     1.22244      0.81468     47.17827      0.47526     39.11686      0.81468     47.17827
     1.24248      0.83415     47.34287      0.48563     39.21290      0.83415     47.34287
     1.26252      0.85398     47.51139      0.49614     39.31099      0.85398     47.51139
     1.28257      0.87420     47.68390      0.50681     39.41125      0.87420     47.68390
     1.30261      0.89481     47.86048      0.51763     39.51363      0.89481     47.86048
     1.32265      0.91584     48.04121      0.52862     39.61819      0.91584     48.04121
     1.34269      0.93728     48.22616      0.53977     39.72496      0.93728     48.22616
     1.36273      0.95917     48.41543      0.55110     39.83395      0.95917     48.41543
     1.38277      0.98151     48.60911      0.56260     39.94526      0.98151     48.60911
     1.40281      1.00432     48.80729      0.57429     40.05885      1.00432     48.80729
     1.42285      1.02762     49.01005      0.58616     40.17482      1.02762     49.01005
     1.44289      1.05142     49.21751      0.59822     40.29317      1.05142     49.21751
     1.46293      1.07575     49.42975      0.61049     40.41394      1.07575     49.42975
     1.48297      1.10062     49.64690      0.62296     40.53717      1.10062     49.64690
     1.50301      1.12605     49.86905      0.63564     40.66294      1.12605     49.86905
     1.52305      1.15207     50.09632      0.64854     40.79123      1.15207     50.09632
     1.54309      1.17869     50.32883      0.66166     40.92213      1.17869     50.32883
     1.56313      1.20593     50.56668      0.67502     41.05569      1.20593     50.56668
     1.58317      1.23383     50.81004      0.68861     41.19191      1.23383     50.81004
     1.60321      1.26240     51.05900      0.70245     41.33089      1.26240     51.05900
     1.62325      1.29167     51.31372      0.71655     41.47261      1.29167     51.31372
     1.64329      1.32167     51.57433      0.73091     41.61721      1.32167     51.57433
     1.66333      1.35242     51.84098      0.74553     41.76469      1.35242     51.84098
     1.68337      1.38395     52.11382      0.76044     41.91510      1.38395     52.11382
     1.70341      1.41630     52.39301      0.77563     42.06851      1.41630     52.39301
     1.72345      1.44950     52.67871      0.79113     42.22501      1.44950     52.67871
     1.74349      1.48358     52.97110      0.80692     42.38461      1.48358     52.97110
     1.76353      1.51857     53.27033      0.82304     42.54738      1.51857     53.27033
     1.78357      1.55451     53.57663      0.83948     42.71342      1.55451     53.57663
     1.80361      1.59144     53.89015      0.85626     42.88275      1.59144     53.89015
     1.82365      1.62941     54.21111      0.87338     43.05544      1.62941     54.21111
     1.84369      1.66844     54.53971      0.89087     43.23164      1.66844     54.53971
     1.86373      1.70860     54.87616      0.90873     43.41133      1.70860     54.87616
     1.88377      1.74992     55.22071      0.92697     43.59460      1.74992     55.22071
     1.90381      1.79245     55.57355      0.94561     43.78154      1.79245     55.57355
     1.92385      1.83625     55.93497      0.96467     43.97224      1.83625     55.93497
     1.94389      1.88138     56.30520      0.98414     44.16680      1.88138     56.30520
     1.96393      1.92788     56.68452      1.00406     44.36526      1.92788     56.68452
     1.98397      1.97582     57.07320      1.02443     44.56775      1.97582     57.07320
     2.00401      2.02526     57.47152      1.04527     44.77431      2.02526     57.47152
     2.02405      2.07628     57.87978      1.06660     44.98508      2.07628     57.87978
     2.04409      2.12894     58.29831      1.08844     45.20016      2.12894     58.29831
     2.06413      2.18331     58.72743      1.11080     45.41964      2.18331     58.72743
     2.08417      2.23949     59.16749      1.13370     45.64359      2.23949     59.16749
     2.10421      2.29755     59.61884      1.15716     45.87217      2.29755     59.61884
     2.12425      2.35758     60.08189      1.18121     46.10547      2.35758     60.08189
     2.14429      2.41967     60.55700      1.20585     46.34364      2.41967     60.55700
     2.16433      2.48394     61.04460      1.23113     46.58676      2.48394     61.04460
     2.18437      2.55048     61.54513      1.25705     46.83496      2.55048     61.54513
     2.20441      2.61940     62.05902      1.28365     47.08838      2.61940     62.05902
     2.22445      2.69083     62.58676      1.31095     47.34716      2.69083     62.58676
     2.24449      2.76490     63.12887      1.33898     47.61143      2.76490     63.12887
     2.26453      2.84173     63.68585      1.36776     47.88133      2.84173     63.68585
     2.28457      2.92149     64.25828      1.39733     48.15707      2.92149     64.25828
     2.30461      3.00431     64.84673      1.42772     48.43872      3.00431     64.84673
     2.32465      3.09036     65.45180      1.45896     48.72652      3.09036     65.45180
     2.34469      3.17983     66.07416      1.49108     49.02057      3.17983     66.07416
     2.36473      3.27289     66.71447      1.52413     49.32108      3.27289     66.71447
     2.38477      3.36975     67.37347      1.55813     49.62830      3.36975     67.37347
     2.40481      3.47063     68.05191      1.59313     49.94234      3.47063     68.05191
     2.42485      3.57575     68.75058      1.62918     50.26343      3.57575     68.75058
     2.44489      3.68536     69.47032      1.66631     50.59177      3.68536     69.47032
     2.46493      3.79972     70.21204      1.70458     50.92757      3.79972     70.21204
     2.48497      3.91913     70.97669      1.74403     51.27109      3.91913     70.97669
     2.50501      4.04388     71.76527      1.78471     51.62255      4.04388     71.76527
     2.52505      4.17431     72.57883      1.82669     51.98219      4.17431     72.57883
     2.54509      4.31078     73.41850      1.87002     52.35026      4.31078     73.41850
     2.56513      4.45366     74.28549      1.91476     52.72706      4.45366     74.28549
     2.58517      4.60337     75.18106      1.96098     53.11285      4.60337     75.18106
     2.60521      4.76037     76.10657      2.00874     53.50795      4.76037     76.10657
     2.62525      4.92513     77.06345      2.05813     53.91267      4.92513     77.06345
     2.64529      5.09820     78.05325      2.10921     54.32729      5.09820     78.05325
     2.66533      5.28013     79.07761      2.16208     54.75218      5.28013     79.07761
     2.68537      5.47156     80.13824      2.21681     55.18773      5.47156     80.13824
     2.70541      5.67316     81.23706      2.27351     55.63427      5.67316     81.23706
     2.72545      5.88569     82.37605      2.33228     56.09218      5.88569     82.37605
     2.74549      6.10994     83.55737      2.39321     56.56189      6.10994     83.55737
     2.76553      6.34681     84.78329      2.45643     57.04389      6.34681     84.78329
     2.78557      6.59726     86.05631      2.52205     57.53859      6.59726     86.05631
     2.80561      6.86238     87.37907      2.59020     58.04644      6.86238     87.37907
     2.82565      7.14332     88.75442      2.66103     58.56797      7.14332     88.75442
     2.84569      7.44140     90.18548      2.73467     59.10371      7.44140     90.18548
     2.86573      7.75803     91.67553      2.81129     59.65424      7.75803     91.67553
     2.88577      8.09480     93.22820      2.89106     60.22015      8.09480     93.22820
     2.90581      8.45347     94.84737      2.97416     60.80205      8.45347     94.84737
     2.92585      8.83599     96.53727      3.06078     61.40063      8.83599     96.53727
     2.94589      9.24452     98.30248      3.15114     62.01652      9.24452     98.30248
      2.9659       9.6815     100.1480       3.2455      62.6506       9.6815     100.1480
      2.9860      10.1496     102.0793       3.3440      63.3035      10.1496     102.0793
      3.0060      10.6520     104.1022       3.4470      63.9761      10.6520     104.1022
      3.0261      11.1920     106.2232       3.5548      64.6694      11.1920     106.2232
      3.0461      11.7734     108.4495       3.6676      65.3842      11.7734     108.4495
      3.0661      12.4007     110.7889       3.7858      66.1216      12.4007     110.7889
      3.0862      13.0789     113.2498       3.9099      66.8826      13.0789     113.2498
      3.1062      13.8135     115.8418       4.0400      67.6683      13.8135     115.8418
      3.1263      14.6110     118.5752       4.1768      68.4801      14.6110     118.5752
      3.1463      15.4789     121.4616       4.3207      69.3191      15.4789     121.4616
      3.1663      16.4256     124.5138       4.4722      70.1868      16.4256     124.5138
      3.1864      17.4610     127.7459       4.6318      71.0846      17.4610     127.7459
      3.2064      18.5965     131.1738       4.8002      72.0142      18.5965     131.1738
      3.2265      19.8454     134.8151       4.9781      72.9772      19.8454     134.8151
      3.2465      21.2233     138.6895       5.1662      73.9756      21.2233     138.6895
      3.2665      22.7484     142.8192       5.3653      75.0113      22.7484     142.8192
      3.2866      24.4426     147.2290       5.5764      76.0864      24.4426     147.2290
      3.3066      26.3314     151.9469       5.8006      77.2032      26.3314     151.9469
      3.3267      28.4459     157.0044       6.0388      78.3643      28.4459     157.0044
      3.3467      30.8231     162.4372       6.2925      79.5724      30.8231     162.4372
      3.3667      33.5080     168.2855       6.5631      80.8305      33.5080     168.2855
      3.3868      36.5556     174.5947       6.8520      82.1416      36.5556     174.5947
      3.4068      40.0332     181.4162       7.1612      83.5093      40.0332     181.4162
      3.4269      44.0247     188.8076       7.4927      84.9375      44.0247     188.8076
      3.4469      48.6344     196.8334       7.8487      86.4303      48.6344     196.8334
      3.4669      53.9940     205.5649       8.2319      87.9923      53.9940     205.5649
      3.4870      60.2710     215.0793       8.6453      89.6285      60.2710     215.0793
      3.5070      67.6801     225.4576       9.0923      91.3444      67.6801     225.4576
      3.5271      76.4989     236.7796       9.5769      93.1462      76.4990     236.7796
      3.5471      87.0897     249.1135      10.1037      95.0404      87.0898     249.1135
      3.5671      99.9273     262.4965      10.6780      97.0348      99.9273     262.4966
      3.5872     115.6353     276.8994      11.3060      99.1374     115.6354     276.8995
      3.6072     135.0290     292.1609      11.9953     101.3575     135.0292     292.1612
      3.6273     159.1539     307.8740      12.7544     103.7054     159.1544     307.8742
      3.6473     189.2897     323.1923      13.5939     106.1924     189.2908     323.1926
      3.6673     226.8472     336.5388      14.5265     108.8314     226.8499     336.5385
      3.6874     272.9997     345.2449      15.5672     111.6364     273.0046     345.2417
      3.7074     327.8671     345.3702      16.7350     114.6230     327.8729     345.3585
      3.7275     389.3293     332.3025      18.0528     117.8088     389.3247     332.2738
      3.7475     452.5151     302.6686      19.5494     121.2124     452.4672     302.6285
      3.7675     511.6386     256.2505      21.2612     124.8540     511.5133     256.2637
      3.7876     562.8652     194.6277      23.2342     128.7543     562.7350     194.8237
      3.8076     602.9843     117.6940      25.5274     132.9329     603.1215     118.0724
      3.8277     624.6747      25.4288      28.2169     137.4057     625.2802      25.5804
      3.8477     617.9487     -75.0236      31.4011     142.1790     618.5793     -75.6199
      3.8677     579.4442    -168.4789      35.2061     147.2392     579.2411    -169.5322
      3.8878     517.0611    -240.8800      39.7900     152.5358     515.9784    -241.3474
      3.9078     444.2126    -286.7926      45.3396     157.9496     443.1882    -286.2290
      3.9279     372.5212    -308.7086      52.0454     163.2504     372.2628    -307.6666
      3.9479     308.8553    -312.8810      60.0286     168.0468     309.2949    -312.0459
      3.9679     255.6871    -305.8528      69.1872     171.7845     256.4246    -305.4946
      3.9880     212.7449    -292.7206      78.9841     173.9121     213.4630    -292.7939
      4.0080     178.5797    -276.8329      88.4006     174.3279     179.1225    -277.1981
      4.0281     151.5119    -260.1610      96.4378     173.8630     151.8250    -260.6913
      4.0481     130.0404    -243.7766     103.0487     174.0585     130.1111    -244.3774
      4.0681     112.9558    -228.2232     109.4672     176.0794     112.7811    -228.8185
      4.0882      99.3245    -213.7570     117.4416     179.8646      98.9032    -214.2692
      4.1082      88.4324    -200.4961     128.2495     184.2253      87.7750    -200.8260
      4.1283      79.7096    -188.5008     142.1653     187.4262      78.8703    -188.5178
      4.1483      72.6541    -177.7969     158.2755     187.9040      71.7837    -177.3620
      4.1683      66.7843    -168.3348     174.7738     185.1936      66.1681    -167.3931
      4.1884      61.6787    -159.9219     190.2149     180.5059      61.6661    -158.6485
      4.2084      57.1019    -152.2462     205.0334     175.7500      57.8733    -151.0919
      4.2285      53.0593    -145.0399     221.3673     171.4569      54.4094    -144.5156
      4.2485      49.6804    -138.2242     241.1140     165.9749      51.0916    -138.5659
      4.2685      47.0579    -131.9069     264.4722     156.6633      48.0067    -132.9544
      4.2886      45.1561    -126.3038     290.3076     141.3389      45.3532    -127.6374
      4.3086      43.7603    -121.6504     317.1816     118.1136      43.2197    -122.7898
      4.3287      42.4552    -118.0647     342.5708      84.3225      41.4671    -118.6455
      4.3487      40.7353    -115.3656     360.5251      37.9544      39.7414    -115.2985
      4.3687      38.3012    -113.0400     362.4464     -17.7703      37.6500    -112.5441
      4.3888      35.2763    -110.5302     343.4043     -72.6272      35.0426    -109.9373
      4.4088      32.0555    -107.5639     307.3201    -115.3208      32.1086    -107.0894
      4.4289      28.9976    -104.1809     263.8308    -140.8332      29.1766    -103.8782
      4.4489      26.2855    -100.5556     221.4789    -150.9917      26.4880    -100.3935
      4.4689      23.9594     -96.8558     184.6938    -150.4704      24.1406     -96.7863
      4.4890      21.9885     -93.1959     154.6019    -143.6387      22.1362     -93.1810
      4.5090      20.3198     -89.6404     130.6920    -133.5488      20.4351     -89.6556
      4.5291      18.9003     -86.2196     111.9296    -122.0480      18.9887     -86.2505
      4.5491      17.6853     -82.9439      97.2742    -110.1596      17.7525     -82.9823
     4.56914     16.63890    -79.81235     85.85062    -98.40722     16.68966    -79.85388
     4.58918     15.73320    -76.81808     76.97779    -87.02823     15.77131    -76.86050
     4.60922     14.94684    -73.95152     70.14613    -76.10284     14.97504    -73.99378
     4.62926     14.26349    -71.20196     64.98499    -65.62643     14.28376    -71.24361
     4.64930     13.67082    -68.55830     61.23373    -55.55117     13.68453    -68.59931
     4.66934     13.15966    -66.00964     58.71956    -45.80816     13.16770    -66.05010
     4.68938     12.72343    -63.54532     57.34306    -36.32126     12.72631    -63.58546
     4.70942     12.35774    -61.15503     57.07021    -27.01518     12.35563    -61.19511
     4.72946     12.06021    -58.82880     57.93010    -17.82377     12.05297    -58.86906
     4.74950     11.83039    -56.55685     60.01869     -8.69946     11.81753    -56.59750
     4.76954     11.66974    -54.32970     63.50703      0.36944     11.65042    -54.37082
     4.78958     11.58194    -52.13808     68.65330      9.33140     11.55482    -52.17952
     4.80962     11.57310    -49.97294     75.81287     18.02057     11.53629    -50.01417
     4.82966     11.65236    -47.82573     85.43240     26.07336     11.60324    -47.86546
     4.84970     11.83250    -45.68879     97.99190     32.79883     11.76762    -45.72438
      4.8697      12.1307     -43.5562     113.8237      37.0205      12.0459     -43.5827
      4.8898      12.5693     -41.4253     132.7074      37.0010      12.4604     -41.4337
      4.9098      13.1758     -39.2987     153.2496      30.7571      13.0408     -39.2738
      4.9299      13.9816     -37.1872     172.5371      17.1285      13.8262     -37.1055
      4.9499      15.0178     -35.1101     187.1013      -2.8585      14.8658     -34.9420
      4.9699      16.3127     -33.0901     195.1029     -26.2247      16.2190     -32.8141
      4.9900      17.8995     -31.1429     197.0163     -50.4532      17.9499     -30.7786
      5.0100      19.8451     -29.2789     193.4723     -74.7777      20.1169     -28.9229
      5.0301      22.2787     -27.5467     183.7494     -98.3356      22.7652     -27.3597
      5.0501      25.3740     -26.1066     167.4826    -118.4934      25.9386     -26.2261
      5.0701      29.2723     -25.2937     146.6819    -132.3558      29.6988     -25.7293
      5.0902      33.9490     -25.6423     124.8308    -139.0930      34.0604     -26.2499
      5.1102      39.0084     -27.8168     104.7217    -139.9901      38.7632     -28.3666
      5.1303      43.4810     -32.3084      87.6187    -137.0509      43.0002     -32.5979
      5.1503      45.9550     -38.8590      73.6577    -131.9892      45.4613     -38.8242
      5.1703      45.3668     -46.1214      62.4583    -125.9575      45.0454     -45.8678
      5.1904      41.8828     -52.2972      53.5075    -119.6384      41.7754     -51.9967
      5.2104      36.7443     -56.2884      46.3271    -113.4016      36.7826     -56.0528
      5.2305      31.2953     -58.0679      40.5236    -107.4306      31.3952     -57.9237
      5.2505      26.3541     -58.1996      35.7901    -101.8044      26.4623     -58.1297
     5.27054     22.21320    -57.31241     31.89192    -96.54552     22.30679    -57.29110
     5.29058     18.86969    -55.87787     28.65122    -91.64690     18.94222    -55.88486
     5.31062     16.20781    -54.19360     25.93285    -87.08760     16.25982    -54.21553
     5.33066     14.09182    -52.43053     23.63358    -82.84065     14.12594    -52.45904
     5.35070     12.40096    -50.68061     21.67407    -78.87782     12.42020    -50.71031
     5.37074     11.03770    -48.98974     19.99262    -75.17113     11.04516    -49.01685
     5.39078      9.92665    -47.37789     18.54107    -71.69463      9.92574    -47.39991
     5.41082      9.01064    -45.85054     17.28136    -68.42461      9.00493    -45.86646
     5.43086      8.24723    -44.40574     16.18319    -65.33942      8.23977    -44.41601
     5.45090      7.60507    -43.03849     15.22227    -62.41962      7.59780    -43.04445
     5.47094      7.06056    -41.74289     14.37900    -59.64787      7.05437    -41.74599
     5.49098      6.59551    -40.51300     13.63743    -57.00841      6.59057    -40.51439
     5.51102      6.19564    -39.34300     12.98457    -54.48717      6.19182    -39.34342
     5.53106      5.84971    -38.22731     12.40977    -52.07143      5.84679    -38.22721
     5.55110      5.54876    -37.16068     11.90427    -49.74966      5.54654    -37.16032
     5.57114      5.28571    -36.13828     11.46089    -47.51124      5.28402    -36.13781
     5.59118      5.05489    -35.15569     11.07375    -45.34654      5.05359    -35.15519
     5.61122      4.85175    -34.20890     10.73806    -43.24660      4.85074    -34.20841
     5.63126      4.67259    -33.29429     10.44996    -41.20307      4.67180    -33.29381
     5.65130      4.51446    -32.40851     10.20641    -39.20809      4.51384    -32.40808
     5.67134      4.37492    -31.54858     10.00511    -37.25420      4.37442    -31.54817
     5.69138      4.25200    -30.71172      9.84439    -35.33422      4.25160    -30.71135
     5.71142      4.14411    -29.89538      9.72321    -33.44123      4.14379    -29.89504
     5.73146      4.04995    -29.09720      9.64116    -31.56841      4.04969    -29.09690
     5.75150      3.96848    -28.31498      9.59837    -29.70892      3.96827    -28.31469
     5.77154      3.89890    -27.54662      9.59561    -27.85601      3.89873    -27.54636
     5.79158      3.84058    -26.79011      9.63430    -26.00267      3.84044    -26.78987
     5.81162      3.79308    -26.04356      9.71657    -24.14174      3.79296    -26.04333
     5.83166      3.75610    -25.30510      9.84532    -22.26577      3.75600    -25.30488
     5.85170      3.72950    -24.57288     10.02440    -20.36687      3.72942    -24.57267
     5.87174      3.71329    -23.84509     10.25872    -18.43662      3.71323    -23.84491
     5.89178      3.70763    -23.11990     10.55447    -16.46599      3.70758    -23.11972
     5.91182      3.71281    -22.39543     10.91942    -14.44513      3.71277    -22.39526
     5.93186      3.72930    -21.66978     11.36323    -12.36332      3.72927    -21.66961
     5.95190      3.75773    -20.94094     11.89798    -10.20872      3.75771    -20.94078
     5.97194      3.79895    -20.20683     12.53875     -7.96831      3.79893    -20.20666
     5.99198      3.85401    -19.46522     13.30449     -5.62766      3.85401    -19.46506
     6.01202      3.92426    -18.71374     14.21909     -3.17088      3.92427    -18.71358
     6.03206      4.01135    -17.94984     15.31289     -0.58053      4.01136    -17.94968
     6.05210      4.11730    -17.17073     16.62468      2.16222      4.11732    -17.17057
     6.07214      4.24463    -16.37339     18.20448      5.07716      4.24466    -16.37323
     6.09218      4.39643    -15.55449     20.11725      8.18406      4.39647    -15.55432
     6.11222      4.57651    -14.71036     22.44816     11.50058      4.57657    -14.71019
     6.13226      4.78963    -13.83699     25.30945     15.03841      4.78971    -13.83681
     6.15230      5.04174    -12.92995     28.85004     18.79589      5.04183    -12.92977
     6.17234      5.34028    -11.98448     33.26764     22.74460      5.34040    -11.98429
     6.19238      5.69476    -10.99546     38.82330     26.80525      5.69490    -10.99527
     6.21242      6.11726     -9.95766     45.85469     30.80442      6.11745     -9.95745
     6.23246      6.62335     -8.86602     54.77919     34.40105      6.62359     -8.86580
     6.25250      7.23312     -7.71647     66.05612     36.96623      7.23343     -7.71626
     6.27254      7.97247     -6.50729     80.04965     37.41721      7.97288     -6.50710
     6.29258      8.87449     -5.24155     96.67853     34.06788      8.87500     -5.24141
      6.3126       9.9802      -3.9315     114.7550      24.7443       9.9808      -3.9314
      6.3327      11.3372      -2.6051     131.2329       7.6669      11.3380      -2.6052
      6.3527      12.9923      -1.3150     141.4161     -16.6709      12.9932      -1.3155
      6.3727      14.9738      -0.1440     141.3722     -44.0958      14.9747      -0.1449
      6.3928      17.2614       0.8084     131.0962     -68.4672      17.2620       0.8069
      6.4128      19.7691       1.4787     114.5151     -85.6049      19.7689       1.4768
     6.43287     22.39900      1.91519     96.32654    -95.00868     22.39777      1.91341
     6.45291     25.18578      2.26976     79.58054    -98.45567     25.18373      2.26880
     6.47295     28.38900      2.62341     65.46785    -98.12046     28.38677      2.62361
     6.49299     32.38830      2.78099     54.07094    -95.69066     32.38654      2.78221
     6.51303     37.45882      2.19913     45.02593    -92.25045     37.45789      2.20091
    6.533        43.53       0.3781E-1     37.87       -88.43        43.53       0.3962E-1
     6.55311     49.90001     -4.63722     32.19487    -84.57021     49.90081     -4.63583
     6.57315     55.07475    -12.32290     27.65305    -80.84637     55.07594    -12.32222
     6.59319     57.17101    -22.30374     23.98615    -77.33781     57.17211    -22.30373
     6.61323     55.15351    -32.50850     20.99604    -74.07368     55.15421    -32.50894
     6.63327     49.72493    -40.70487     18.53344    -71.05624     49.72526    -40.70535
     6.65331     42.68293    -45.86791     16.48559    -68.27436     42.68298    -45.86831
     6.67335     35.63617    -48.27015     14.76697    -65.71115     35.63613    -48.27041
     6.69339     29.43689    -48.73395     13.31219    -63.34760     29.43681    -48.73411
     6.71343     24.32488    -48.04314     12.07080    -61.16475     24.32479    -48.04323
     6.73347     20.23239    -46.75026     11.00352    -59.14471     20.23233    -46.75031
     6.75351     16.98937    -45.19308     10.07952    -57.27110     16.98932    -45.19311
     6.77355     14.41862    -43.56165      9.27434    -55.52907     14.41859    -43.56167
     6.79359     12.36879    -41.95618      8.56847    -53.90545     12.36876    -41.95619
     6.81363     10.72020    -40.42558      7.94617    -52.38845     10.72018    -40.42558
     6.83367      9.38134    -38.99046      7.39467    -50.96773      9.38133    -38.99046
     6.85371      8.28310    -37.65641      6.90354    -49.63416      8.28309    -37.65642
     6.87375      7.37327    -36.42115      6.46417    -48.37954      7.37326    -36.42115
     6.89379      6.61233    -35.27873      6.06940    -47.19670      6.61233    -35.27873
     6.91383      5.97027    -34.22181      5.71331    -46.07936      5.97027    -34.22181
     6.93387      5.42391    -33.24255      5.39088    -45.02170      5.42391    -33.24255
     6.95391      4.95538    -32.33352      5.09792    -44.01888      4.95537    -32.33351
     6.97395      4.55062    -31.48766      4.83084    -43.06625      4.55062    -31.48766
     6.99399      4.19862    -30.69871      4.58661    -42.15990      4.19862    -30.69871
     7.01403      3.89054    -29.96094      4.36259    -41.29617      3.89054    -29.96093
     7.03407      3.61934    -29.26932      4.15656    -40.47191      3.61934    -29.26932
     7.05411      3.37927    -28.61934      3.96655    -39.68415      3.37927    -28.61933
     7.07415      3.16571    -28.00706      3.79090    -38.93027      3.16571    -28.00706
     7.09419      2.97480    -27.42894      3.62813    -38.20788      2.97480    -27.42894
     7.11423      2.80340    -26.88190      3.47697    -37.51490      2.80339    -26.88190
     7.13427      2.64885    -26.36317      3.33627    -36.84929      2.64885    -26.36317
     7.15431      2.50896    -25.87033      3.20507    -36.20935      2.50896    -25.87033
     7.17435      2.38187    -25.40118      3.08247    -35.59338      2.38187    -25.40118
     7.19439      2.26602    -24.95381      2.96771    -34.99997      2.26602    -24.95381
     7.21443      2.16005    -24.52645      2.86009    -34.42768      2.16005    -24.52645
     7.23447      2.06284    -24.11761      2.75901    -33.87533      2.06284    -24.11761
     7.25451      1.97340    -23.72585      2.66391    -33.34172      1.97340    -23.72585
     7.27455      1.89088    -23.34995      2.57430    -32.82584      1.89088    -23.34995
     7.29459      1.81455    -22.98877      2.48976    -32.32670      1.81455    -22.98877
     7.31463      1.74376    -22.64127      2.40986    -31.84336      1.74376    -22.64127
     7.33467      1.67797    -22.30657      2.33428    -31.37505      1.67797    -22.30657
     7.35471      1.61668    -21.98379      2.26267    -30.92094      1.61668    -21.98379
     7.37475      1.55947    -21.67220      2.19474    -30.48034      1.55947    -21.67220
     7.39479      1.50595    -21.37107      2.13024    -30.05258      1.50595    -21.37107
     7.41483      1.45580    -21.07980      2.06892    -29.63704      1.45580    -21.07980
     7.43487      1.40871    -20.79778      2.01056    -29.23311      1.40871    -20.79778
     7.45491      1.36442    -20.52449      1.95496    -28.84031      1.36442    -20.52449
     7.47495      1.32269    -20.25943      1.90193    -28.45805      1.32269    -20.25943
     7.49499      1.28333    -20.00216      1.85131    -28.08595      1.28333    -20.00216
     7.51503      1.24612    -19.75224      1.80295    -27.72348      1.24612    -19.75224
     7.53507      1.21091    -19.50931      1.75670    -27.37028      1.21091    -19.50931
     7.55511      1.17754    -19.27300      1.71243    -27.02591      1.17754    -19.27300
     7.57515      1.14587    -19.04299      1.67003    -26.69005      1.14587    -19.04299
     7.59519      1.11578    -18.81894      1.62937    -26.36232      1.11578    -18.81894
     7.61523      1.08716    -18.60061      1.59037    -26.04242      1.08716    -18.60061
     7.63527      1.05989    -18.38770      1.55292    -25.73002      1.05989    -18.38770
     7.65531      1.03390    -18.17999      1.51694    -25.42482      1.03390    -18.17999
     7.67535      1.00908    -17.97721      1.48234    -25.12657      1.00908    -17.97721
     7.69539      0.98537    -17.77918      1.44906    -24.83500      0.98537    -17.77918
     7.71543      0.96269    -17.58568      1.41701    -24.54985      0.96269    -17.58568
     7.73547      0.94098    -17.39651      1.38614    -24.27092      0.94098    -17.39651
     7.75551      0.92017    -17.21152      1.35639    -23.99796      0.92017    -17.21152
     7.77555      0.90021    -17.03051      1.32768    -23.73075      0.90021    -17.03051
     7.79559      0.88105    -16.85334      1.29999    -23.46911      0.88105    -16.85334
     7.81563      0.86265    -16.67985      1.27324    -23.21283      0.86265    -16.67985
     7.83567      0.84495    -16.50992      1.24741    -22.96176      0.84495    -16.50992
     7.85571      0.82792    -16.34339      1.22243    -22.71570      0.82792    -16.34339
     7.87575      0.81153    -16.18016      1.19828    -22.47451      0.81153    -16.18016
     7.89579      0.79572    -16.02009      1.17492    -22.23800      0.79572    -16.02009
     7.91583      0.78049    -15.86308      1.15230    -22.00605      0.78049    -15.86308
     7.93587      0.76579    -15.70903      1.13039    -21.77849      0.76579    -15.70903
     7.95591      0.75160    -15.55782      1.10917    -21.55521      0.75160    -15.55782
     7.97595      0.73789    -15.40936      1.08860    -21.33607      0.73789    -15.40937
     7.99599      0.72463    -15.26358      1.06866    -21.12096      0.72463    -15.26358
     8.01603      0.71181    -15.12036      1.04931    -20.90971      0.71181    -15.12036
     8.03607      0.69941    -14.97964      1.03053    -20.70226      0.69941    -14.97964
     8.05611      0.68740    -14.84133      1.01231    -20.49847      0.68740    -14.84133
     8.07615      0.67576    -14.70536      0.99461    -20.29824      0.67576    -14.70536
     8.09619      0.66449    -14.57166      0.97741    -20.10148      0.66449    -14.57166
     8.11623      0.65355    -14.44015      0.96070    -19.90808      0.65355    -14.44015
     8.13627      0.64295    -14.31079      0.94445    -19.71795      0.64295    -14.31079
     8.15631      0.63265    -14.18348      0.92865    -19.53101      0.63265    -14.18348
     8.17635      0.62266    -14.05820      0.91328    -19.34716      0.62266    -14.05820
     8.19639      0.61295    -13.93486      0.89832    -19.16631      0.61295    -13.93486
     8.21643      0.60352    -13.81343      0.88376    -18.98841      0.60352    -13.81343
     8.23647      0.59435    -13.69384      0.86958    -18.81335      0.59435    -13.69384
     8.25651      0.58543    -13.57604      0.85578    -18.64108      0.58543    -13.57604
     8.27655      0.57675    -13.45999      0.84233    -18.47152      0.57675    -13.45999
     8.29659      0.56831    -13.34564      0.82922    -18.30461      0.56831    -13.34564
     8.31663      0.56010    -13.23294      0.81644    -18.14025      0.56010    -13.23294
     8.33667      0.55210    -13.12186      0.80398    -17.97842      0.55210    -13.12186
     8.35671      0.54431    -13.01234      0.79184    -17.81902      0.54431    -13.01234
     8.37675      0.53672    -12.90436      0.77999    -17.66202      0.53672    -12.90436
     8.39679      0.52932    -12.79786      0.76842    -17.50735      0.52932    -12.79786
     8.41683      0.52211    -12.69282      0.75714    -17.35495      0.52211    -12.69282
     8.43687      0.51507    -12.58918      0.74613    -17.20476      0.51507    -12.58918
     8.45691      0.50822    -12.48694      0.73537    -17.05676      0.50822    -12.48694
     8.47695      0.50153    -12.38604      0.72487    -16.91084      0.50153    -12.38604
     8.49699      0.49500    -12.28646      0.71462    -16.76701      0.49500    -12.28646
     8.51703      0.48863    -12.18816      0.70460    -16.62520      0.48863    -12.18816
     8.53707      0.48241    -12.09111      0.69481    -16.48537      0.48241    -12.09111
     8.55711      0.47634    -11.99529      0.68525    -16.34745      0.47634    -11.99529
     8.57715      0.47041    -11.90066      0.67590    -16.21142      0.47041    -11.90066
     8.59719      0.46463    -11.80721      0.66676    -16.07724      0.46463    -11.80721
     8.61723      0.45897    -11.71488      0.65782    -15.94485      0.45897    -11.71488
     8.63727      0.45345    -11.62368      0.64909    -15.81423      0.45345    -11.62368
     8.65731      0.44805    -11.53355      0.64054    -15.68532      0.44805    -11.53355
     8.67735      0.44278    -11.44450      0.63219    -15.55811      0.44278    -11.44450
     8.69739      0.43763    -11.35648      0.62401    -15.43253      0.43763    -11.35648
     8.71743      0.43260    -11.26948      0.61601    -15.30858      0.43260    -11.26948
     8.73747      0.42768    -11.18347      0.60819    -15.18620      0.42768    -11.18347
     8.75751      0.42287    -11.09843      0.60053    -15.06536      0.42287    -11.09843
     8.77755      0.41817    -11.01433      0.59304    -14.94604      0.41817    -11.01433
     8.79760      0.41358    -10.93117      0.58571    -14.82819      0.41358    -10.93117
     8.81764      0.40909    -10.84891      0.57853    -14.71179      0.40909    -10.84891
     8.83768      0.40470    -10.76754      0.57151    -14.59682      0.40470    -10.76754
     8.85772      0.40042    -10.68703      0.56463    -14.48323      0.40042    -10.68703
     8.87776      0.39623    -10.60737      0.55790    -14.37099      0.39623    -10.60737
     8.89780      0.39213    -10.52853      0.55131    -14.26009      0.39213    -10.52853
     8.91784      0.38814    -10.45051      0.54486    -14.15048      0.38814    -10.45051
     8.93788      0.38423    -10.37327      0.53855    -14.04215      0.38423    -10.37327
     8.95792      0.38041    -10.29681      0.53237    -13.93507      0.38041    -10.29681
     8.97796      0.37669    -10.22110      0.52633    -13.82920      0.37669    -10.22110
     8.99800      0.37305    -10.14612      0.52041    -13.72453      0.37305    -10.14612
     9.01803      0.36950    -10.07186      0.51462    -13.62104      0.36950    -10.07186
     9.03808      0.36604     -9.99831      0.50895    -13.51867      0.36604     -9.99831
     9.05812      0.36266     -9.92544      0.50340    -13.41745      0.36266     -9.92544
     9.07816      0.35937     -9.85323      0.49798    -13.31731      0.35937     -9.85323
     9.09820      0.35616     -9.78168      0.49267    -13.21825      0.35616     -9.78168
     9.11824      0.35304     -9.71075      0.48749    -13.12023      0.35304     -9.71075
     9.13828      0.35000     -9.64045      0.48241    -13.02324      0.35000     -9.64045
     9.15832      0.34704     -9.57075      0.47746    -12.92725      0.34704     -9.57075
     9.17836      0.34417     -9.50163      0.47262    -12.83224      0.34417     -9.50163
     9.19840      0.34138     -9.43308      0.46789    -12.73820      0.34138     -9.43308
     9.21844      0.33867     -9.36508      0.46328    -12.64509      0.33867     -9.36508
     9.23848      0.33605     -9.29762      0.45878    -12.55289      0.33605     -9.29762
     9.25852      0.33352     -9.23067      0.45439    -12.46158      0.33352     -9.23067
     9.27856      0.33107     -9.16422      0.45012    -12.37114      0.33107     -9.16422
     9.29860      0.32871     -9.09826      0.44596    -12.28155      0.32871     -9.09826
     9.31864      0.32643     -9.03277      0.44191    -12.19277      0.32643     -9.03277
     9.33868      0.32425     -8.96772      0.43798    -12.10481      0.32425     -8.96772
     9.35872      0.32216     -8.90311      0.43417    -12.01761      0.32216     -8.90311
     9.37876      0.32017     -8.83891      0.43047    -11.93118      0.32017     -8.83891
     9.39880      0.31827     -8.77510      0.42690    -11.84547      0.31827     -8.77510
     9.41884      0.31647     -8.71168      0.42345    -11.76049      0.31647     -8.71168
     9.43888      0.31477     -8.64861      0.42013    -11.67618      0.31477     -8.64861
     9.45892      0.31318     -8.58587      0.41693    -11.59253      0.31318     -8.58587
     9.47896      0.31170     -8.52345      0.41388    -11.50952      0.31170     -8.52345
     9.49900      0.31034     -8.46132      0.41096    -11.42711      0.31034     -8.46132
     9.51904      0.30910     -8.39946      0.40819    -11.34529      0.30910     -8.39946
     9.53908      0.30799     -8.33785      0.40557    -11.26401      0.30799     -8.33785
     9.55912      0.30701     -8.27646      0.40312    -11.18326      0.30701     -8.27646
     9.57916      0.30617     -8.21527      0.40083    -11.10300      0.30617     -8.21527
     9.59920      0.30548     -8.15424      0.39873    -11.02321      0.30548     -8.15424
     9.61924      0.30496     -8.09336      0.39682    -10.94383      0.30496     -8.09336
     9.63928      0.30460     -8.03258      0.39512    -10.86485      0.30460     -8.03258
     9.65932      0.30443     -7.97188      0.39364    -10.78622      0.30443     -7.97188
     9.67936      0.30445     -7.91122      0.39241    -10.70789      0.30445     -7.91122
     9.69940      0.30469     -7.85056      0.39144    -10.62984      0.30469     -7.85056
     9.71944      0.30516     -7.78987      0.39076    -10.55199      0.30516     -7.78987
     9.73948      0.30588     -7.72909      0.39041    -10.47430      0.30588     -7.72909
     9.75952      0.30687     -7.66819      0.39042    -10.39672      0.30687     -7.66819
     9.77956      0.30817     -7.60710      0.39082    -10.31917      0.30817     -7.60710
     9.79960      0.30980     -7.54578      0.39168    -10.24161      0.30980     -7.54578
     9.81964      0.31179     -7.48417      0.39305    -10.16393      0.31179     -7.48417
     9.83968      0.31419     -7.42218      0.39500    -10.08607      0.31419     -7.42218
     9.85972      0.31705     -7.35977      0.39761    -10.00790      0.31705     -7.35977
    9.879759     0.320415    -7.296826     0.400992    -9.929359     0.320415    -7.296826
    9.899798     0.324351    -7.233276     0.405267    -9.850295     0.324352    -7.233276
    9.919839     0.328934    -7.169017     0.410589    -9.770588     0.328934    -7.169017
    9.939879     0.334250    -7.103936     0.417143    -9.690079     0.334250    -7.103935
    9.959920     0.340403    -7.037906     0.425164    -9.608613     0.340403    -7.037906
    9.979959     0.347515    -6.970791     0.434942    -9.525988     0.347516    -6.970791
    10.00000      0.35574     -6.90243      0.44684     -9.44201      0.35574     -6.90243
# 
# 04/10/2017 at 17:09 YAMBO_RT @ anomaly [start]
# 04/10/2017 at 17:09                    [end]
#  
# Timing   [Min/Max/Average]: 03s/03s/03s
#
# .-Input file : yambo.in
# | optics                       # [R OPT] Optics
# | bse                          # [R BSE] Bethe Salpeter Equation.
# | bsk                          # [R BSK] Bethe Salpeter Equation kernel
# | bss                          # [R BSS] Bethe Salpeter Equation solver
# | em1s                         # [R Xs] Static Inverse Dielectric Matrix
# | BoseTemp= 0.000000     eV    # Bosonic Temperature
# | FFTGvecs=  387         RL    # [FFT] Plane-waves
# | X_Threads= 1                 # [OPENMP/X] Number of threads for response functions
# | DIP_Threads= 1               # [OPENMP/X] Number of threads for dipoles
# | K_Threads= 1                 # [OPENMP/BSK] Number of threads for response functions
# | Chimod= "hartree"            # [X] IP/Hartree/ALDA/LRC/BSfxc
# | BSEmod= "retarded"           # [BSE] resonant/retarded/coupling
# | BSKmod= "SEX"                # [BSE] IP/Hartree/HF/ALDA/SEX/BSfxc
# | BSSmod= "h"                  # [BSS] (h)aydock/(d)iagonalization/(i)nversion/(t)ddft`
# | BSENGexx=  531         RL    # [BSK] Exchange components
# | BSENGBlk=  59          RL    # [BSK] Screened interaction block size
# | #WehCpl                      # [BSK] eh interaction included also in coupling
# | KfnQPdb= "E < 08_cohsex_eq/ndb.QP" # [EXTQP BSK BSS] Database
# | % BEnRange
# |   0.00000 | 10.00000 | eV    # [BSS] Energy range
# | %
# | % BDmRange
# |   0.10000 |  0.10000 | eV    # [BSS] Damping range
# | %
# | BEnSteps=  500               # [BSS] Energy steps
# | % BLongDir
# | 0.1000E-4 | 0.000    | 0.000    |        # [BSS] [cc] Electric Field
# | %
# | % BSEBands
# |   2 |  7 |                   # [BSK] Bands range
# | %
# | BSHayTrs=  0.02000           # [BSS] Relative [o/o] Haydock treshold. Strict(>0)/Average(<0)
# | % BndsRnXs
# |   1 |  8 |                   # [Xs] Polarization function bands
# | %
# | NGsBlkXs=  59          RL    # [Xs] Response block size
# | GrFnTpXs= "R"                # [Xs] Green`s function (T)ordered,(R)etarded,(r)senant,(a)ntiresonant [T, R, r, Ta, Ra]
# | % DmRngeXs
# |   0.10000 |  0.10000 | eV    # [Xs] Damping range
# | %
# | % LongDrXs
# | 0.1000E-4 | 0.000    | 0.000    |        # [Xs] [cc] Electric Field
# | %
