#  __      __   ______   __       __  _______    ______     
# |  \    /  \ /      \ |  \     /  \|       \  /      \    
#  \$$\  /  $$|  $$$$$$\| $$\   /  $$| $$$$$$$\|  $$$$$$\   
#   \$$\/  $$ | $$__| $$| $$$\ /  $$$| $$__/ $$| $$  | $$   
#    \$$  $$  | $$    $$| $$$$\  $$$$| $$    $$| $$  | $$   
#     \$$$$   | $$$$$$$$| $$\$$ $$ $$| $$$$$$$\| $$  | $$   
#     | $$    | $$  | $$| $$ \$$$| $$| $$__/ $$| $$__/ $$   
#     | $$    | $$  | $$| $$  \$ | $$| $$    $$ \$$    $$   
#      \$$     \$$   \$$ \$$      \$$ \$$$$$$$   \$$$$$$    
#                                                           
#        Version 4.3.0 Revision 15201 Hash 76636f9          
#                      MPI+SLK Build                        
#                http://www.yambo-code.org                  
#
# Absorption @ Q(1) [q->0 direction] :0.1000E-4  0.000     0.000   
#
#
# - Energies      are  E < 08_gw_eq/ndb.QP + E Fit
# - Wavefunctions are Slater exchange(X)+Perdew & Zunger(C)
#
# - The Green`s function is Retarded -
# - Using the Length Gauge -
# - [r,Vnl] *is* included -
#
#   BSK|Identifier              :8030
#      |Dimension               :100
#      |Bands                   :2 - 7
#      |Exchange           [res]: yes
#      |Correlation        [res]: yes
#      |Kernel`s coupling       : no
#      |Exchange           [cpl]: no
#      |Correlation        [cpl]: no
#      |W interaction is bare   : no
#      |ALDA kernel in R-space  : no
#      |RL vectors    [exchange]:531
#      |RL vectors [correlation]:59
#      |E/h energy range    [ev]:-1.000000 - -1.000000
#      |Coupling range     [o/o]: 100.0000 -  100.0000
#    W |Interaction is diagonal : no
#      |Matrix size             :59
#      |Bands                   :1 - 8
#      |e/h energy range    [ev]:-1.000000 - -1.000000
#      |Poles              [o/o]: 100.0000
#      |RL vectors in the sum   :387
#      |[r,Vnl] included        : yes
#      |Field direction         :0.1000E-4  0.000000  0.000000
#      |Coulomb Cutoff          :none
#      |xc-Kernel               :none
#   RIM|RL components      [col]:0
#      |Random points      [col]:0
#  
#   Haydock|Accuracy (requested) [o/o]:  0.02000
#          |Accuracy (reached)   [o/o]:   0.0037
#          |Iteration                 :24
#
#    E/ev[1]      EPS-Im[2]    EPS-Re[3]    EPSo-Im[4]   EPSo-Re[5]   EPS`-Im[6]   EPS`-Re[7]
#
     0.00000      0.00000     29.07391      0.00000     24.60387      0.00000     29.07391
   0.2004E-1    0.8146E-2     29.07       0.4861E-2     24.60       0.8146E-2     29.07   
   0.4008E-1    0.1630E-1     29.08       0.9723E-2     24.61       0.1630E-1     29.08   
   0.6012E-1    0.2445E-1     29.08       0.1459E-1     24.61       0.2445E-1     29.08   
   0.8016E-1    0.3261E-1     29.09       0.1946E-1     24.61       0.3261E-1     29.09   
   0.1002       0.4079E-1     29.09       0.2433E-1     24.62       0.4079E-1     29.09   
     0.12024      0.04898     29.10324      0.02921     24.62137      0.04898     29.10324
     0.14028      0.05719     29.11384      0.03410     24.62771      0.05719     29.11384
     0.16032      0.06542     29.12609      0.03899     24.63501      0.06542     29.12609
     0.18036      0.07367     29.13998      0.04390     24.64329      0.07367     29.13998
     0.20040      0.08195     29.15553      0.04882     24.65256      0.08195     29.15553
     0.22044      0.09026     29.17273      0.05375     24.66281      0.09026     29.17273
     0.24048      0.09860     29.19160      0.05870     24.67406      0.09860     29.19160
     0.26052      0.10698     29.21213      0.06366     24.68629      0.10698     29.21213
     0.28056      0.11540     29.23435      0.06864     24.69951      0.11540     29.23435
     0.30060      0.12386     29.25825      0.07363     24.71373      0.12386     29.25825
     0.32064      0.13237     29.28384      0.07865     24.72896      0.13237     29.28384
     0.34068      0.14093     29.31114      0.08369     24.74518      0.14093     29.31114
     0.36072      0.14954     29.34015      0.08875     24.76243      0.14954     29.34015
     0.38076      0.15820     29.37089      0.09383     24.78068      0.15820     29.37089
     0.40080      0.16693     29.40337      0.09894     24.79996      0.16693     29.40337
     0.42084      0.17571     29.43759      0.10408     24.82026      0.17571     29.43759
     0.44088      0.18457     29.47358      0.10924     24.84159      0.18457     29.47358
     0.46092      0.19349     29.51134      0.11444     24.86395      0.19349     29.51134
     0.48096      0.20249     29.55089      0.11966     24.88735      0.20249     29.55089
     0.50100      0.21156     29.59224      0.12492     24.91180      0.21156     29.59224
     0.52104      0.22072     29.63542      0.13022     24.93730      0.22072     29.63542
     0.54108      0.22996     29.68043      0.13554     24.96387      0.22996     29.68043
     0.56112      0.23929     29.72729      0.14091     24.99150      0.23929     29.72729
     0.58116      0.24871     29.77603      0.14632     25.02023      0.24871     29.77603
     0.60120      0.25823     29.82666      0.15176     25.05002      0.25823     29.82666
     0.62124      0.26786     29.87920      0.15725     25.08090      0.26786     29.87920
     0.64128      0.27759     29.93367      0.16279     25.11290      0.27759     29.93367
     0.66132      0.28743     29.99010      0.16837     25.14599      0.28743     29.99010
     0.68136      0.29738     30.04849      0.17400     25.18022      0.29738     30.04849
     0.70140      0.30746     30.10889      0.17968     25.21557      0.30746     30.10889
     0.72144      0.31766     30.17132      0.18541     25.25208      0.31766     30.17132
     0.74148      0.32799     30.23579      0.19119     25.28971      0.32799     30.23579
     0.76152      0.33846     30.30233      0.19703     25.32851      0.33846     30.30233
     0.78156      0.34907     30.37098      0.20293     25.36850      0.34907     30.37098
     0.80160      0.35982     30.44176      0.20888     25.40966      0.35982     30.44176
     0.82164      0.37073     30.51470      0.21490     25.45200      0.37073     30.51470
     0.84168      0.38179     30.58984      0.22098     25.49559      0.38179     30.58984
     0.86172      0.39301     30.66719      0.22713     25.54037      0.39301     30.66719
     0.88176      0.40441     30.74680      0.23335     25.58639      0.40441     30.74680
     0.90180      0.41598     30.82870      0.23964     25.63367      0.41598     30.82870
     0.92184      0.42774     30.91293      0.24600     25.68219      0.42774     30.91293
     0.94188      0.43968     30.99952      0.25243     25.73201      0.43968     30.99952
     0.96192      0.45182     31.08852      0.25895     25.78313      0.45182     31.08852
     0.98196      0.46417     31.17995      0.26554     25.83553      0.46417     31.17995
     1.00200      0.47672     31.27386      0.27222     25.88929      0.47672     31.27386
     1.02204      0.48950     31.37030      0.27898     25.94437      0.48950     31.37030
     1.04208      0.50250     31.46931      0.28584     26.00081      0.50250     31.46931
     1.06212      0.51574     31.57093      0.29278     26.05862      0.51574     31.57093
     1.08216      0.52922     31.67522      0.29982     26.11784      0.52922     31.67522
     1.10220      0.54295     31.78222      0.30696     26.17848      0.54295     31.78222
     1.12224      0.55695     31.89198      0.31419     26.24054      0.55695     31.89198
     1.14228      0.57122     32.00455      0.32154     26.30405      0.57122     32.00455
     1.16232      0.58578     32.12000      0.32898     26.36906      0.58578     32.12000
     1.18236      0.60062     32.23838      0.33654     26.43555      0.60062     32.23838
     1.20240      0.61577     32.35974      0.34422     26.50358      0.61577     32.35974
     1.22244      0.63123     32.48415      0.35201     26.57314      0.63123     32.48415
     1.24248      0.64703     32.61167      0.35992     26.64427      0.64703     32.61167
     1.26252      0.66316     32.74237      0.36796     26.71699      0.66316     32.74237
     1.28257      0.67964     32.87632      0.37613     26.79132      0.67964     32.87632
     1.30261      0.69649     33.01358      0.38444     26.86730      0.69649     33.01358
     1.32265      0.71372     33.15423      0.39288     26.94496      0.71372     33.15423
     1.34269      0.73134     33.29835      0.40146     27.02429      0.73134     33.29835
     1.36273      0.74937     33.44602      0.41019     27.10538      0.74937     33.44602
     1.38277      0.76782     33.59731      0.41908     27.18820      0.76782     33.59731
     1.40281      0.78672     33.75232      0.42812     27.27283      0.78672     33.75232
     1.42285      0.80607     33.91113      0.43732     27.35929      0.80607     33.91113
     1.44289      0.82590     34.07383      0.44669     27.44757      0.82590     34.07383
     1.46293      0.84623     34.24053      0.45623     27.53775      0.84623     34.24053
     1.48297      0.86707     34.41132      0.46595     27.62984      0.86707     34.41132
     1.50301      0.88845     34.58630      0.47585     27.72390      0.88845     34.58630
     1.52305      0.91038     34.76559      0.48595     27.81993      0.91038     34.76559
     1.54309      0.93289     34.94928      0.49624     27.91802      0.93289     34.94928
     1.56313      0.95601     35.13752      0.50674     28.01819      0.95601     35.13752
     1.58317      0.97976     35.33039      0.51744     28.12042      0.97976     35.33039
     1.60321      1.00416     35.52806      0.52836     28.22486      1.00416     35.52806
     1.62325      1.02925     35.73063      0.53951     28.33146      1.02925     35.73063
     1.64329      1.05504     35.93825      0.55089     28.44034      1.05504     35.93825
     1.66333      1.08158     36.15107      0.56251     28.55147      1.08158     36.15107
     1.68337      1.10889     36.36922      0.57438     28.66497      1.10889     36.36922
     1.70341      1.13701     36.59287      0.58651     28.78085      1.13701     36.59287
     1.72345      1.16598     36.82218      0.59890     28.89918      1.16598     36.82218
     1.74349      1.19582     37.05731      0.61157     29.01999      1.19582     37.05731
     1.76353      1.22659     37.29845      0.62453     29.14335      1.22659     37.29845
     1.78357      1.25831     37.54578      0.63778     29.26932      1.25831     37.54578
     1.80361      1.29105     37.79949      0.65134     29.39797      1.29105     37.79949
     1.82365      1.32483     38.05978      0.66521     29.52934      1.32483     38.05978
     1.84369      1.35972     38.32687      0.67942     29.66351      1.35972     38.32687
     1.86373      1.39576     38.60099      0.69397     29.80053      1.39576     38.60099
     1.88377      1.43301     38.88234      0.70887     29.94049      1.43301     38.88234
     1.90381      1.47152     39.17118      0.72414     30.08346      1.47152     39.17118
     1.92385      1.51137     39.46777      0.73979     30.22948      1.51137     39.46777
     1.94389      1.55261     39.77237      0.75584     30.37867      1.55261     39.77237
     1.96393      1.59531     40.08526      0.77230     30.53108      1.59531     40.08526
     1.98397      1.63956     40.40674      0.78919     30.68681      1.63956     40.40674
     2.00401      1.68542     40.73709      0.80652     30.84592      1.68542     40.73709
     2.02405      1.73298     41.07668      0.82431     31.00855      1.73298     41.07668
     2.04409      1.78233     41.42580      0.84259     31.17473      1.78233     41.42580
     2.06413      1.83356     41.78485      0.86137     31.34462      1.83356     41.78485
     2.08417      1.88679     42.15419      0.88066     31.51830      1.88679     42.15419
     2.10421      1.94211     42.53420      0.90050     31.69581      1.94211     42.53420
     2.12425      1.99963     42.92533      0.92091     31.87736      1.99963     42.92533
     2.14429      2.05950     43.32800      0.94190     32.06301      2.05950     43.32800
     2.16433      2.12183     43.74268      0.96351     32.25287      2.12183     43.74268
     2.18437      2.18677     44.16986      0.98576     32.44707      2.18677     44.16986
     2.20441      2.25447     44.61007      1.00868     32.64577      2.25447     44.61007
     2.22445      2.32510     45.06385      1.03229     32.84908      2.32510     45.06385
     2.24449      2.39883     45.53178      1.05664     33.05712      2.39883     45.53178
     2.26453      2.47585     46.01449      1.08174     33.27007      2.47585     46.01449
     2.28457      2.55636     46.51262      1.10764     33.48806      2.55636     46.51262
     2.30461      2.64059     47.02686      1.13438     33.71129      2.64059     47.02686
     2.32465      2.72877     47.55797      1.16199     33.93990      2.72877     47.55797
     2.34469      2.82117     48.10671      1.19051     34.17403      2.82117     48.10671
     2.36473      2.91805     48.67393      1.21999     34.41389      2.91805     48.67393
     2.38477      3.01972     49.26051      1.25048     34.65970      3.01972     49.26051
     2.40481      3.12651     49.86739      1.28202     34.91164      3.12651     49.86739
     2.42485      3.23877     50.49559      1.31466     35.16991      3.23877     50.49559
     2.44489      3.35689     51.14618      1.34848     35.43475      3.35689     51.14618
     2.46493      3.48129     51.82032      1.38351     35.70639      3.48129     51.82032
     2.48497      3.61243     52.51925      1.41982     35.98504      3.61243     52.51925
     2.50501      3.75082     53.24429      1.45749     36.27099      3.75082     53.24429
     2.52505      3.89700     53.99685      1.49659     36.56452      3.89700     53.99685
     2.54509      4.05159     54.77847      1.53719     36.86591      4.05159     54.77847
     2.56513      4.21524     55.59078      1.57938     37.17542      4.21524     55.59078
     2.58517      4.38868     56.43555      1.62325     37.49342      4.38868     56.43555
     2.60521      4.57273     57.31469      1.66889     37.82021      4.57273     57.31469
     2.62525      4.76828     58.23027      1.71640     38.15616      4.76828     58.23027
     2.64529      4.97631     59.18449      1.76589     38.50163      4.97631     59.18449
     2.66533      5.19791     60.17978      1.81749     38.85699      5.19791     60.17978
     2.68537      5.43431     61.21873      1.87133     39.22273      5.43431     61.21873
     2.70541      5.68686     62.30423      1.92753     39.59925      5.68686     62.30423
     2.72545      5.95708     63.43933      1.98625     39.98702      5.95708     63.43933
     2.74549      6.24666     64.62743      2.04765     40.38653      6.24666     64.62743
     2.76553      6.55751     65.87220      2.11191     40.79836      6.55751     65.87220
     2.78557      6.89178     67.17764      2.17921     41.22297      6.89178     67.17764
     2.80561      7.25190     68.54820      2.24977     41.66101      7.25190     68.54820
     2.82565      7.64059     69.98872      2.32380     42.11321      7.64059     69.98872
     2.84569      8.06099     71.50452      2.40156     42.58014      8.06099     71.50452
     2.86573      8.51665     73.10149      2.48331     43.06257      8.51665     73.10149
     2.88577      9.01161     74.78607      2.56934     43.56131      9.01161     74.78607
     2.90581      9.55055     76.56551      2.65999     44.07718      9.55055     76.56551
     2.92585     10.13884     78.44778      2.75559     44.61107     10.13884     78.44778
     2.94589     10.78268     80.44171      2.85655     45.16391     10.78268     80.44171
     2.96593     11.48927     82.55722      2.96329     45.73681     11.48927     82.55722
     2.98597     12.26704     84.80532      3.07629     46.33090     12.26704     84.80532
     3.00601     13.12581     87.19837      3.19607     46.94731     13.12581     87.19837
     3.02605     14.07720     89.75027      3.32323     47.58747     14.07720     89.75027
     3.04609     15.13494     92.47658      3.45841     48.25266     15.13494     92.47658
     3.06613     16.31536     95.39489      3.60234     48.94455     16.31536     95.39489
     3.08617     17.63800     98.52502      3.75584     49.66466     17.63800     98.52502
      3.1062      19.1264     101.8894       3.9198      50.4149      19.1264     101.8894
      3.1263      20.8091     105.5134       4.0954      51.1974      20.8091     105.5134
      3.1463      22.7210     109.4258       4.2836      52.0140      22.7210     109.4258
      3.1663      24.9049     113.6591       4.4858      52.8673      24.9049     113.6591
      3.1864      27.4138     118.2500       4.7036      53.7599      27.4138     118.2500
      3.2064      30.3139     123.2396       4.9387      54.6946      30.3139     123.2396
      3.2265      33.6886     128.6738       5.1930      55.6746      33.6886     128.6738
      3.2465      37.6439     134.6028       5.4689      56.7034      37.6439     134.6028
      3.2665      42.3156     141.0806       5.7690      57.7848      42.3156     141.0806
      3.2866      47.8792     148.1619       6.0964      58.9232      47.8792     148.1619
      3.3066      54.5639     155.8978       6.4547      60.1233      54.5639     155.8978
      3.3267      62.6709     164.3259       6.8482      61.3903      62.6709     164.3259
      3.3467      72.5989     173.4527       7.2820      62.7304      72.5989     173.4527
      3.3667      84.8772     183.2203       7.7619      64.1502      84.8772     183.2203
      3.3868     100.2055     193.4465       8.2953      65.6570     100.2055     193.4465
      3.4068     119.4962     203.7189       8.8907      67.2594     119.4962     203.7189
      3.4269     143.8938     213.2086       9.5588      68.9666     143.8938     213.2086
      3.4469     174.7113     220.3641      10.3124      70.7893     174.7113     220.3641
      3.4669     213.1357     222.4615      11.1676      72.7392     213.1357     222.4615
      3.4870     259.4162     215.1210      12.1443      74.8295     259.4162     215.1210
      3.5070     311.1962     192.3234      13.2674      77.0745     311.1962     192.3234
      3.5271     361.2333     148.2196      14.5687      79.4901     361.2334     148.2194
      3.5471     396.8404      81.9403      16.0890      82.0926     396.8404      81.9403
      3.5671     405.1275       2.7980      17.8808      84.8983     405.1275       2.7980
      3.5872     382.6553     -71.9149      20.0129      87.9214     382.6552     -71.9150
      3.6072     338.5457    -127.7931      22.5755      91.1708     338.5458    -127.7931
      3.6273     286.6996    -160.8443      25.6878      94.6430     286.6996    -160.8443
      3.6473     237.3773    -175.1197      29.5069      98.3106     237.3773    -175.1197
      3.6673     195.1875    -176.9553      34.2383     102.1006     195.1875    -176.9553
      3.6874     160.9607    -171.6465      40.1421     105.8563     160.9607    -171.6465
      3.7074     133.8520    -162.7166      47.5254     109.2743     133.8520    -162.7166
      3.7275     112.5620    -152.2517      56.6917     111.8071     112.5620    -152.2517
      3.7475      95.8538    -141.3997      67.7880     112.5474      95.8538    -141.3997
      3.7675      82.7098    -130.7518      80.4700     110.1849      82.7098    -130.7518
      3.7876      72.3441    -120.5845      93.3822     103.2942      72.3442    -120.5845
      3.8076      64.1693    -111.0030     103.8523      91.2910      64.1694    -111.0030
      3.8277      57.7553    -102.0219     108.7353      75.7541      57.7553    -102.0220
      3.8477      52.7948     -93.6117     106.5883      60.4652      52.7948     -93.6117
     3.86774     49.07803    -85.72534     98.98222     49.18347     49.07803    -85.72534
     3.88778     46.47478    -78.31589     89.15489     43.44872     46.47477    -78.31588
     3.90782     44.92416    -71.35104     79.85270     42.65945     44.92415    -71.35106
     3.92786     44.42873    -64.83022     72.52061     45.39849     44.42873    -64.83023
     3.94790     45.04940    -58.81017     67.62801     50.37237     45.04942    -58.81013
     3.96794     46.89328    -53.44499     65.19646     56.68422     46.89325    -53.44499
     3.98798     50.07488    -49.04638     65.14651     63.77693     50.07484    -49.04638
     4.00802     54.61385    -46.15308     67.46442     71.29668     54.61381    -46.15307
     4.02806     60.22001    -45.54787     72.27286     78.96120     60.22001    -45.54783
     4.04810     65.97453    -48.05932     79.85707     86.43309     65.97449    -48.05926
     4.06814     70.17455    -53.95229     90.65813     93.17374     70.17456    -53.95226
      4.0882      70.9133     -62.1467     105.2043      98.2487      70.9134     -62.1467
      4.1082      67.4124     -70.2980     123.8880     100.0783      67.4125     -70.2979
      4.1283      60.7003     -76.2081     146.4340      96.2359      60.7003     -76.2081
      4.1483      52.6987     -79.0678     170.9292      83.6717      52.6987     -79.0679
      4.1683      44.9526     -79.3100     192.8061      60.0829      44.9526     -79.3100
      4.1884      38.2098     -77.8017     205.3691      26.6265      38.2098     -77.8018
      4.2084      32.6388     -75.3097     203.4634     -10.3796      32.6388     -75.3097
      4.2285      28.1363     -72.3552     187.7175     -42.3529      28.1363     -72.3552
      4.2485      24.5172     -69.2487     163.9563     -63.9308      24.5172     -69.2487
      4.2685      21.5986     -66.1603     138.6102     -74.8635      21.5986     -66.1604
      4.2886      19.2270     -63.1761     115.6429     -77.7867      19.2270     -63.1761
     4.30862     17.28179    -60.33436     96.50139    -75.69033     17.28177    -60.33442
     4.32866     15.67081    -57.64777     81.20036    -70.82891     15.67078    -57.64784
     4.34870     14.32419    -55.11533     69.20415    -64.62616     14.32414    -55.11538
     4.36874     13.18905    -52.72918     59.87736    -57.89667     13.18899    -52.72924
     4.38878     12.22529    -50.47851     52.65649    -51.07339     12.22521    -50.47857
     4.40882     11.40226    -48.35138     47.09324    -44.36712     11.40215    -48.35142
     4.42886     10.69642    -46.33581     42.84920    -37.86420     10.69629    -46.33584
     4.44890     10.08964    -44.42035     39.67716    -31.58324     10.08947    -44.42035
     4.46894      9.56790    -42.59416     37.40267    -25.50662      9.56772    -42.59410
     4.48898      9.12043    -40.84712     35.90903    -19.59820      9.12025    -40.84699
     4.50902      8.73905    -39.16984     35.12715    -13.81371      8.73889    -39.16965
     4.52906      8.41769    -37.55347     35.02959     -8.10591      8.41757    -37.55322
     4.54910      8.15214    -35.98972     35.62844     -2.42987      8.15209    -35.98943
     4.56914      7.93984    -34.47074     36.97685      3.25259      7.93986    -34.47042
     4.58918      7.77975    -32.98899     39.17430      8.96578      7.77985    -32.98865
     4.60922      7.67244    -31.53714     42.37561     14.70763      7.67262    -31.53680
     4.62926      7.62014    -30.10805     46.80315     20.42808      7.62043    -30.10771
     4.64930      7.62706    -28.69468     52.75939     25.98987      7.62746    -28.69436
     4.66934      7.69972    -27.29013     60.63121     31.10100      7.70027    -27.28987
     4.68938      7.84759    -25.88776     70.86212     35.20383      7.84830    -25.88761
     4.70942      8.08388    -24.48146     83.83672     37.31458      8.08476    -24.48150
     4.72946      8.42675    -23.06625     99.57452     35.86094      8.42777    -23.06660
      4.7495       8.9009     -21.6395     117.1186      28.7241       8.9019     -21.6403
      4.7695       9.5397     -20.2029     133.7495      13.9579       9.5406     -20.2042
      4.7896      10.3878     -18.7665     144.9265      -8.4519      10.3883     -18.7683
      4.8096      11.5039     -17.3558     146.3384     -34.9006      11.5037     -17.3579
      4.8297      12.9617     -16.0236     137.2295     -59.2867      12.9608     -16.0258
      4.8497      14.8459     -14.8703     121.0818     -76.8932      14.8441     -14.8723
      4.8697      17.2324     -14.0731     102.6950     -86.6795      17.2296     -14.0745
     4.88978     20.13497    -13.91734     85.43544    -90.20843     20.13141    -13.91778
     4.90982     23.39562    -14.79439     70.73691    -89.67560     23.39165    -14.79325
     4.92986     26.53657    -17.08074     58.79976    -86.86047     26.53303    -17.07761
     4.94990     28.72847    -20.82256     49.29665    -82.92918     28.72657    -20.81782
     4.96994     29.13862    -25.40144     41.76888    -78.56655     29.13918    -25.39624
     4.98998     27.55814    -29.68923     35.78766    -74.14697     27.56089    -29.68501
     5.01002     24.59068    -32.75880     31.00132    -69.86176     24.59456    -32.75640
     5.03006     21.13851    -34.36233     27.13677    -65.79969     21.14249    -34.36164
     5.05010     17.86119    -34.76819     23.98652    -61.99340     17.86467    -34.76875
     5.07014     15.05202    -34.38757     21.39417    -58.44624     15.05482    -34.38892
     5.09018     12.76139    -33.56215     19.24167    -55.14671     12.76351    -33.56393
     5.11022     10.93269    -32.51847     17.43948    -52.07663     10.93421    -32.52048
     5.13026      9.48064    -31.39038     15.91922    -49.21546      9.48165    -31.39249
     5.15030      8.32425    -30.25138     14.62821    -46.54243      8.32483    -30.25354
     5.17034      7.39669    -29.13919     13.52553    -44.03781      7.39686    -29.14136
     5.19038      6.64588    -28.07139     12.57916    -41.68329      6.64566    -28.07355
     5.21042      6.03225    -27.05453     11.76382    -39.46223      6.03164    -27.05665
     5.23046      5.52601    -26.08939     11.05942    -37.35949      5.52496    -26.09142
     5.25050      5.10467    -25.17382     10.44991    -35.36151      5.10315    -25.17569
     5.27054      4.75120    -24.30432      9.92238    -33.45603      4.74918    -24.30589
     5.29058      4.45256    -23.47687      9.46646    -31.63194      4.45007    -23.47797
     5.31062      4.19870    -22.68737      9.07378    -29.87916      4.19588    -22.68779
     5.33066      3.98182    -21.93178      8.73762    -28.18849      3.97892    -21.93140
     5.35070      3.79589    -21.20623      8.45262    -26.55148      3.79320    -21.20509
     5.37074      3.63632    -20.50714      8.21456    -24.96020      3.63406    -20.50539
     5.39078      3.49960    -19.83135      8.02020    -23.40728      3.49785    -19.82918
     5.41082      3.38294    -19.17599      7.86721    -21.88570      3.38172    -19.17357
     5.43086      3.28421    -18.53846      7.75402    -20.38877      3.28346    -18.53589
     5.45090      3.20172    -17.91636      7.67983    -18.90995      3.20142    -17.91370
     5.47094      3.13427    -17.30745      7.64459    -17.44280      3.13440    -17.30474
     5.49098      3.08104    -16.70962      7.64901    -15.98097      3.08160    -16.70685
     5.51102      3.04161    -16.12089      7.69463    -14.51803      3.04263    -16.11808
     5.53106      3.01594    -15.53945      7.78388    -13.04741      3.01750    -15.53660
     5.55110      3.00445    -14.96362      7.92029    -11.56250      3.00664    -14.96077
     5.57114      3.00798    -14.39198      8.10857    -10.05649      3.01096    -14.38920
     5.59118      3.02794    -13.82353      8.35495     -8.52253      3.03191    -13.82096
     5.61122      3.06631    -13.25788      8.66739     -6.95394      3.07151    -13.25581
     5.63126      3.12555    -12.69585      9.05576     -5.34458      3.13224    -12.69478
     5.65130      3.20823    -12.14011      9.53176     -3.68956      3.21653    -12.14089
     5.67134      3.31577    -11.59610     10.10809     -1.98590      3.32538    -11.60000
     5.69138      3.44583    -11.07221     10.79625     -0.23259      3.45546    -11.08078
     5.71142      3.58833    -10.57740     11.60351      1.57254      3.59516    -10.59154
     5.73146      3.72338    -10.11351     12.53281      3.44091      3.72358    -10.13188
     5.75150      3.82846     -9.66530     13.59311      5.40252      3.81957     -9.68347
     5.77154      3.89535     -9.20101     14.81861      7.50241      3.87876     -9.21367
     5.79158      3.93919     -8.69005     16.27857      9.78115      3.91929     -8.69444
     5.81162      3.98739     -8.11899     18.06855     12.25849      3.96842     -8.11566
     5.83166      4.06354     -7.49007     20.30119     14.93316      4.04791     -7.48115
     5.85170      4.18203     -6.81090     23.11005     17.78591      4.17052     -6.79850
     5.87174      4.35098     -6.08763     26.66261     20.77275      4.34357     -6.07325
     5.89178      4.57650     -5.32303     31.17506     23.80323      4.57296     -5.30761
     5.91182      4.86569     -4.51705     36.92238     26.69923      4.86586     -4.50117
     5.93186      5.22826     -3.66802     44.23217     29.12568      5.23218     -3.65209
     5.95190      5.67778     -2.77390     53.43279     30.48439      5.68572     -2.75836
     5.97194      6.23263     -1.83386     64.69456     29.78383      6.24512     -1.81940
     5.99198      6.91687     -0.85044     77.67211     25.57839      6.93463     -0.83823
     6.01202      7.76059      0.16705     90.93288     16.24935      7.78431      0.17494
      6.0321       8.7982       1.1976     101.5693       1.0118       8.8279       1.1978
      6.0521      10.0624       2.2030     106.0159     -18.5971      10.0959       2.1906
      6.0721      11.5703       3.1265     102.4164     -38.5038      11.6012       3.0965
     6.09218     13.30534      3.90843     92.25319    -54.44479     13.32189      3.85989
     6.11222     15.21890      4.52659     79.02670    -64.53319     15.20745      4.46905
     6.13226     17.28788      5.03257     65.80405    -69.34643     17.24435      4.98632
     6.15230     19.60822      5.50524     54.18923    -70.47253     19.54538      5.48929
     6.17234     22.41109      5.91380     44.62592    -69.40451     22.35086      5.93293
     6.19238     25.95493      6.00447     36.98121    -67.18925     25.91523      6.04938
     6.21242     30.36436      5.27562     30.93250    -64.46528     30.35361      5.33059
     6.23246     35.44042      3.03062     26.14532    -61.59160     35.45773      3.07937
     6.25250     40.43581     -1.40766     22.33500    -58.75790     40.47216     -1.37822
     6.27254     44.00437     -8.18728     19.27676    -56.05694     44.04478     -8.18256
     6.29258     44.74962    -16.36879     16.79889    -53.52825     44.77980    -16.38332
     6.31262     42.25622    -24.13340     14.77182    -51.18266     42.27047    -24.15515
     6.33266     37.45582    -29.93051     13.09806    -49.01640     37.45742    -29.94971
     6.35271     31.81993    -33.30758     11.70401    -47.01868     31.81508    -33.32064
     6.37275     26.45054    -34.68195     10.53381    -45.17587     26.44382    -34.68934
     6.39279     21.84825    -34.72747      9.54487    -43.47356     21.84186    -34.73093
     6.41283     18.10582    -34.01239      8.70453    -41.89786     18.10056    -34.01345
     6.43287     15.13395    -32.91632      7.98773    -40.43601     15.12986    -32.91603
     6.45291     12.79343    -31.66484      7.37532    -39.07659     12.79039    -31.66382
     6.47295     10.95146    -30.38286      6.85282    -37.80976     10.94928    -30.38147
     6.49299      9.49899    -29.13603      6.40957    -36.62764      9.49752    -29.13448
     6.51303      8.35205    -27.95747      6.03796    -35.52468      8.35118    -27.95589
     6.53307      7.44765    -26.86402      5.73254    -34.49857      7.44729    -26.86249
     6.55311      6.73805    -25.86620      5.48839    -33.55127      6.73813    -25.86480
     6.57315      6.18386    -24.97390      5.29795    -32.68986      6.18435    -24.97276
     6.59319      5.74591    -24.19758      5.14566    -31.92478      5.74668    -24.19680
     6.61323      5.37801    -23.54185      5.00302    -31.26210      5.37887    -23.54151
     6.63327      5.02937    -22.99230      4.83259    -30.68942      5.03013    -22.99235
     6.65331      4.66332    -22.50900      4.60787    -30.16890      4.66381    -22.50928
     6.67335      4.27627    -22.04390      4.33317    -29.65463      4.27650    -22.04423
     6.69339      3.89106    -21.56793      4.03733    -29.11958      3.89112    -21.56820
     6.71343      3.53282    -21.07784      3.75016    -28.56226      3.53281    -21.07802
     6.73347      3.21488    -20.58382      3.48857    -27.99444      3.21484    -20.58393
     6.75351      2.93930    -20.09741      3.25749    -27.42899      2.93926    -20.09747
     6.77355      2.70225    -19.62657      3.05532    -26.87498      2.70221    -19.62660
     6.79359      2.49804    -19.17553      2.87819    -26.33759      2.49801    -19.17554
     6.81363      2.32111    -18.74587      2.72197    -25.81920      2.32109    -18.74588
     6.83367      2.16666    -18.33762      2.58304    -25.32052      2.16664    -18.33762
     6.85371      2.03079    -17.95000      2.45845    -24.84138      2.03078    -17.95000
     6.87375      1.91038    -17.58183      2.34582    -24.38104      1.91037    -17.58184
     6.89379      1.80293    -17.23180      2.24330    -23.93857      1.80292    -17.23180
     6.91383      1.70646    -16.89861      2.14942    -23.51304      1.70646    -16.89861
     6.93387      1.61937    -16.58097      2.06299    -23.10346      1.61937    -16.58097
     6.95391      1.54035    -16.27773      1.98305    -22.70884      1.54034    -16.27773
     6.97395      1.46832    -15.98780      1.90882    -22.32833      1.46832    -15.98780
     6.99399      1.40240    -15.71021      1.83965    -21.96109      1.40240    -15.71021
     7.01403      1.34185    -15.44404      1.77500    -21.60634      1.34185    -15.44404
     7.03407      1.28605    -15.18850      1.71440    -21.26336      1.28605    -15.18850
     7.05411      1.23445    -14.94283      1.65747    -20.93150      1.23445    -14.94283
     7.07415      1.18662    -14.70639      1.60385    -20.61017      1.18662    -14.70639
     7.09419      1.14214    -14.47855      1.55327    -20.29877      1.14214    -14.47855
     7.11423      1.10069    -14.25877      1.50545    -19.99684      1.10069    -14.25877
     7.13427      1.06198    -14.04653      1.46017    -19.70383      1.06198    -14.04653
     7.15431      1.02574    -13.84139      1.41723    -19.41937      1.02574    -13.84139
     7.17435      0.99174    -13.64291      1.37645    -19.14298      0.99174    -13.64291
     7.19439      0.95979    -13.45071      1.33767    -18.87431      0.95979    -13.45071
     7.21443      0.92971    -13.26444      1.30074    -18.61296      0.92971    -13.26444
     7.23447      0.90135    -13.08377      1.26554    -18.35866      0.90135    -13.08377
     7.25451      0.87455    -12.90839      1.23195    -18.11104      0.87455    -12.90839
     7.27455      0.84921    -12.73804      1.19985    -17.86985      0.84921    -12.73804
     7.29459      0.82519    -12.57245      1.16916    -17.63478      0.82519    -12.57245
     7.31463      0.80241    -12.41138      1.13977    -17.40557      0.80241    -12.41138
     7.33467      0.78077    -12.25462      1.11163    -17.18200      0.78077    -12.25462
     7.35471      0.76019    -12.10194      1.08463    -16.96384      0.76019    -12.10194
     7.37475      0.74059    -11.95318      1.05873    -16.75086      0.74059    -11.95318
     7.39479      0.72190    -11.80813      1.03385    -16.54286      0.72190    -11.80813
     7.41483      0.70407    -11.66665      1.00994    -16.33966      0.70407    -11.66665
     7.43487      0.68704    -11.52856      0.98695    -16.14108      0.68704    -11.52856
     7.45491      0.67075    -11.39373      0.96481    -15.94693      0.67075    -11.39373
     7.47495      0.65515    -11.26202      0.94349    -15.75706      0.65515    -11.26202
     7.49499      0.64021    -11.13330      0.92295    -15.57131      0.64021    -11.13330
     7.51503      0.62588    -11.00744      0.90314    -15.38954      0.62588    -11.00744
     7.53507      0.61213    -10.88434      0.88402    -15.21161      0.61213    -10.88434
     7.55511      0.59892    -10.76388      0.86557    -15.03739      0.59892    -10.76388
     7.57515      0.58623    -10.64597      0.84775    -14.86675      0.58623    -10.64597
     7.59519      0.57401    -10.53051      0.83052    -14.69957      0.57401    -10.53051
     7.61523      0.56225    -10.41740      0.81386    -14.53574      0.56225    -10.41740
     7.63527      0.55092    -10.30657      0.79775    -14.37515      0.55092    -10.30657
     7.65531      0.54000    -10.19793      0.78215    -14.21771      0.54000    -10.19793
     7.67535      0.52946    -10.09140      0.76704    -14.06329      0.52946    -10.09140
     7.69539      0.51929     -9.98692      0.75241    -13.91182      0.51929     -9.98692
     7.71543      0.50947     -9.88441      0.73823    -13.76320      0.50947     -9.88441
     7.73547      0.49997     -9.78381      0.72448    -13.61734      0.49997     -9.78381
     7.75551      0.49079     -9.68505      0.71115    -13.47418      0.49079     -9.68505
     7.77555      0.48191     -9.58808      0.69820    -13.33362      0.48191     -9.58808
     7.79559      0.47331     -9.49283      0.68564    -13.19558      0.47331     -9.49283
     7.81563      0.46498     -9.39926      0.67344    -13.06000      0.46498     -9.39926
     7.83567      0.45692     -9.30731      0.66159    -12.92681      0.45692     -9.30731
     7.85571      0.44909     -9.21693      0.65007    -12.79592      0.44909     -9.21693
     7.87575      0.44150     -9.12809      0.63888    -12.66730      0.44150     -9.12809
     7.89579      0.43414     -9.04071      0.62799    -12.54087      0.43414     -9.04071
     7.91583      0.42700     -8.95479      0.61740    -12.41657      0.42700     -8.95479
     7.93587      0.42005     -8.87025      0.60709    -12.29435      0.42005     -8.87025
     7.95591      0.41331     -8.78707      0.59706    -12.17415      0.41331     -8.78707
     7.97595      0.40676     -8.70521      0.58729    -12.05591      0.40676     -8.70521
     7.99599      0.40038     -8.62464      0.57778    -11.93959      0.40038     -8.62464
     8.01603      0.39418     -8.54531      0.56852    -11.82514      0.39418     -8.54531
     8.03607      0.38815     -8.46720      0.55948    -11.71250      0.38815     -8.46720
     8.05611      0.38228     -8.39026      0.55068    -11.60164      0.38228     -8.39026
     8.07615      0.37657     -8.31448      0.54210    -11.49251      0.37657     -8.31448
     8.09619      0.37100     -8.23982      0.53373    -11.38506      0.37100     -8.23982
     8.11623      0.36558     -8.16625      0.52557    -11.27925      0.36558     -8.16625
     8.13627      0.36029     -8.09375      0.51760    -11.17506      0.36029     -8.09375
     8.15631      0.35514     -8.02228      0.50982    -11.07243      0.35514     -8.02228
     8.17635      0.35011     -7.95183      0.50223    -10.97133      0.35011     -7.95183
     8.19639      0.34521     -7.88236      0.49482    -10.87172      0.34521     -7.88236
     8.21643      0.34043     -7.81386      0.48759    -10.77357      0.34043     -7.81386
     8.23647      0.33576     -7.74629      0.48052    -10.67684      0.33576     -7.74629
     8.25651      0.33120     -7.67965      0.47361    -10.58151      0.33120     -7.67965
     8.27655      0.32675     -7.61390      0.46686    -10.48753      0.32675     -7.61390
     8.29659      0.32241     -7.54903      0.46026    -10.39489      0.32241     -7.54903
     8.31663      0.31817     -7.48501      0.45382    -10.30354      0.31817     -7.48501
     8.33667      0.31402     -7.42182      0.44751    -10.21347      0.31402     -7.42182
     8.35671      0.30997     -7.35946      0.44134    -10.12463      0.30997     -7.35946
     8.37675      0.30601     -7.29789      0.43531    -10.03702      0.30601     -7.29789
    8.396793     0.302134    -7.237098     0.429412    -9.950589     0.302134    -7.237098
    8.416833     0.298348    -7.177073     0.423639    -9.865324     0.298348    -7.177073
    8.436873     0.294645    -7.117792     0.417990    -9.781196     0.294645    -7.117792
    8.456913     0.291022    -7.059242     0.412460    -9.698183     0.291022    -7.059242
    8.476954     0.287479    -7.001406     0.407048    -9.616261     0.287479    -7.001406
    8.496993     0.284012    -6.944270     0.401748    -9.535410     0.284012    -6.944270
    8.517034     0.280619    -6.887815     0.396559    -9.455596     0.280619    -6.887815
    8.537074     0.277298    -6.832034     0.391478    -9.376822     0.277298    -6.832034
    8.557114     0.274048    -6.776906     0.386501    -9.299035     0.274048    -6.776906
    8.577154     0.270865    -6.722417     0.381626    -9.222246     0.270865    -6.722417
    8.597194     0.267750    -6.668560     0.376850    -9.146402     0.267750    -6.668560
    8.617234     0.264699    -6.615314     0.372171    -9.071513     0.264699    -6.615314
    8.637274     0.261711    -6.562674     0.367585    -8.997549     0.261711    -6.562674
    8.657314     0.258785    -6.510622     0.363091    -8.924487     0.258785    -6.510622
    8.677354     0.255920    -6.459150     0.358688    -8.852314     0.255920    -6.459150
    8.697394     0.253113    -6.408242     0.354370    -8.781007     0.253113    -6.408242
    8.717434     0.250363    -6.357889     0.350139    -8.710555     0.250363    -6.357889
    8.737474     0.247669    -6.308078     0.345990    -8.640945     0.247669    -6.308078
    8.757514     0.245030    -6.258801     0.341923    -8.572145     0.245030    -6.258801
    8.777555     0.242445    -6.210043     0.337935    -8.504156     0.242445    -6.210043
    8.797595     0.239912    -6.161800     0.334025    -8.436956     0.239912    -6.161800
    8.817636     0.237431    -6.114054     0.330190    -8.370524     0.237431    -6.114054
    8.837675     0.235000    -6.066802     0.326430    -8.304859     0.235000    -6.066802
    8.857716     0.232618    -6.020029     0.322742    -8.239926     0.232618    -6.020029
    8.877755     0.230285    -5.973726     0.319125    -8.175735     0.230285    -5.973726
    8.897796     0.227999    -5.927885     0.315578    -8.112249     0.227999    -5.927885
    8.917835     0.225761    -5.882497     0.312099    -8.049476     0.225761    -5.882497
    8.937876     0.223568    -5.837550     0.308687    -7.987382     0.223568    -5.837550
    8.957915     0.221420    -5.793038     0.305341    -7.925966     0.221420    -5.793038
    8.977956     0.219318    -5.748950     0.302059    -7.865208     0.219318    -5.748950
    8.997995     0.217259    -5.705278     0.298841    -7.805109     0.217259    -5.705278
    9.018035     0.215243    -5.662015     0.295685    -7.745641     0.215243    -5.662015
    9.038075     0.213271    -5.619149     0.292590    -7.686798     0.213271    -5.619149
    9.058115     0.211340    -5.576674     0.289555    -7.628566     0.211340    -5.576674
    9.078156     0.209452    -5.534580     0.286580    -7.570938     0.209452    -5.534580
    9.098196     0.207605    -5.492861     0.283663    -7.513899     0.207605    -5.492861
    9.118237     0.205799    -5.451506     0.280804    -7.457432     0.205799    -5.451506
    9.138276     0.204034    -5.410510     0.278001    -7.401533     0.204034    -5.410510
    9.158317     0.202310    -5.369861     0.275255    -7.346190     0.202310    -5.369861
    9.178356     0.200626    -5.329556     0.272565    -7.291394     0.200626    -5.329556
    9.198397     0.198982    -5.289582     0.269930    -7.237126     0.198982    -5.289582
    9.218436     0.197379    -5.249934     0.267350    -7.183385     0.197379    -5.249934
    9.238477     0.195815    -5.210604     0.264823    -7.130152     0.195815    -5.210604
    9.258516     0.194292    -5.171584     0.262351    -7.077419     0.194292    -5.171584
    9.278557     0.192810    -5.132862     0.259933    -7.025172     0.192810    -5.132862
    9.298596     0.191367    -5.094438     0.257568    -6.973414     0.191367    -5.094438
    9.318637     0.189966    -5.056295     0.255256    -6.922111     0.189966    -5.056295
    9.338676     0.188605    -5.018432     0.252999    -6.871281     0.188605    -5.018432
    9.358717     0.187286    -4.980837     0.250794    -6.820885     0.187286    -4.980837
    9.378757     0.186009    -4.943504     0.248644    -6.770934     0.186009    -4.943504
    9.398798     0.184775    -4.906424     0.246547    -6.721408     0.184775    -4.906424
    9.418838     0.183583    -4.869588     0.244505    -6.672299     0.183583    -4.869588
    9.438877     0.182436    -4.832989     0.242519    -6.623593     0.182436    -4.832989
    9.458918     0.181334    -4.796615     0.240588    -6.575279     0.181334    -4.796615
    9.478957     0.180278    -4.760461     0.238713    -6.527351     0.180278    -4.760461
    9.498998     0.179269    -4.724514     0.236897    -6.479792     0.179269    -4.724514
    9.519037     0.178308    -4.688769     0.235139    -6.432597     0.178308    -4.688769
    9.539078     0.177398    -4.653213     0.233442    -6.385744     0.177398    -4.653213
    9.559117     0.176539    -4.617838     0.231806    -6.339233     0.176539    -4.617838
    9.579158     0.175734    -4.582632     0.230235    -6.293046     0.175734    -4.582632
    9.599197     0.174985    -4.547587     0.228729    -6.247170     0.174985    -4.547587
    9.619238     0.174294    -4.512690     0.227292    -6.201600     0.174294    -4.512690
    9.639277     0.173664    -4.477931     0.225927    -6.156312     0.173664    -4.477931
    9.659318     0.173098    -4.443296     0.224636    -6.111294     0.173098    -4.443296
    9.679358     0.172600    -4.408773     0.223424    -6.066538     0.172600    -4.408773
    9.699399     0.172172    -4.374351     0.222294    -6.022018     0.172172    -4.374351
    9.719439     0.171820    -4.340016     0.221252    -5.977728     0.171820    -4.340016
    9.739479     0.171548    -4.305750     0.220303    -5.933650     0.171548    -4.305750
    9.759519     0.171361    -4.271542     0.219454    -5.889760     0.171361    -4.271542
    9.779559     0.171266    -4.237370     0.218711    -5.846046     0.171266    -4.237370
    9.799599     0.171269    -4.203223     0.218083    -5.802483     0.171269    -4.203223
    9.819639     0.171378    -4.169077     0.217580    -5.759051     0.171378    -4.169077
    9.839679     0.171601    -4.134915     0.217212    -5.715727     0.171601    -4.134915
    9.859718     0.171948    -4.100714     0.216992    -5.672490     0.171948    -4.100714
    9.879759     0.172431    -4.066450     0.216935    -5.629305     0.172431    -4.066450
    9.899798     0.173063    -4.032099     0.217058    -5.586142     0.173063    -4.032099
    9.919839     0.173857    -3.997633     0.217381    -5.542978     0.173857    -3.997633
    9.939879     0.174832    -3.963023     0.217927    -5.499772     0.174832    -3.963023
    9.959920     0.176007    -3.928233     0.218723    -5.456486     0.176007    -3.928233
    9.979959     0.177405    -3.893231     0.219803    -5.413073     0.177405    -3.893231
    10.00000      0.17905     -3.85798      0.22120     -5.36949      0.17905     -3.85798
# 
# 01/04/2018 at 13:46 YAMBO_RT @ narro [start]
# 01/04/2018 at 13:46                  [end]
#  
# Timing   [Min/Max/Average]: 03s/03s/03s
#
# .-Input file : yambo.in
# | optics                         # [R OPT] Optics
# | bse                            # [R BSE] Bethe Salpeter Equation.
# | bsk                            # [R BSK] Bethe Salpeter Equation kernel
# | bss                            # [R BSS] Bethe Salpeter Equation solver
# | em1s                           # [R Xs] Static Inverse Dielectric Matrix
# | BoseTemp= 0.000000     eV      # Bosonic Temperature
# | FFTGvecs=  387         RL      # [FFT] Plane-waves
# | Chimod= "hartree"              # [X] IP/Hartree/ALDA/LRC/BSfxc
# | BSEmod= "retarded"             # [BSE] resonant/retarded/coupling
# | BSKmod= "SEX"                  # [BSE] IP/Hartree/HF/ALDA/SEX/BSfxc
# | BSSmod= "h"                    # [BSS] (h)aydock/(d)iagonalization/(i)nversion/(t)ddft`
# | BSENGexx=  531         RL      # [BSK] Exchange components
# | BSENGBlk=  59          RL      # [BSK] Screened interaction block size
# | #WehCpl                        # [BSK] eh interaction included also in coupling
# | KfnQPdb= "E < 08_gw_eq/ndb.QP" # [EXTQP BSK BSS] Database
# | RfnRTdb= "f @ 0.1 ps < 04_elel+elph_0K/ndb.RT_carriers" # [EXTRT R] Database
# | % BEnRange
# |   0.00000 | 10.00000 | eV      # [BSS] Energy range
# | %
# | % BDmRange
# |   0.10000 |  0.10000 | eV      # [BSS] Damping range
# | %
# | BEnSteps=  500                 # [BSS] Energy steps
# | % BLongDir
# | 0.1000E-4 | 0.000    | 0.000    |        # [BSS] [cc] Electric Field
# | %
# | % BSEBands
# |   2 |  7 |                     # [BSK] Bands range
# | %
# | BSHayTrs=  0.02000             # [BSS] Relative [o/o] Haydock treshold. Strict(>0)/Average(<0)
# | % BndsRnXs
# |   1 |  8 |                     # [Xs] Polarization function bands
# | %
# | NGsBlkXs=  59          RL      # [Xs] Response block size
# | GrFnTpXs= "R"                  # [Xs] Green`s function (T)ordered,(R)etarded,(r)senant,(a)ntiresonant [T, R, r, Ta, Ra]
# | % DmRngeXs
# |   0.10000 |  0.10000 | eV      # [Xs] Damping range
# | %
# | % LongDrXs
# | 0.1000E-4 | 0.000    | 0.000    |        # [Xs] [cc] Electric Field
# | %
