#                                                           
#                                                           
# Y88b    /   e           e    e      888~~\    ,88~-_      
#  Y88b  /   d8b         d8b  d8b     888   |  d888   \     
#   Y88b/   /Y88b       d888bdY88b    888 _/  88888    |    
#    Y8Y   /  Y88b     / Y88Y Y888b   888  \  88888    |    
#     Y   /____Y88b   /   YY   Y888b  888   |  Y888   /     
#    /   /      Y88b /          Y888b 888__/    `88_-~      
#                                                           
#                                                           
#       Version 4.3.0 Revision 15201 Hash 76636f9           
#                     MPI+SLK Build                         
#               http://www.yambo-code.org                   
#
# Absorption @ Q(1) [q->0 direction] :0.1000E-4  0.000     0.000   
#
#
# - Energies      are Slater exchange(X)+Perdew & Zunger(C)
# - Wavefunctions are Slater exchange(X)+Perdew & Zunger(C)
#
# - The Green`s function is Retarded -
# - Using the Length Gauge -
# - [r,Vnl] *is* included -
#
#   BSK|Identifier              :4411
#      |Dimension               :100
#      |Bands                   :2 - 7
#      |Exchange           [res]: yes
#      |Correlation        [res]: yes
#      |Kernel`s coupling       : no
#      |Exchange           [cpl]: no
#      |Correlation        [cpl]: no
#      |W interaction is bare   : no
#      |ALDA kernel in R-space  : no
#      |RL vectors    [exchange]:531
#      |RL vectors [correlation]:59
#      |E/h energy range    [ev]:-1.000000 - -1.000000
#      |Coupling range     [o/o]: 100.0000 -  100.0000
#    W |Interaction is diagonal : no
#      |Matrix size             :59
#      |Bands                   :1 - 8
#      |e/h energy range    [ev]:-1.000000 - -1.000000
#      |Poles              [o/o]: 100.0000
#      |RL vectors in the sum   :387
#      |[r,Vnl] included        : yes
#      |Field direction         :0.1000E-4  0.000000  0.000000
#      |Coulomb Cutoff          :none
#      |xc-Kernel               :none
#   RIM|RL components      [col]:0
#      |Random points      [col]:0
#  
#   Haydock|Accuracy (requested) [o/o]:  0.02000
#          |Accuracy (reached)   [o/o]:   0.0087
#          |Iteration                 :21
#
#    E/ev[1]      EPS-Im[2]    EPS-Re[3]    EPSo-Im[4]   EPSo-Re[5]   EPS`-Im[6]   EPS`-Re[7]
#
     0.00000      0.00000     65.65487      0.00000     56.15900      0.00000     65.65487
   0.2004E-1    0.4183E-1     65.66       0.2655E-1     56.16       0.4183E-1     65.66   
   0.4008E-1    0.8370E-1     65.67       0.5311E-1     56.17       0.8370E-1     65.67   
   0.6012E-1    0.1256        65.69       0.7971E-1     56.18       0.1256        65.69   
     0.08016      0.16767     65.72153      0.10636     56.20133      0.16767     65.72153
     0.10020      0.20984     65.75910      0.13308     56.22519      0.20984     65.75910
     0.12024      0.25219     65.80508      0.15988     56.25438      0.25219     65.80508
     0.14028      0.29475     65.85950      0.18678     56.28894      0.29475     65.85950
     0.16032      0.33755     65.92241      0.21381     56.32884      0.33755     65.92241
     0.18036      0.38063     65.99387      0.24097     56.37418      0.38063     65.99387
     0.20040      0.42402     66.07393      0.26829     56.42492      0.42402     66.07393
     0.22044      0.46778     66.16266      0.29578     56.48112      0.46778     66.16266
     0.24048      0.51192     66.26013      0.32347     56.54285      0.51192     66.26013
     0.26052      0.55650     66.36642      0.35136     56.61012      0.55650     66.36642
     0.28056      0.60155     66.48163      0.37949     56.68292      0.60155     66.48163
     0.30060      0.64711     66.60583      0.40787     56.76139      0.64711     66.60583
     0.32064      0.69323     66.73917      0.43652     56.84554      0.69323     66.73917
     0.34068      0.73995     66.88172      0.46545     56.93538      0.73995     66.88172
     0.36072      0.78732     67.03363      0.49470     57.03105      0.78732     67.03363
     0.38076      0.83537     67.19502      0.52429     57.13256      0.83537     67.19502
     0.40080      0.88417     67.36604      0.55423     57.24002      0.88417     67.36604
     0.42084      0.93375     67.54681      0.58455     57.35347      0.93375     67.54681
     0.44088      0.98418     67.73753      0.61527     57.47298      0.98418     67.73753
     0.46092      1.03550     67.93834      0.64642     57.59865      1.03550     67.93834
     0.48096      1.08777     68.14944      0.67803     57.73059      1.08777     68.14944
     0.50100      1.14104     68.37103      0.71011     57.86889      1.14104     68.37103
     0.52104      1.19539     68.60327      0.74270     58.01355      1.19539     68.60327
     0.54108      1.25087     68.84643      0.77582     58.16479      1.25087     68.84643
     0.56112      1.30755     69.10071      0.80950     58.32267      1.30755     69.10071
     0.58116      1.36549     69.36633      0.84378     58.48729      1.36549     69.36633
     0.60120      1.42478     69.64360      0.87868     58.65879      1.42478     69.64360
     0.62124      1.48548     69.93275      0.91424     58.83730      1.48548     69.93275
     0.64128      1.54768     70.23408      0.95050     59.02295      1.54768     70.23408
     0.66132      1.61147     70.54788      0.98748     59.21589      1.61147     70.54788
     0.68136      1.67692     70.87449      1.02523     59.41624      1.67692     70.87449
     0.70140      1.74414     71.21420      1.06378     59.62421      1.74414     71.21420
     0.72144      1.81323     71.56742      1.10318     59.83983      1.81323     71.56742
     0.74148      1.88428     71.93449      1.14346     60.06341      1.88428     71.93449
     0.76152      1.95741     72.31583      1.18468     60.29511      1.95741     72.31583
     0.78156      2.03274     72.71183      1.22688     60.53503      2.03274     72.71183
     0.80160      2.11039     73.12294      1.27011     60.78343      2.11039     73.12294
     0.82164      2.19049     73.54964      1.31443     61.04052      2.19049     73.54964
     0.84168      2.27319     73.99239      1.35988     61.30656      2.27319     73.99239
     0.86172      2.35863     74.45174      1.40653     61.58167      2.35863     74.45174
     0.88176      2.44697     74.92822      1.45444     61.86614      2.44697     74.92822
     0.90180      2.53837     75.42241      1.50367     62.16027      2.53837     75.42241
     0.92184      2.63303     75.93493      1.55429     62.46429      2.63303     75.93493
     0.94188      2.73114     76.46643      1.60638     62.77844      2.73114     76.46643
     0.96192      2.83289     77.01759      1.66000     63.10307      2.83289     77.01759
     0.98196      2.93851     77.58915      1.71525     63.43845      2.93851     77.58915
     1.00200      3.04823     78.18187      1.77220     63.78495      3.04823     78.18187
     1.02204      3.16232     78.79656      1.83095     64.14285      3.16232     78.79656
     1.04208      3.28103     79.43410      1.89160     64.51259      3.28103     79.43410
     1.06212      3.40468     80.09542      1.95424     64.89445      3.40468     80.09542
     1.08216      3.53356     80.78148      2.01900     65.28894      3.53356     80.78148
     1.10220      3.66802     81.49333      2.08598     65.69640      3.66802     81.49333
     1.12224      3.80843     82.23206      2.15532     66.11726      3.80843     82.23206
     1.14228      3.95518     82.99887      2.22714     66.55203      3.95518     82.99887
     1.16232      4.10871     83.79502      2.30159     67.00126      4.10871     83.79502
     1.18236      4.26947     84.62182      2.37883     67.46538      4.26947     84.62182
     1.20240      4.43798     85.48072      2.45902     67.94501      4.43798     85.48072
     1.22244      4.61478     86.37325      2.54233     68.44074      4.61478     86.37325
     1.24248      4.80046     87.30103      2.62896     68.95312      4.80046     87.30103
     1.26252      4.99570     88.26582      2.71911     69.48283      4.99570     88.26582
     1.28257      5.20118     89.26949      2.81301     70.03062      5.20118     89.26949
     1.30261      5.41769     90.31405      2.91088     70.59718      5.41769     90.31405
     1.32265      5.64609     91.40167      3.01299     71.18337      5.64609     91.40167
     1.34269      5.88731     92.53467      3.11962     71.78999      5.88731     92.53467
     1.36273      6.14238     93.71554      3.23106     72.41785      6.14238     93.71554
     1.38277      6.41242     94.94699      3.34764     73.06803      6.41242     94.94699
     1.40281      6.69870     96.23193      3.46973     73.74149      6.69870     96.23193
     1.42285      7.00260     97.57350      3.59771     74.43929      7.00260     97.57350
     1.44289      7.32565     98.97511      3.73199     75.16269      7.32565     98.97511
      1.4629       7.6696     100.4405       3.8730      75.9128       7.6696     100.4405
      1.4830       8.0362     101.9735       4.0214      76.6909       8.0362     101.9735
      1.5030       8.4277     103.5788       4.1775      77.4987       8.4277     103.5788
      1.5230       8.8465     105.2608       4.3421      78.3374       8.8465     105.2608
      1.5431       9.2952     107.0249       4.5159      79.2089       9.2952     107.0249
      1.5631       9.7767     108.8766       4.6994      80.1148       9.7767     108.8766
      1.5832      10.2946     110.8223       4.8936      81.0571      10.2946     110.8223
      1.6032      10.8525     112.8686       5.0994      82.0379      10.8525     112.8686
      1.6232      11.4547     115.0230       5.3178      83.0593      11.4547     115.0230
      1.6433      12.1062     117.2938       5.5498      84.1238      12.1062     117.2938
      1.6633      12.8126     119.6900       5.7968      85.2341      12.8126     119.6900
      1.6834      13.5801     122.2218       6.0602      86.3929      13.5801     122.2218
      1.7034      14.4163     124.9004       6.3414      87.6034      14.4163     124.9004
      1.7234      15.3298     127.7382       6.6423      88.8689      15.3298     127.7382
      1.7435      16.3306     130.7490       6.9650      90.1933      16.3306     130.7490
      1.7635      17.4302     133.9482       7.3115      91.5806      17.4302     133.9482
      1.7836      18.6422     137.3528       7.6846      93.0351      18.6422     137.3528
      1.8036      19.9826     140.9824       8.0871      94.5618      19.9826     140.9824
      1.8236      21.4701     144.8583       8.5224      96.1661      21.4701     144.8583
      1.8437      23.1273     149.0052       8.9945      97.8541      23.1273     149.0052
      1.8637      24.9808     153.4505       9.5077      99.6322      24.9808     153.4505
      1.8838      27.0630     158.2253      10.0673     101.5079      27.0630     158.2253
      1.9038      29.4129     163.3647      10.6794     103.4894      29.4129     163.3647
      1.9238      32.0782     168.9086      11.3511     105.5856      32.0782     168.9086
      1.9439      35.1173     174.9017      12.0907     107.8068      35.1173     174.9017
      1.9639      38.6028     181.3947      12.9084     110.1644      38.6028     181.3947
      1.9840      42.6249     188.4446      13.8159     112.6712      42.6249     188.4446
      2.0040      47.2976     196.1145      14.8275     115.3415      47.2976     196.1145
      2.0240      52.7652     204.4736      15.9607     118.1914      52.7652     204.4736
      2.0441      59.2130     213.5959      17.2363     121.2390      59.2130     213.5959
      2.0641      66.8803     223.5571      18.6804     124.5049      66.8803     223.5571
      2.0842      76.0792     234.4271      20.3251     128.0117      76.0792     234.4271
      2.1042      87.2202     246.2574      22.2105     131.7847      87.2202     246.2574
      2.1242     100.8461     259.0561      24.3870     135.8518     100.8461     259.0562
      2.1443     117.6770     272.7426      26.9190     140.2430     117.6769     272.7426
      2.1643     138.6643     287.0648      29.8892     144.9895     138.6642     287.0649
      2.1844     165.0457     301.4526      33.4047     150.1217     165.0457     301.4528
      2.2044     198.3682     314.7620      37.6055     155.6649     198.3683     314.7622
      2.2244     240.3912     324.8567      42.6759     161.6322     240.3914     324.8570
      2.2445     292.6638     327.9983      48.8596     168.0088     292.6643     327.9986
      2.2645     355.3861     318.2163      56.4775     174.7277     355.3868     318.2165
      2.2846     425.1127     287.4209      65.9478     181.6219     425.1138     287.4205
      2.3046     491.7322     228.0354      77.7950     188.3430     491.7331     228.0341
      2.3246     538.0626     139.6238      92.6253     194.2275     538.0627     139.6219
      2.3447     547.4131      35.5113     111.0007     198.0949     547.4120      35.5092
      2.3647     516.3704     -61.0459     133.0885     198.0305     516.3682     -61.0472
      2.3848     457.9294    -131.6081     157.9296     191.3732     457.9268    -131.6083
      2.4048     390.5810    -171.7461     182.4142     175.4809     390.5788    -171.7451
      2.4248     327.5497    -187.2444     200.9613     149.8420     327.5481    -187.2428
      2.4449     274.6448    -186.5157     207.7500     118.4705     274.6436    -186.5135
      2.4649     232.8797    -176.4530     201.0638      89.1160     232.8792    -176.4506
      2.4850     201.2265    -161.6168     184.9139      68.4514     201.2267    -161.6144
      2.5050     178.1774    -144.7396     165.6836      58.5133     178.1783    -144.7371
      2.5250     162.4028    -127.4160     148.2609      57.6131     162.4044    -127.4136
      2.5451     152.9520    -110.6562     135.0325      62.9306     152.9545    -110.6539
      2.5651     149.2523     -95.2967     126.7108      72.0555     149.2558     -95.2949
      2.5852     150.9872     -82.3347     123.3170      83.3291     150.9919     -82.3338
      2.6052     157.8135     -73.2198     124.7770      95.6576     157.8191     -73.2208
      2.6253     168.8010     -70.0048     131.1936     108.2105     168.8071     -70.0083
      2.6453     181.5686     -74.9841     142.9362     120.1112     181.5736     -74.9908
      2.6653     191.6737     -89.2737     160.6036     130.1024     191.6755     -89.2833
      2.6854     193.7277    -110.6537     184.7966     136.1521     193.7245    -110.6640
      2.7054     184.7920    -133.1930     215.5131     135.0592     184.7840    -133.2009
      2.7255     166.8028    -150.5970     250.9202     122.4297     166.7924    -150.6002
      2.7455     144.7249    -159.9823     285.6621      93.9564     144.7146    -159.9810
      2.7655     122.9723    -162.0826     310.3858      48.9065     122.9640    -162.0779
      2.7856     103.8558    -159.1481     315.4814      -6.0129     103.8502    -159.1412
      2.8056      87.9954    -153.3173     298.1733     -58.1175      87.9925    -153.3095
      2.8257      75.1679    -146.0881     264.9765     -96.6728      75.1678    -146.0804
      2.8457      64.8741    -138.3659     226.0787    -118.5655      64.8763    -138.3590
      2.8657      56.6006    -130.6504     189.0778    -126.6776      56.6046    -130.6449
      2.8858      49.9098    -123.1950     157.4165    -125.6447      49.9148    -123.1914
      2.9058      44.4551    -116.1137     131.7268    -119.3659      44.4603    -116.1120
      2.9259      39.9707    -109.4441     111.3891    -110.4394      39.9755    -109.4440
      2.9459      36.2549    -103.1839      95.4402    -100.3992      36.2590    -103.1848
     2.96593     33.15532    -97.31043     82.96038    -90.08533     33.15862    -97.31197
     2.98597     30.55623    -91.79219     73.19205    -79.92289     30.55882    -91.79405
     3.00601     28.36971    -86.59433     65.54869    -70.10387     28.37171    -86.59633
     3.02605     26.52873    -81.68173     59.59060    -60.69127     26.53026    -81.68379
     3.04609     24.98220    -77.02060     54.99398    -51.67957     24.98334    -77.02263
     3.06613     23.69147    -72.57877     51.52463    -43.02745     23.69231    -72.58076
     3.08617     22.62782    -68.32607     49.01786    -34.67590     22.62840    -68.32808
     3.10621     21.77071    -64.23425     47.36390    -26.55781     21.77108    -64.23621
     3.12625     21.10666    -60.27631     46.49888    -18.60302     21.10684    -60.27827
     3.14629     20.62866    -56.42668     46.39953    -10.74169     20.62866    -56.42865
     3.16633     20.33595    -52.66088     47.08162     -2.90621     20.33577    -52.66284
     3.18637     20.23432    -48.95500     48.60207      4.96666     20.23397    -48.95699
     3.20641     20.33682    -45.28600     51.06453     12.93084     20.33627    -45.28807
     3.22645     20.66510    -41.63160     54.62921     21.02391     20.66433    -41.63371
     3.24649     21.25140    -37.97092     59.52742     29.25227     21.25035    -37.97311
     3.26653     22.14156    -34.28565     66.08079     37.56466     22.14020    -34.28792
     3.28657     23.39908    -30.56273     74.72297     45.80455     23.39730    -30.56511
     3.30661     25.11092    -26.79892     86.01534     53.62577     25.10866    -26.80132
      3.3267      27.3945     -23.0099     100.6317      60.3503      27.3916     -23.0124
      3.3467      30.4065     -19.2460     119.2502      64.7494      30.4027     -19.2484
      3.3667      34.3491     -15.6208     142.2226      64.7729      34.3442     -15.6229
      3.3868      39.4683     -12.3591     168.8316      57.4214      39.4620     -12.3605
      3.4068      46.0220      -9.8731     196.0999      39.3269      46.0142      -9.8733
      3.4269      54.1777      -8.8616     217.9753       8.8440      54.1683      -8.8594
      3.4469      63.7686     -10.3765     227.0160     -30.8452      63.7583     -10.3707
      3.4669      73.8745     -15.6770     219.3168     -71.2599      73.8651     -15.6661
      3.4870      82.4497     -25.5660     197.9321    -103.4893      82.4443     -25.5501
      3.5070      86.7244     -39.2429     170.1499    -123.5633      86.7261     -39.2245
      3.5271      84.8837     -53.8334     142.3769    -132.6618      84.8932     -53.8171
      3.5471      77.6160     -65.8916     117.9707    -134.0877      77.6304     -65.8811
      3.5671      67.4894     -73.5641      97.8639    -130.9538      67.5051     -73.5598
      3.5872      57.0293     -77.0241      81.7815    -125.4437      57.0436     -77.0248
      3.6072      47.6760     -77.4354      69.0503    -118.8886      47.6881     -77.4393
      3.6273      39.8975     -75.9945      58.9721    -112.0360      39.9071     -76.0002
      3.6473      33.6431     -73.5715      50.9518    -105.2794      33.6504     -73.5782
     3.66733     28.67580    -70.70666     44.51894    -98.80930     28.68141    -70.71374
     3.68737     24.73412    -67.70702     39.31471    -92.70528     24.73826    -67.71422
     3.70741     21.58980    -64.73576     35.06813    -86.98705     21.59276    -64.74297
     3.72745     19.06115    -61.87343     31.57522    -81.64368     19.06313    -61.88060
     3.74749     17.00870    -59.15464     28.68200    -76.64943     17.00982    -59.16178
     3.76753     15.32706    -56.58936     26.27155    -71.97247     15.32739    -56.59648
     3.78758     13.93686    -54.17470     24.25458    -67.57938     13.93642    -54.18184
     3.80762     12.77818    -51.90165     22.56244    -63.43745     12.77696    -51.90884
     3.82766     11.80557    -49.75851     21.14207    -59.51580     11.80350    -49.76578
     3.84770     10.98427    -47.73279     19.95239    -55.78574     10.98123    -47.74015
     3.86774     10.28754    -45.81220     18.96154    -52.22069     10.28336    -45.81963
     3.88778      9.69468    -43.98518     18.14499    -48.79621      9.68912    -43.99257
     3.90782      9.18956    -42.24104     17.48407    -45.48954      9.18233    -42.24814
     3.92786      8.75951    -40.56998     16.96496    -42.27944      8.75032    -40.57638
     3.94790      8.39450    -38.96312     16.57799    -39.14581      8.38317    -38.96813
     3.96794      8.08646    -37.41227     16.31721    -36.06939      8.07314    -37.41496
     3.98798      7.82883    -35.90962     16.18003    -33.03146      7.81424    -35.90907
     4.00802      7.61658    -34.44746     16.16723    -30.01350      7.60194    -34.44320
     4.02806      7.44628    -33.01819     16.28305    -26.99704      7.43291    -33.01045
     4.04810      7.31611    -31.61468     16.53550    -23.96314      7.30489    -31.60427
     4.06814      7.22538    -30.23050     16.93689    -20.89245      7.21662    -30.21835
     4.08818      7.17411    -28.85958     17.50467    -17.76458      7.16774    -28.84640
     4.10822      7.16304    -27.49599     18.26259    -14.55832      7.15882    -27.48223
     4.12826      7.19370    -26.13367     19.24234    -11.25142      7.19140    -26.11954
     4.14830      7.26861    -24.76631     20.48593     -7.82085      7.26805    -24.75190
     4.16834      7.39148    -23.38727     22.04879     -4.24341      7.39258    -23.37259
     4.18838      7.56743    -21.98957     24.00426     -0.49722      7.57021    -21.97452
     4.20842      7.80333    -20.56571     26.44965      3.43541      7.80787    -20.55022
     4.22846      8.10816    -19.10770     29.51448      7.56246      8.11469    -19.09167
     4.24850      8.49368    -17.60701     33.37141     11.87207      8.50253    -17.59035
     4.26854      8.97515    -16.05458     38.24980     16.31394      8.98681    -16.03721
     4.28858      9.57242    -14.44102     44.45056     20.76622      9.58761    -14.42293
     4.30862     10.31151    -12.75691     52.35540     24.97732     10.33116    -12.73824
     4.32866     11.22651    -10.99374     62.41338     28.46855     11.25198    -10.97480
     4.34870     12.36246     -9.14540     75.05987     30.38673     12.39553     -9.12697
     4.36874     13.77893     -7.21118     90.47898     29.32996     13.82200     -7.19476
      4.3888      15.5547      -5.2011     108.0868      23.2933      15.6108      -5.1896
      4.4088      17.7927      -3.1458     125.7455      10.1316      17.8654      -3.1445
      4.4289      20.6241      -1.1131     139.3419     -10.9641      20.7165      -1.1313
      4.4489      24.2059       0.7639     144.1448     -37.5005      24.3181       0.7105
      4.4689      28.7006       2.2461     138.0995     -63.7538      28.8236       2.1343
      4.4890      34.2174       2.9431     123.6550     -84.2029      34.3214       2.7457
      4.5090      40.6938       2.3005     105.6103     -96.7247      40.7157       2.0046
      4.5291      47.7427      -0.3083      87.9067    -102.3490      47.5937      -0.6605
      4.5491      54.5849      -5.3540      72.4986    -103.2539      54.2098      -5.6342
      4.5691      60.1611     -12.9262      59.8631    -101.3947      59.6269     -12.9667
     4.58918     63.29058    -22.60085     49.77382    -98.11515     62.79319    -22.32483
     4.60922     62.92671    -33.22608     41.78595    -94.22586     62.66460    -32.73093
     4.62926     58.83924    -42.95727     35.45380    -90.17947     58.87205    -42.44384
     4.64930     52.08504    -50.14439     30.40199    -86.21318     52.32569    -49.76756
     4.66934     44.37093    -54.25797     26.33576    -82.44174     44.69049    -54.05999
     4.68938     37.04949    -55.79180     23.03024    -78.91270     37.35794    -55.74108
     4.70942     30.76449    -55.59227     20.31577    -75.63776     31.02178    -55.63924
     4.72946     25.64162    -54.39577     18.06440    -72.61042     25.83823    -54.49998
     4.74950     21.56451    -52.70316     16.17933    -69.81533     21.70375    -52.83783
     4.76954     18.34766    -50.81506     14.58673    -67.23374     18.43591    -50.96391
     4.78958     15.81266    -48.89944     13.22989    -64.84639     15.85536    -49.05228
     4.80962     13.81212    -47.04599     12.06485    -62.63442     13.81264    -47.19518
     4.82966     12.23112    -45.30218     11.05718    -60.58065     12.19130    -45.43985
     4.84970     10.98040    -43.69519     10.17970    -58.66919     10.90228    -43.81095
     4.86974      9.98561    -42.24357      9.41079    -56.88602      9.87519    -42.32383
     4.88978      9.17585    -40.95897      8.73306    -55.21851      9.04802    -40.98993
     4.90982      8.47764    -39.83673      8.13245    -53.65557      8.35776    -39.81332
     4.92986      7.82583    -38.84347      7.59751    -52.18727      7.74039    -38.77889
     4.94990      7.18743    -37.92358      7.11876    -50.80491      7.14751    -37.84544
     4.96994      6.56900    -37.02934      6.68842    -49.50075      6.56548    -36.96181
     4.98998      5.99440    -36.14193      6.30002    -48.26787      6.01007    -36.09452
     5.01002      5.48069    -35.26545      5.94810    -47.10027      5.50214    -35.23642
     5.03006      5.03174    -34.41113      5.62809    -45.99249      5.05214    -34.39502
     5.05010      4.64274    -33.58807      5.33610    -44.93965      4.65973    -33.57997
     5.07014      4.30559    -32.80121      5.06883    -43.93742      4.31895    -32.79771
     5.09018      4.01196    -32.05207      4.82345    -42.98196      4.02220    -32.05108
     5.11022      3.75454    -31.34006      4.59753    -42.06973      3.76232    -31.34039
     5.13026      3.52724    -30.66353      4.38898    -41.19762      3.53315    -30.66449
     5.15030      3.32514    -30.02030      4.19597    -40.36276      3.32965    -30.02154
     5.17034      3.14430    -29.40804      4.01692    -39.56263      3.14778    -29.40936
     5.19038      2.98154    -28.82449      3.85045    -38.79486      2.98423    -28.82578
     5.21042      2.83427    -28.26749      3.69533    -38.05730      2.83638    -28.26871
     5.23046      2.70037    -27.73504      3.55052    -37.34808      2.70204    -27.73617
     5.25050      2.57811    -27.22530      3.41505    -36.66537      2.57944    -27.22633
     5.27054      2.46603    -26.73661      3.28810    -36.00764      2.46710    -26.73754
     5.29058      2.36292    -26.26746      3.16892    -35.37337      2.36379    -26.26831
     5.31062      2.26775    -25.81647      3.05685    -34.76116      2.26845    -25.81725
     5.33066      2.17964    -25.38241      2.95131    -34.16981      2.18022    -25.38311
     5.35070      2.09785    -24.96415      2.85177    -33.59815      2.09833    -24.96479
     5.37074      2.02173    -24.56065      2.75774    -33.04510      2.02213    -24.56123
     5.39078      1.95072    -24.17097      2.66881    -32.50970      1.95106    -24.17151
     5.41082      1.88435    -23.79427      2.58458    -31.99100      1.88462    -23.79477
     5.43086      1.82217    -23.42977      2.50471    -31.48819      1.82240    -23.43023
     5.45090      1.76383    -23.07673      2.42889    -31.00048      1.76403    -23.07716
     5.47094      1.70900    -22.73451      2.35682    -30.52710      1.70917    -22.73491
     5.49098      1.65740    -22.40249      2.28824    -30.06739      1.65754    -22.40287
     5.51102      1.60877    -22.08011      2.22292    -29.62070      1.60888    -22.08047
     5.53106      1.56290    -21.76684      2.16064    -29.18645      1.56299    -21.76719
     5.55110      1.51959    -21.46221      2.10120    -28.76407      1.51966    -21.46255
     5.57114      1.47868    -21.16575      2.04442    -28.35303      1.47873    -21.16608
     5.59118      1.44002    -20.87705      1.99013    -27.95286      1.44006    -20.87737
     5.61122      1.40349    -20.59570      1.93818    -27.56307      1.40352    -20.59601
     5.63126      1.36901    -20.32134      1.88843    -27.18325      1.36902    -20.32164
     5.65130      1.33649    -20.05360      1.84074    -26.81298      1.33648    -20.05390
     5.67134      1.30588    -19.79215      1.79499    -26.45187      1.30586    -19.79246
     5.69138      1.27718    -19.53669      1.75108    -26.09958      1.27714    -19.53699
     5.71142      1.25040    -19.28690      1.70889    -25.75573      1.25034    -19.28721
     5.73146      1.22560    -19.04252      1.66834    -25.42001      1.22552    -19.04284
     5.75150      1.20290    -18.80331      1.62934    -25.09213      1.20279    -18.80363
     5.77154      1.18249    -18.56905      1.59180    -24.77177      1.18234    -18.56938
     5.79158      1.16463    -18.33960      1.55564    -24.45868      1.16444    -18.33993
     5.81162      1.14973    -18.11494      1.52079    -24.15259      1.14948    -18.11527
     5.83166      1.13830    -17.89523      1.48719    -23.85323      1.13798    -17.89555
     5.85170      1.13098    -17.68096      1.45478    -23.56039      1.13057    -17.68126
     5.87174      1.12844    -17.47317      1.42348    -23.27384      1.12793    -17.47342
     5.89178      1.13104    -17.27374      1.39326    -22.99336      1.13043    -17.27388
     5.91182      1.13818    -17.08549      1.36406    -22.71877      1.13747    -17.08546
     5.93186      1.14701    -16.91177      1.33583    -22.44983      1.14629    -16.91149
     5.95190      1.15162    -16.75440      1.30852    -22.18639      1.15102    -16.75385
     5.97194      1.14432    -16.61053      1.28210    -21.92826      1.14399    -16.60981
     5.99198      1.12060    -16.47175      1.25652    -21.67530      1.12059    -16.47104
     6.01202      1.08295    -16.32864      1.23175    -21.42729      1.08317    -16.32807
     6.03206      1.03863    -16.17651      1.20775    -21.18412      1.03895    -16.17614
     6.05210      0.99436    -16.01614      1.18448    -20.94565      0.99468    -16.01593
     6.07214      0.95382    -15.85072      1.16192    -20.71169      0.95410    -15.85062
     6.09218      0.91809    -15.68340      1.14003    -20.48215      0.91831    -15.68337
     6.11222      0.88694    -15.51641      1.11879    -20.25688      0.88711    -15.51642
     6.13226      0.85968    -15.35108      1.09818    -20.03577      0.85981    -15.35111
     6.15230      0.83557    -15.18814      1.07816    -19.81868      0.83568    -15.18818
     6.17234      0.81399    -15.02795      1.05871    -19.60551      0.81407    -15.02798
     6.19238      0.79442    -14.87062      1.03981    -19.39615      0.79448    -14.87065
     6.21242      0.77648    -14.71618      1.02144    -19.19049      0.77653    -14.71621
     6.23246      0.75986    -14.56460      1.00357    -18.98843      0.75990    -14.56462
     6.25250      0.74435    -14.41578      0.98620    -18.78986      0.74438    -14.41581
     6.27254      0.72976    -14.26966      0.96929    -18.59470      0.72979    -14.26969
     6.29258      0.71596    -14.12614      0.95284    -18.40285      0.71598    -14.12616
     6.31262      0.70285    -13.98513      0.93682    -18.21422      0.70287    -13.98515
     6.33266      0.69034    -13.84653      0.92123    -18.02874      0.69035    -13.84655
     6.35271      0.67836    -13.71028      0.90604    -17.84631      0.67837    -13.71029
     6.37275      0.66686    -13.57628      0.89124    -17.66687      0.66687    -13.57629
     6.39279      0.65580    -13.44447      0.87682    -17.49034      0.65581    -13.44448
     6.41283      0.64513    -13.31476      0.86276    -17.31663      0.64514    -13.31478
     6.43287      0.63483    -13.18712      0.84906    -17.14569      0.63483    -13.18713
     6.45291      0.62486    -13.06145      0.83569    -16.97744      0.62487    -13.06146
     6.47295      0.61521    -12.93772      0.82266    -16.81182      0.61522    -12.93773
     6.49299      0.60585    -12.81585      0.80994    -16.64876      0.60586    -12.81586
     6.51303      0.59677    -12.69581      0.79753    -16.48820      0.59678    -12.69582
     6.53307      0.58796    -12.57753      0.78542    -16.33008      0.58796    -12.57754
     6.55311      0.57938    -12.46097      0.77360    -16.17435      0.57939    -12.46097
     6.57315      0.57105    -12.34608      0.76206    -16.02094      0.57105    -12.34609
     6.59319      0.56294    -12.23283      0.75079    -15.86979      0.56294    -12.23283
     6.61323      0.55504    -12.12116      0.73978    -15.72089      0.55504    -12.12117
     6.63327      0.54735    -12.01104      0.72903    -15.57413      0.54735    -12.01105
     6.65331      0.53985    -11.90243      0.71852    -15.42949      0.53986    -11.90244
     6.67335      0.53255    -11.79529      0.70826    -15.28694      0.53255    -11.79529
     6.69339      0.52542    -11.68958      0.69823    -15.14639      0.52542    -11.68958
     6.71343      0.51847    -11.58527      0.68843    -15.00782      0.51848    -11.58528
     6.73347      0.51170    -11.48233      0.67884    -14.87119      0.51170    -11.48233
     6.75351      0.50508    -11.38072      0.66948    -14.73644      0.50508    -11.38072
     6.77355      0.49862    -11.28041      0.66032    -14.60354      0.49862    -11.28041
     6.79359      0.49232    -11.18138      0.65136    -14.47245      0.49232    -11.18138
     6.81363      0.48616    -11.08358      0.64260    -14.34312      0.48617    -11.08358
     6.83367      0.48016    -10.98699      0.63404    -14.21552      0.48016    -10.98699
     6.85371      0.47429    -10.89159      0.62566    -14.08961      0.47429    -10.89159
     6.87375      0.46856    -10.79735      0.61747    -13.96536      0.46856    -10.79735
     6.89379      0.46296    -10.70423      0.60946    -13.84271      0.46296    -10.70423
     6.91383      0.45749    -10.61222      0.60162    -13.72165      0.45749    -10.61222
     6.93387      0.45215    -10.52129      0.59395    -13.60214      0.45215    -10.52129
     6.95391      0.44694    -10.43141      0.58645    -13.48415      0.44694    -10.43141
     6.97395      0.44185    -10.34255      0.57912    -13.36763      0.44185    -10.34255
     6.99399      0.43688    -10.25470      0.57194    -13.25256      0.43688    -10.25471
     7.01403      0.43202    -10.16783      0.56492    -13.13891      0.43202    -10.16784
     7.03407      0.42729    -10.08193      0.55806    -13.02664      0.42729    -10.08193
     7.05411      0.42266     -9.99695      0.55134    -12.91573      0.42266     -9.99695
     7.07415      0.41815     -9.91289      0.54478    -12.80615      0.41815     -9.91289
     7.09419      0.41375     -9.82972      0.53836    -12.69786      0.41375     -9.82972
     7.11423      0.40946     -9.74742      0.53209    -12.59084      0.40946     -9.74742
     7.13427      0.40528     -9.66596      0.52596    -12.48506      0.40528     -9.66596
     7.15431      0.40120     -9.58533      0.51997    -12.38050      0.40120     -9.58533
     7.17435      0.39724     -9.50551      0.51411    -12.27712      0.39724     -9.50551
     7.19439      0.39337     -9.42647      0.50840    -12.17489      0.39337     -9.42647
     7.21443      0.38962     -9.34819      0.50282    -12.07380      0.38962     -9.34819
     7.23447      0.38597     -9.27065      0.49738    -11.97380      0.38597     -9.27066
     7.25451      0.38243     -9.19384      0.49207    -11.87488      0.38243     -9.19384
     7.27455      0.37899     -9.11773      0.48689    -11.77702      0.37899     -9.11773
     7.29459      0.37566     -9.04229      0.48185    -11.68018      0.37566     -9.04229
     7.31463      0.37244     -8.96751      0.47694    -11.58433      0.37244     -8.96751
     7.33467      0.36933     -8.89337      0.47217    -11.48946      0.36933     -8.89338
     7.35471      0.36633     -8.81985      0.46753    -11.39553      0.36633     -8.81985
     7.37475      0.36344     -8.74692      0.46304    -11.30251      0.36344     -8.74692
     7.39479      0.36067     -8.67456      0.45867    -11.21040      0.36067     -8.67456
     7.41483      0.35802     -8.60275      0.45445    -11.11914      0.35802     -8.60275
     7.43487      0.35548     -8.53146      0.45038    -11.02872      0.35548     -8.53146
     7.45491      0.35307     -8.46068      0.44645    -10.93911      0.35307     -8.46068
     7.47495      0.35079     -8.39037      0.44267    -10.85028      0.35079     -8.39037
     7.49499      0.34865     -8.32052      0.43904    -10.76220      0.34864     -8.32052
     7.51503      0.34664     -8.25109      0.43558    -10.67484      0.34664     -8.25109
     7.53507      0.34477     -8.18206      0.43228    -10.58817      0.34477     -8.18207
     7.55511      0.34306     -8.11341      0.42916    -10.50216      0.34306     -8.11341
     7.57515      0.34151     -8.04509      0.42622    -10.41678      0.34151     -8.04510
     7.59519      0.34013     -7.97709      0.42348    -10.33197      0.34012     -7.97709
     7.61523      0.33892     -7.90936      0.42094    -10.24773      0.33892     -7.90937
     7.63527      0.33791     -7.84188      0.41862    -10.16399      0.33791     -7.84188
     7.65531      0.33711     -7.77461      0.41653    -10.08073      0.33710     -7.77461
    7.675351     0.336520    -7.707503     0.414699    -9.997883     0.336519    -7.707507
    7.695390     0.336173    -7.640526     0.413143    -9.915435     0.336173    -7.640529
    7.715430     0.336086    -7.573628     0.411889    -9.833313     0.336085    -7.573631
    7.735471     0.336280    -7.506763     0.410964    -9.751459     0.336279    -7.506766
    7.755510     0.336783    -7.439881     0.410406    -9.669830     0.336781    -7.439884
    7.775551     0.337625    -7.372917     0.410253    -9.588345     0.337624    -7.372922
    7.795590     0.338844    -7.305818     0.410556    -9.506943     0.338842    -7.305824
    7.815631     0.340478    -7.238510     0.411372    -9.425540     0.340476    -7.238514
    7.835670     0.342579    -7.170923     0.412771    -9.344057     0.342576    -7.170927
    7.855711     0.345201    -7.102969     0.414835    -9.262384     0.345198    -7.102975
    7.875751     0.348410    -7.034560     0.417664    -9.180429     0.348408    -7.034568
    7.895792     0.352287    -6.965594     0.421381    -9.098065     0.352284    -6.965600
    7.915831     0.356923    -6.895959     0.426133    -9.015163     0.356919    -6.895966
    7.935872     0.362429    -6.825524     0.432105    -8.931561     0.362425    -6.825531
    7.955911     0.368938    -6.754151     0.439522    -8.847114     0.368933    -6.754158
    7.975952     0.376610    -6.681678     0.448670    -8.761605     0.376604    -6.681685
    7.995991     0.385639    -6.607929     0.459904    -8.674852     0.385632    -6.607938
    8.016032     0.396263    -6.532698     0.473679    -8.586612     0.396254    -6.532708
    8.036072     0.408771    -6.455764     0.490577    -8.496653     0.408762    -6.455774
    8.056112     0.423528    -6.376861     0.511351    -8.404723     0.423517    -6.376874
    8.076152     0.440984    -6.295710     0.536981    -8.310594     0.440969    -6.295723
    8.096192     0.461708    -6.211987     0.568759    -8.214078     0.461691    -6.212005
    8.116232     0.486422    -6.125352     0.608391    -8.115136     0.486401    -6.125370
    8.136271     0.516054    -6.035425     0.658145    -8.013987     0.516028    -6.035444
    8.156312     0.551804    -5.941824     0.721024    -7.911366     0.551771    -5.941847
    8.176352     0.595233    -5.844204     0.800941    -7.808971     0.595193    -5.844229
    8.196392     0.648404    -5.742294     0.902843    -7.710254     0.648352    -5.742321
    8.216433     0.714032    -5.636055     1.032443    -7.621715     0.713967    -5.636081
    8.236473     0.795740    -5.525865     1.195083    -7.554801     0.795655    -5.525889
    8.256513     0.898302    -5.412967     1.392364    -7.528107     0.898192    -5.412989
    8.276553     1.027957    -5.300164     1.615205    -7.567592     1.027815    -5.300175
    8.296593     1.192521    -5.193112     1.833788    -7.699561     1.192337    -5.193096
    8.316633     1.400996    -5.102376     1.993931    -7.930490     1.400758    -5.102315
    8.336673     1.661496    -5.046548     2.037670    -8.223283     1.661208    -5.046402
    8.356713     1.975833    -5.055523     1.945520    -8.503407     1.975512    -5.055241
    8.376753     2.328016    -5.170460     1.754003    -8.704960     2.327724    -5.169979
    8.396793     2.668752    -5.431509     1.524028    -8.806827     2.668615    -5.430805
    8.416833     2.911335    -5.844979     1.302491    -8.824993     2.911515    -5.844127
    8.436873     2.967307    -6.347642     1.111284    -8.787186     2.967891    -6.346851
    8.456913     2.812515    -6.821216     0.954947    -8.717197     2.813416    -6.820709
    8.476954     2.508957    -7.166724     0.830056    -8.631078     2.509972    -7.166597
    8.496993     2.151844    -7.356332     0.730929    -8.538394     2.152793    -7.356544
    8.517034     1.811652    -7.417576     0.652027    -8.444446     1.812446    -7.418024
    8.537074     1.520195    -7.393832     0.588753    -8.352005     1.520808    -7.394426
    8.557114     1.283259    -7.321453     0.537504    -8.262383     1.283702    -7.322124
    8.577154     1.095098    -7.224639     0.495540    -8.176110     1.095389    -7.225351
    8.597194     0.946847    -7.117756     0.460801    -8.093302     0.947007    -7.118490
    8.617234     0.830035    -7.008718     0.431724    -8.013855     0.830071    -7.009463
    8.637274     0.737723    -6.901641     0.407134    -7.937581     0.737639    -6.902394
    8.657314     0.664556    -6.798498     0.386128    -7.864231     0.664347    -6.799252
    8.677354     0.606568    -6.700136     0.368018    -7.793573     0.606222    -6.700885
    8.697394     0.560880    -6.606842     0.352263    -7.725359     0.560373    -6.607573
    8.717434     0.525463    -6.518752     0.338446    -7.659386     0.524767    -6.519433
    8.737474     0.498898    -6.436074     0.326234    -7.595452     0.497979    -6.436655
    8.757514     0.480113    -6.359371     0.315362    -7.533385     0.478950    -6.359753
    8.777555     0.467972    -6.289683     0.305616    -7.473021     0.466590    -6.289732
    8.797595     0.460637    -6.228498     0.296827    -7.414230     0.459160    -6.228045
    8.817636     0.454872    -6.176968     0.288851    -7.356879     0.453568    -6.175923
    8.837675     0.446194    -6.134346     0.281575    -7.300876     0.445405    -6.132825
    8.857716     0.430905    -6.096792     0.274902    -7.246101     0.430827    -6.095156
    8.877755     0.408741    -6.058885     0.268754    -7.192482     0.409263    -6.057527
    8.897796     0.382793    -6.016934     0.263063    -7.139945     0.383620    -6.016030
    8.917835     0.356800    -5.970387     0.257773    -7.088416     0.357670    -5.969903
    8.937876     0.333120    -5.920599     0.252836    -7.037828     0.333896    -5.920414
    8.957915     0.312584    -5.869257     0.248213    -6.988133     0.313223    -5.869251
    8.977956     0.295125    -5.817637     0.243868    -6.939285     0.295633    -5.817730
    8.997995     0.280333    -5.766529     0.239772    -6.891228     0.280730    -5.766670
    9.018035     0.267732    -5.716354     0.235898    -6.843932     0.268043    -5.716515
    9.038075     0.256900    -5.667302     0.232225    -6.797353     0.257144    -5.667467
    9.058115     0.247494    -5.619437     0.228734    -6.751462     0.247686    -5.619598
    9.078156     0.239240    -5.572748     0.225406    -6.706225     0.239393    -5.572902
    9.098196     0.231930    -5.527194     0.222228    -6.661615     0.232052    -5.527339
    9.118237     0.225400    -5.482712     0.219186    -6.617608     0.225498    -5.482849
    9.138276     0.219522    -5.439240     0.216268    -6.574181     0.219602    -5.439370
    9.158317     0.214197    -5.396712     0.213465    -6.531310     0.214262    -5.396834
    9.178356     0.209347    -5.355068     0.210767    -6.488975     0.209399    -5.355182
    9.198397     0.204907    -5.314246     0.208167    -6.447155     0.204950    -5.314353
    9.218436     0.200829    -5.274193     0.205656    -6.405839     0.200864    -5.274296
    9.238477     0.197071    -5.234855     0.203228    -6.365005     0.197099    -5.234955
    9.258516     0.193602    -5.196191     0.200879    -6.324640     0.193624    -5.196287
    9.278557     0.190395    -5.158153     0.198601    -6.284728     0.190411    -5.158247
    9.298596     0.187429    -5.120703     0.196391    -6.245263     0.187441    -5.120794
    9.318637     0.184690    -5.083800     0.194243    -6.206223     0.184697    -5.083890
    9.338676     0.182167    -5.047411     0.192156    -6.167602     0.182170    -5.047499
    9.358717     0.179853    -5.011497     0.190123    -6.129393     0.179851    -5.011586
    9.378757     0.177745    -4.976031     0.188144    -6.091573     0.177739    -4.976120
    9.398798     0.175847    -4.940976     0.186214    -6.054147     0.175836    -4.941067
    9.418838     0.174164    -4.906303     0.184331    -6.017093     0.174148    -4.906394
    9.438877     0.172712    -4.871981     0.182492    -5.980411     0.172690    -4.872075
    9.458918     0.171511    -4.837977     0.180695    -5.944090     0.171482    -4.838074
    9.478957     0.170591    -4.804265     0.178938    -5.908116     0.170555    -4.804366
    9.498998     0.169996    -4.770813     0.177219    -5.872494     0.169950    -4.770918
    9.519037     0.169784    -4.737604     0.175536    -5.837208     0.169726    -4.737713
    9.539078     0.170035    -4.704611     0.173887    -5.802252     0.169962    -4.704725
    9.559117     0.170859    -4.671836     0.172272    -5.767623     0.170766    -4.671954
    9.579158     0.172400    -4.639297     0.170688    -5.733308     0.172283    -4.639417
    9.599197     0.174853    -4.607057     0.169135    -5.699307     0.174704    -4.607178
    9.619238     0.178466    -4.575265     0.167610    -5.665617     0.178276    -4.575378
    9.639277     0.183533    -4.544212     0.166113    -5.632220     0.183293    -4.544308
    9.659318     0.190355    -4.514428     0.164643    -5.599123     0.190055    -4.514481
    9.679358     0.199086    -4.486797     0.163199    -5.566316     0.198725    -4.486777
    9.699399     0.209422    -4.462625     0.161780    -5.533794     0.209021    -4.462482
    9.719439     0.220076    -4.443373     0.160384    -5.501556     0.219694    -4.443066
    9.739479     0.228420    -4.429767     0.159012    -5.469587     0.228155    -4.429297
    9.759519     0.231211    -4.420437     0.157661    -5.437895     0.231154    -4.419885
    9.779559     0.226725    -4.411698     0.156333    -5.406467     0.226888    -4.411194
    9.799599     0.216270    -4.399653     0.155025    -5.375304     0.216576    -4.399291
    9.819639     0.203016    -4.382547     0.153738    -5.344398     0.203366    -4.382347
    9.839679     0.189766    -4.360881     0.152470    -5.313749     0.190092    -4.360802
    9.859718     0.177991    -4.336085     0.151221    -5.283352     0.178267    -4.336087
    9.879759     0.168104    -4.309515     0.149990    -5.253203     0.168326    -4.309565
    9.899798     0.159988    -4.282124     0.148778    -5.223292     0.160163    -4.282197
    9.919839     0.153349    -4.254490     0.147583    -5.193625     0.153486    -4.254574
    9.939879     0.147882    -4.226943     0.146404    -5.164196     0.147990    -4.227028
    9.959920     0.143328    -4.199647     0.145243    -5.135001     0.143413    -4.199729
    9.979959     0.139480    -4.172682     0.144097    -5.106034     0.139547    -4.172763
    10.00000      0.13618     -4.14609      0.14297     -5.07730      0.13623     -4.14616
# 
# 01/04/2018 at 13:46 YAMBO_RT @ narro [start]
# 01/04/2018 at 13:46                  [end]
#  
# Timing   [Min/Max/Average]: 02s/02s/02s
#
# .-Input file : yambo.in
# | optics                         # [R OPT] Optics
# | bse                            # [R BSE] Bethe Salpeter Equation.
# | bsk                            # [R BSK] Bethe Salpeter Equation kernel
# | bss                            # [R BSS] Bethe Salpeter Equation solver
# | em1s                           # [R Xs] Static Inverse Dielectric Matrix
# | BoseTemp= 0.000000     eV      # Bosonic Temperature
# | FFTGvecs=  387         RL      # [FFT] Plane-waves
# | Chimod= "hartree"              # [X] IP/Hartree/ALDA/LRC/BSfxc
# | BSEmod= "retarded"             # [BSE] resonant/retarded/coupling
# | BSKmod= "SEX"                  # [BSE] IP/Hartree/HF/ALDA/SEX/BSfxc
# | BSSmod= "h"                    # [BSS] (h)aydock/(d)iagonalization/(i)nversion/(t)ddft`
# | BSENGexx=  531         RL      # [BSK] Exchange components
# | BSENGBlk=  59          RL      # [BSK] Screened interaction block size
# | #WehCpl                        # [BSK] eh interaction included also in coupling
# | KfnQPdb= "E < 08_ypp_gw_10fs_Gonly_part2/ndb.QP_merged_1_gw_ppa_gw_ppa" # [EXTQP BSK BSS] Database
# | KfnRTdb= "f @ 0.1 ps < 04_elel+elph_0K/ndb.RT_carriers" # [EXTRT BSK BSS] Database
# | % BEnRange
# |   0.00000 | 10.00000 | eV      # [BSS] Energy range
# | %
# | % BDmRange
# |   0.10000 |  0.10000 | eV      # [BSS] Damping range
# | %
# | BEnSteps=  500                 # [BSS] Energy steps
# | % BLongDir
# | 0.1000E-4 | 0.000    | 0.000    |        # [BSS] [cc] Electric Field
# | %
# | % BSEBands
# |   2 |  7 |                     # [BSK] Bands range
# | %
# | BSHayTrs=  0.02000             # [BSS] Relative [o/o] Haydock treshold. Strict(>0)/Average(<0)
# | % BndsRnXs
# |   1 |  8 |                     # [Xs] Polarization function bands
# | %
# | NGsBlkXs=  59          RL      # [Xs] Response block size
# | GrFnTpXs= "R"                  # [Xs] Green`s function (T)ordered,(R)etarded,(r)senant,(a)ntiresonant [T, R, r, Ta, Ra]
# | % DmRngeXs
# |   0.10000 |  0.10000 | eV      # [Xs] Damping range
# | %
# | % LongDrXs
# | 0.1000E-4 | 0.000    | 0.000    |        # [Xs] [cc] Electric Field
# | %
