#  __      __   ______   __       __  _______    ______     
# |  \    /  \ /      \ |  \     /  \|       \  /      \    
#  \$$\  /  $$|  $$$$$$\| $$\   /  $$| $$$$$$$\|  $$$$$$\   
#   \$$\/  $$ | $$__| $$| $$$\ /  $$$| $$__/ $$| $$  | $$   
#    \$$  $$  | $$    $$| $$$$\  $$$$| $$    $$| $$  | $$   
#     \$$$$   | $$$$$$$$| $$\$$ $$ $$| $$$$$$$\| $$  | $$   
#     | $$    | $$  | $$| $$ \$$$| $$| $$__/ $$| $$__/ $$   
#     | $$    | $$  | $$| $$  \$ | $$| $$    $$ \$$    $$   
#      \$$     \$$   \$$ \$$      \$$ \$$$$$$$   \$$$$$$    
#                                                           
#        Version 4.3.0 Revision 15201 Hash 76636f9          
#                      MPI+SLK Build                        
#                http://www.yambo-code.org                  
#
# Absorption @ Q(1) [q->0 direction] :0.1000E-4  0.000     0.000   
#
#
# - Energies      are  E < 08_gw_eq/ndb.QP + E Fit
# - Wavefunctions are Slater exchange(X)+Perdew & Zunger(C)
#
# - The Green`s function is Retarded -
# - Using the Length Gauge -
# - [r,Vnl] *is* included -
#
#   BSK|Identifier              :8720
#      |Dimension               :72
#      |Bands                   :2 - 7
#      |Exchange           [res]: yes
#      |Correlation        [res]: yes
#      |Kernel`s coupling       : no
#      |Exchange           [cpl]: no
#      |Correlation        [cpl]: no
#      |W interaction is bare   : no
#      |ALDA kernel in R-space  : no
#      |RL vectors    [exchange]:531
#      |RL vectors [correlation]:59
#      |E/h energy range    [ev]:-1.000000 - -1.000000
#      |Coupling range     [o/o]: 100.0000 -  100.0000
#    W |Interaction is diagonal : no
#      |Matrix size             :59
#      |Bands                   :1 - 8
#      |e/h energy range    [ev]:-1.000000 - -1.000000
#      |Poles              [o/o]: 100.0000
#      |RL vectors in the sum   :387
#      |[r,Vnl] included        : yes
#      |Field direction         :0.1000E-4  0.000000  0.000000
#      |Coulomb Cutoff          :none
#      |xc-Kernel               :none
#   RIM|RL components      [col]:0
#      |Random points      [col]:0
#  
#   Haydock|Accuracy (requested) [o/o]:  0.02000
#          |Accuracy (reached)   [o/o]:  0.01386
#          |Iteration                 :14
#
#    E/ev[1]      EPS-Im[2]    EPS-Re[3]    EPSo-Im[4]   EPSo-Re[5]   EPS`-Im[6]   EPS`-Re[7]
#
     0.00000      0.00000     45.37346      0.00000     38.36646      0.00000     45.37346
   0.2004E-1    0.1308E-1     45.37       0.7893E-2     38.37       0.1308E-1     45.37   
   0.4008E-1    0.2617E-1     45.38       0.1579E-1     38.37       0.2617E-1     45.38   
   0.6012E-1    0.3927E-1     45.39       0.2369E-1     38.37       0.3927E-1     45.39   
   0.8016E-1    0.5239E-1     45.39       0.3159E-1     38.38       0.5239E-1     45.39   
   0.1002       0.6552E-1     45.41       0.3951E-1     38.39       0.6552E-1     45.41   
     0.12024      0.07868     45.42057      0.04743     38.39489      0.07868     45.42057
     0.14028      0.09186     45.43760      0.05537     38.40517      0.09186     45.43760
     0.16032      0.10508     45.45728      0.06332     38.41703      0.10508     45.45728
     0.18036      0.11834     45.47960      0.07129     38.43049      0.11834     45.47960
     0.20040      0.13164     45.50456      0.07928     38.44553      0.13164     45.50456
     0.22044      0.14499     45.53220      0.08729     38.46217      0.14499     45.53220
     0.24048      0.15839     45.56250      0.09532     38.48044      0.15839     45.56250
     0.26052      0.17185     45.59549      0.10339     38.50029      0.17185     45.59549
     0.28056      0.18538     45.63118      0.11147     38.52178      0.18538     45.63118
     0.30060      0.19898     45.66956      0.11959     38.54488      0.19898     45.66956
     0.32064      0.21265     45.71067      0.12774     38.56960      0.21265     45.71067
     0.34068      0.22640     45.75453      0.13593     38.59596      0.22640     45.75453
     0.36072      0.24023     45.80114      0.14415     38.62396      0.24023     45.80114
     0.38076      0.25416     45.85052      0.15242     38.65361      0.25416     45.85052
     0.40080      0.26818     45.90269      0.16072     38.68493      0.26818     45.90269
     0.42084      0.28230     45.95767      0.16907     38.71789      0.28230     45.95767
     0.44088      0.29653     46.01548      0.17747     38.75253      0.29653     46.01548
     0.46092      0.31087     46.07615      0.18592     38.78886      0.31087     46.07615
     0.48096      0.32534     46.13969      0.19442     38.82686      0.32534     46.13969
     0.50100      0.33993     46.20614      0.20297     38.86661      0.33993     46.20614
     0.52104      0.35465     46.27551      0.21158     38.90802      0.35465     46.27551
     0.54108      0.36951     46.34783      0.22025     38.95119      0.36951     46.34783
     0.56112      0.38451     46.42314      0.22898     38.99611      0.38451     46.42314
     0.58116      0.39967     46.50145      0.23778     39.04275      0.39967     46.50145
     0.60120      0.41498     46.58281      0.24665     39.09120      0.41498     46.58281
     0.62124      0.43046     46.66724      0.25559     39.14139      0.43046     46.66724
     0.64128      0.44611     46.75477      0.26460     39.19338      0.44611     46.75477
     0.66132      0.46194     46.84545      0.27369     39.24720      0.46194     46.84545
     0.68136      0.47796     46.93931      0.28285     39.30283      0.47796     46.93931
     0.70140      0.49418     47.03638      0.29210     39.36029      0.49418     47.03638
     0.72144      0.51059     47.13671      0.30144     39.41964      0.51059     47.13671
     0.74148      0.52722     47.24034      0.31087     39.48083      0.52722     47.24034
     0.76152      0.54407     47.34731      0.32038     39.54392      0.54407     47.34731
     0.78156      0.56114     47.45766      0.33000     39.60891      0.56114     47.45766
     0.80160      0.57846     47.57144      0.33971     39.67586      0.57846     47.57144
     0.82164      0.59601     47.68870      0.34953     39.74475      0.59601     47.68870
     0.84168      0.61383     47.80949      0.35945     39.81562      0.61383     47.80949
     0.86172      0.63191     47.93385      0.36948     39.88845      0.63191     47.93385
     0.88176      0.65026     48.06186      0.37963     39.96331      0.65026     48.06186
     0.90180      0.66890     48.19355      0.38989     40.04023      0.66890     48.19355
     0.92184      0.68784     48.32899      0.40028     40.11920      0.68784     48.32899
     0.94188      0.70708     48.46823      0.41079     40.20025      0.70708     48.46823
     0.96192      0.72665     48.61134      0.42143     40.28343      0.72665     48.61134
     0.98196      0.74654     48.75839      0.43221     40.36871      0.74654     48.75839
     1.00200      0.76678     48.90944      0.44312     40.45620      0.76678     48.90944
     1.02204      0.78737     49.06455      0.45418     40.54583      0.78737     49.06455
     1.04208      0.80833     49.22382      0.46539     40.63774      0.80833     49.22382
     1.06212      0.82968     49.38728      0.47675     40.73189      0.82968     49.38728
     1.08216      0.85142     49.55505      0.48826     40.82831      0.85142     49.55505
     1.10220      0.87357     49.72719      0.49994     40.92705      0.87357     49.72719
     1.12224      0.89615     49.90379      0.51179     41.02812      0.89615     49.90379
     1.14228      0.91918     50.08493      0.52381     41.13160      0.91918     50.08493
     1.16232      0.94266     50.27069      0.53601     41.23750      0.94266     50.27069
     1.18236      0.96661     50.46119      0.54840     41.34584      0.96661     50.46119
     1.20240      0.99107     50.65651      0.56098     41.45666      0.99107     50.65651
     1.22244      1.01603     50.85674      0.57375     41.57003      1.01603     50.85674
     1.24248      1.04152     51.06200      0.58673     41.68596      1.04152     51.06200
     1.26252      1.06757     51.27238      0.59992     41.80451      1.06757     51.27238
     1.28257      1.09419     51.48801      0.61332     41.92570      1.09419     51.48801
     1.30261      1.12140     51.70899      0.62695     42.04960      1.12140     51.70899
     1.32265      1.14923     51.93545      0.64081     42.17624      1.14923     51.93545
     1.34269      1.17770     52.16751      0.65491     42.30566      1.17770     52.16751
     1.36273      1.20683     52.40530      0.66926     42.43789      1.20683     52.40530
     1.38277      1.23665     52.64895      0.68386     42.57307      1.23665     52.64895
     1.40281      1.26720     52.89861      0.69872     42.71114      1.26720     52.89861
     1.42285      1.29848     53.15440      0.71386     42.85222      1.29848     53.15440
     1.44289      1.33055     53.41650      0.72927     42.99635      1.33055     53.41650
     1.46293      1.36342     53.68505      0.74498     43.14357      1.36342     53.68505
     1.48297      1.39712     53.96022      0.76098     43.29397      1.39712     53.96022
     1.50301      1.43170     54.24217      0.77729     43.44757      1.43170     54.24217
     1.52305      1.46719     54.53108      0.79393     43.60445      1.46719     54.53108
     1.54309      1.50362     54.82713      0.81089     43.76469      1.50362     54.82713
     1.56313      1.54103     55.13052      0.82820     43.92835      1.54103     55.13052
     1.58317      1.57947     55.44143      0.84586     44.09549      1.57947     55.44143
     1.60321      1.61898     55.76008      0.86388     44.26616      1.61898     55.76008
     1.62325      1.65959     56.08668      0.88229     44.44052      1.65959     56.08668
     1.64329      1.70137     56.42145      0.90108     44.61854      1.70137     56.42145
     1.66333      1.74435     56.76464      0.92028     44.80031      1.74435     56.76464
     1.68337      1.78860     57.11647      0.93990     44.98598      1.78860     57.11647
     1.70341      1.83416     57.47720      0.95995     45.17562      1.83416     57.47720
     1.72345      1.88110     57.84711      0.98045     45.36928      1.88110     57.84711
     1.74349      1.92948     58.22645      1.00142     45.56705      1.92948     58.22645
     1.76353      1.97935     58.61553      1.02287     45.76908      1.97935     58.61553
     1.78357      2.03079     59.01464      1.04482     45.97540      2.03079     59.01464
     1.80361      2.08387     59.42410      1.06729     46.18614      2.08387     59.42410
     1.82365      2.13867     59.84424      1.09029     46.40141      2.13867     59.84424
     1.84369      2.19527     60.27540      1.11385     46.62131      2.19527     60.27540
     1.86373      2.25375     60.71794      1.13799     46.84595      2.25375     60.71794
     1.88377      2.31420     61.17225      1.16273     47.07544      2.31420     61.17225
     1.90381      2.37672     61.63870      1.18810     47.30996      2.37672     61.63870
     1.92385      2.44141     62.11773      1.21411     47.54952      2.44141     62.11773
     1.94389      2.50837     62.60976      1.24079     47.79435      2.50837     62.60976
     1.96393      2.57773     63.11526      1.26817     48.04455      2.57773     63.11526
     1.98397      2.64959     63.63469      1.29628     48.30029      2.64959     63.63469
     2.00401      2.72410     64.16856      1.32514     48.56162      2.72410     64.16856
     2.02405      2.80139     64.71740      1.35479     48.82884      2.80139     64.71740
     2.04409      2.88160     65.28177      1.38525     49.10198      2.88160     65.28177
     2.06413      2.96489     65.86224      1.41657     49.38123      2.96489     65.86224
     2.08417      3.05143     66.45945      1.44877     49.66681      3.05143     66.45945
     2.10421      3.14139     67.07403      1.48189     49.95891      3.14139     67.07403
     2.12425      3.23496     67.70667      1.51598     50.25762      3.23496     67.70667
     2.14429      3.33236     68.35808      1.55108     50.56321      3.33236     68.35808
     2.16433      3.43378     69.02903      1.58722     50.87586      3.43378     69.02903
     2.18437      3.53948     69.72034      1.62445     51.19580      3.53948     69.72034
     2.20441      3.64969     70.43282      1.66283     51.52322      3.64969     70.43282
     2.22445      3.76469     71.16741      1.70239     51.85836      3.76469     71.16741
     2.24449      3.88477     71.92505      1.74321     52.20145      3.88477     71.92505
     2.26453      4.01023     72.70672      1.78533     52.55278      4.01023     72.70672
     2.28457      4.14141     73.51353      1.82882     52.91254      4.14141     73.51353
     2.30461      4.27868     74.34661      1.87373     53.28108      4.27868     74.34661
     2.32465      4.42241     75.20715      1.92014     53.65863      4.42241     75.20715
     2.34469      4.57305     76.09644      1.96812     54.04552      4.57305     76.09644
     2.36473      4.73103     77.01584      2.01775     54.44207      4.73103     77.01584
     2.38477      4.89687     77.96681      2.06911     54.84858      4.89687     77.96681
     2.40481      5.07108     78.95090      2.12227     55.26543      5.07108     78.95090
     2.42485      5.25427     79.96976      2.17735     55.69294      5.25427     79.96976
     2.44489      5.44706     81.02517      2.23443     56.13152      5.44706     81.02517
     2.46493      5.65015     82.11900      2.29362     56.58160      5.65015     82.11900
     2.48497      5.86430     83.25329      2.35503     57.04353      5.86430     83.25329
     2.50501      6.09033     84.43021      2.41878     57.51781      6.09033     84.43021
     2.52505      6.32915     85.65208      2.48500     58.00487      6.32915     85.65208
     2.54509      6.58176     86.92142      2.55383     58.50525      6.58176     86.92142
     2.56513      6.84925     88.24090      2.62540     59.01940      6.84925     88.24090
     2.58517      7.13281     89.61343      2.69989     59.54798      7.13281     89.61343
     2.60521      7.43379     91.04214      2.77746     60.09144      7.43379     91.04214
     2.62525      7.75364     92.53042      2.85828     60.65045      7.75364     92.53042
     2.64529      8.09399     94.08191      2.94256     61.22568      8.09399     94.08191
     2.66533      8.45665     95.70057      3.03051     61.81779      8.45665     95.70057
     2.68537      8.84361     97.39069      3.12235     62.42752      8.84361     97.39069
     2.70541      9.25712     99.15696      3.21833     63.05560      9.25712     99.15696
      2.7255       9.6997     101.0045       3.3187      63.7029       9.6997     101.0045
      2.7455      10.1741     102.9387       3.4238      64.3703      10.1741     102.9387
      2.7655      10.6834     104.9658       3.5339      65.0587      10.6834     104.9658
      2.7856      11.2313     107.0923       3.6493      65.7691      11.2313     107.0923
      2.8056      11.8217     109.3255       3.7705      66.5025      11.8217     109.3255
      2.8257      12.4592     111.6733       3.8977      67.2601      12.4592     111.6733
      2.8457      13.1488     114.1446       4.0316      68.0431      13.1488     114.1446
      2.8657      13.8964     116.7489       4.1725      68.8528      13.8964     116.7489
      2.8858      14.7088     119.4970       4.3209      69.6904      14.7088     119.4970
      2.9058      15.5935     122.4008       4.4775      70.5576      15.5935     122.4008
      2.9259      16.5596     125.4732       4.6429      71.4559      16.5596     125.4732
      2.9459      17.6172     128.7290       4.8179      72.3871      17.6172     128.7290
      2.9659      18.7781     132.1844       5.0031      73.3529      18.7781     132.1844
      2.9860      20.0564     135.8576       5.1994      74.3554      20.0564     135.8576
      3.0060      21.4682     139.7689       5.4078      75.3967      21.4682     139.7689
      3.0261      23.0327     143.9412       5.6295      76.4792      23.0327     143.9412
      3.0461      24.7725     148.4002       5.8655      77.6053      24.7725     148.4002
      3.0661      26.7147     153.1749       6.1172      78.7779      26.7147     153.1749
      3.0862      28.8915     158.2979       6.3861      79.9999      28.8914     158.2979
      3.1062      31.3417     163.8061       6.6738      81.2745      31.3417     163.8061
      3.1263      34.1126     169.7417       6.9824      82.6054      34.1126     169.7417
      3.1463      37.2618     176.1517       7.3139      83.9964      37.2617     176.1517
      3.1663      40.8598     183.0899       7.6709      85.4519      40.8598     183.0899
      3.1864      44.9944     190.6168       8.0560      86.9764      44.9944     190.6168
      3.2064      49.7749     198.8002       8.4725      88.5753      49.7749     198.8002
      3.2265      55.3393     207.7160       8.9242      90.2541      55.3393     207.7160
      3.2465      61.8625     217.4469       9.4152      92.0193      61.8625     217.4469
      3.2665      69.5690     228.0818       9.9505      93.8779      69.5690     228.0818
      3.2866      78.7489     239.7111      10.5360      95.8377      78.7489     239.7111
      3.3066      89.7811     252.4190      11.1783      97.9073      89.7811     252.4190
      3.3267     103.1634     266.2674      11.8855     100.0967     103.1633     266.2674
      3.3467     119.5549     281.2668      12.6670     102.4165     119.5549     281.2669
      3.3667     139.8305     297.3210      13.5341     104.8790     139.8304     297.3211
      3.3868     165.1470     314.1288      14.5005     107.4980     165.1469     314.1288
      3.4068     197.0127     331.0074      15.5824     110.2888     197.0125     331.0075
      3.4269     237.3195     346.5861      16.7999     113.2687     237.3193     346.5863
      3.4469     288.2389     358.2993      18.1775     116.4574     288.2386     358.2996
      3.4669     351.7324     361.6426      19.7455     119.8764     351.7320     361.6432
      3.4870     428.2123     349.3734      21.5420     123.5501     428.2122     349.3745
      3.5070     513.7822     311.5383      23.6145     127.5052     513.7822     311.5401
      3.5271     596.4667     238.4638      26.0239     131.7706     596.4678     238.4659
      3.5471     655.2855     128.7108      28.8480     136.3764     655.2878     128.7130
      3.5671     668.9223      -2.3226      32.1876     141.3526     668.9263      -2.3217
      3.5872     631.6889    -126.0428      36.1747     146.7249     631.6937    -126.0437
      3.6072     558.6698    -218.6295      40.9825     152.5079     558.6743    -218.6328
      3.6273     472.8504    -273.4849      46.8404     158.6928     472.8535    -273.4900
      3.6473     391.1952    -297.3110      54.0508     165.2234     391.1969    -297.3173
      3.6673     321.3205    -300.5871      63.0096     171.9552     321.3200    -300.5941
      3.6874     264.5964    -292.0713      74.2181     178.5810     264.5938    -292.0784
      3.7074     219.6223    -277.5910      88.2683     184.5082     219.6175    -277.5977
      3.7275     184.2456    -260.5983     105.7439     188.6711     184.2384    -260.6039
      3.7475     156.4153    -242.9938     126.9253     189.3051     156.4058    -242.9976
      3.7675     134.4424    -225.7584     151.1382     183.8641     134.4311    -225.7593
      3.7876     117.0188    -209.3525     175.7465     169.5777     117.0068    -209.3496
      3.8076     103.1619    -193.9526     195.5588     145.3055     103.1507    -193.9459
      3.8277      92.1469    -179.5854     204.4645     114.1010      92.1378    -179.5753
      3.8477      83.4484    -166.2041     199.6510      83.2883      83.4421    -166.1917
      3.8677      76.6957    -153.7323     184.1454      60.1469      76.6926    -153.7182
      3.8878      71.6420    -142.0893     164.2025      47.6514      71.6422    -142.0743
      3.9078      68.1443    -131.2120     145.1170      44.6241      68.1480    -131.1966
      3.9279      66.1514    -121.0763     129.6507      48.3055      66.1588    -121.0611
      3.9479      65.6940    -111.7289     118.6615      56.1774      65.7055    -111.7145
      3.9679      66.8670    -103.3354     112.1230      66.4944      66.8834    -103.3226
      3.9880      69.7817     -96.2523     109.7893      78.1781      69.8033     -96.2431
      4.0080      74.4404     -91.1113     111.5131      90.5615      74.4672     -91.1081
      4.0281      80.4777     -88.8390     117.3732     103.1480      80.5077     -88.8455
      4.0481      86.7767     -90.4194     127.7167     115.3932      86.8053     -90.4386
      4.0681      91.2806     -96.1621     143.1472     126.4677      91.3002     -96.1933
      4.0882      91.6871    -104.7624     164.4159     134.9532      91.6916    -104.7990
      4.1082      87.0495    -113.3956     192.0803     138.4598      87.0389    -113.4284
      4.1283      78.5939    -119.4107     225.6959     133.3182      78.5741    -119.4335
      4.1483      68.6241    -121.8253     262.3457     114.9169      68.6019    -121.8376
      4.1683      58.9936    -121.1522     295.0993      79.7750      58.9730    -121.1566
      4.1884      50.5985    -118.4280     313.8077      29.6494      50.5813    -118.4273
      4.2084      43.6388    -114.5699     310.6583     -25.8906      43.6249    -114.5664
      4.2285      37.9875    -110.2005     286.5943     -73.8479      37.9765    -110.1956
      4.2485      33.4197    -105.6895     250.4279    -106.1006      33.4111    -105.6840
      4.2685      29.7135    -101.2380     211.8884    -122.2665      29.7068    -101.2323
      4.2886      26.6825     -96.9463     176.9734    -126.3324      26.6772     -96.9407
      4.3086      24.1801     -92.8577     147.8694    -122.8221      24.1759     -92.8523
      4.3287      22.0940     -88.9848     124.5968    -115.1455      22.0906     -88.9796
      4.3487      20.3391     -85.3238     106.3426    -105.4557      20.3364     -85.3189
     4.36874     18.85083    -81.86319     92.14354    -94.98361     18.84874    -81.85847
     4.38878     17.58020    -78.58773     81.14526    -84.38268     17.57854    -78.58319
     4.40882     16.48965    -75.48112     72.66866    -73.97017     16.48837    -75.47673
     4.42886     15.55038    -72.52705     66.20072    -63.87492     15.54940    -72.52280
     4.44890     14.74018    -69.70995     61.36739    -54.12334     14.73947    -69.70581
     4.46894     14.04198    -67.01507     57.90467    -44.68737     14.04150    -67.01098
     4.48898     13.44271    -64.42859     55.63665    -35.51064     13.44245    -64.42454
     4.50902     12.93261    -61.93760     54.45995    -26.52468     12.93257    -61.93358
     4.52906     12.50461    -59.52981     54.33476    -17.65644     12.50477    -59.52576
     4.54910     12.15405    -57.19369     55.28188     -8.83679     12.15442    -57.18961
    4.569        11.88       -54.92        57.39       -.6710E-2     11.88       -54.91   
     4.58918     11.67760    -52.69235     60.80046      8.87096     11.67842    -52.68811
     4.60922     11.55335    -50.50585     65.76835     17.79288     11.55444    -50.50149
     4.62926     11.51016    -48.34826     72.63432     26.68113     11.51155    -48.34374
     4.64930     11.55536    -46.20925     81.86793     35.32263     11.55712    -46.20454
     4.66934     11.69987    -44.07864     94.06935     43.26473     11.70205    -44.07371
      4.6894      11.9590     -41.9466     109.9264      49.6425      11.9617     -41.9414
      4.7094      12.3541     -39.8040     130.0357      52.9309      12.3574     -39.7986
      4.7295      12.9139     -37.6436     154.4276      50.6924      12.9181     -37.6379
      4.7495      13.6777     -35.4616     181.6189      39.6421      13.6829     -35.4555
      4.7695      14.6981     -33.2609     207.3940      16.7629      14.7047     -33.2546
      4.7896      16.0456     -31.0580     224.7136     -17.9675      16.0539     -31.0516
      4.8096      17.8125     -28.8928     226.8945     -58.9608      17.8231     -28.8866
      4.8297      20.1150     -26.8487     212.7651     -96.7584      20.1284     -26.8432
      4.8497      23.0863     -25.0836     187.7236    -124.0480      23.1032     -25.0799
      4.8697      26.8459     -23.8763     159.2103    -139.2162      26.8668     -23.8761
      4.8898      31.4158     -23.6753     132.4441    -144.6857      31.4402     -23.6813
      4.9098      36.5482     -25.0958     109.6478    -143.8605      36.5740     -25.1111
      4.9299      41.4929     -28.7302      91.1319    -139.4992      41.5149     -28.7570
      4.9499      44.9466     -34.6525      76.3891    -133.4097      44.9577     -34.6889
      4.9699      45.5997     -41.8921      64.7081    -126.6536      45.5951     -41.9306
      4.9900      43.1218     -48.6759      55.4243    -119.8114      43.1034     -48.7077
      5.0100      38.4607     -53.5453      47.9925    -113.1798      38.4353     -53.5657
      5.0301      33.0351     -56.1093      41.9892    -106.8965      33.0090     -56.1190
      5.0501      27.8827     -56.7893      37.0928    -101.0122      27.8596     -56.7914
     5.07014     23.46535    -56.23200     33.06071    -95.53209     23.44621    -56.22939
     5.09018     19.86259    -54.97478     29.70995    -90.43853     19.84724    -54.96967
     5.11022     16.98550    -53.37420     26.90164    -85.70341     16.97339    -53.36795
     5.13026     14.70008    -51.64100     24.52967    -81.29497     14.69055    -51.63437
     5.15030     12.87896    -49.89091     22.51234    -77.18120     12.87142    -49.88431
     5.17034     11.41698    -48.18344     20.78613    -73.33160     11.41097    -48.17705
     5.19038     10.23221    -46.54634     19.30129    -69.71800     10.22739    -46.54025
     5.21042      9.26239    -44.99004     18.01852    -66.31473      9.25850    -44.98429
     5.23046      8.46057    -43.51588     16.90657    -63.09857      8.45741    -43.51044
     5.25050      7.79137    -42.12056     15.94038    -60.04869      7.78878    -42.11541
     5.27054      7.22793    -40.79862     15.09982    -57.14631      7.22581    -40.79373
     5.29058      6.74981    -39.54385     14.36860    -54.37445      6.74806    -39.53919
     5.31062      6.34125    -38.34991     13.73353    -51.71785      6.33982    -38.34546
     5.33066      5.99005    -37.21077     13.18396    -49.16252      5.98889    -37.20649
     5.35070      5.68668    -36.12077     12.71127    -46.69576      5.68574    -36.11664
     5.37074      5.42362    -35.07470     12.30857    -44.30566      5.42287    -35.07067
     5.39078      5.19490    -34.06784     11.97045    -41.98126      5.19433    -34.06392
     5.41082      4.99579    -33.09590     11.69276    -39.71222      4.99538    -33.09205
     5.43086      4.82250    -32.15497     11.47251    -37.48868      4.82223    -32.15117
     5.45090      4.67199    -31.24147     11.30773    -35.30115      4.67186    -31.23771
     5.47094      4.54183    -30.35213     11.19744    -33.14039      4.54182    -30.34836
     5.49098      4.43008    -29.48389     11.14165    -30.99722      4.43020    -29.48011
     5.51102      4.33522    -28.63392     11.14134    -28.86246      4.33548    -28.63011
     5.53106      4.25609    -27.79955     11.19856    -26.72681      4.25648    -27.79568
     5.55110      4.19180    -26.97823     11.31651    -24.58066      4.19234    -26.97429
     5.57114      4.14177    -26.16751     11.49969    -22.41397      4.14246    -26.16348
     5.59118      4.10564    -25.36502     11.75415    -20.21616      4.10650    -25.36086
     5.61122      4.08329    -24.56837     12.08770    -17.97594      4.08435    -24.56406
     5.63126      4.07484    -23.77523     12.51040    -15.68113      4.07612    -23.77075
     5.65130      4.08063    -22.98322     13.03501    -13.31853      4.08216    -22.97852
     5.67134      4.10127    -22.18987     13.67770    -10.87368      4.10310    -22.18494
     5.69138      4.13762    -21.39267     14.45903     -8.33082      4.13980    -21.38746
     5.71142      4.19086    -20.58896     15.40512     -5.67269      4.19347    -20.58343
     5.73146      4.26254    -19.77593     16.54940     -2.88063      4.26566    -19.77001
     5.75150      4.35461    -18.95056     17.93489      0.06525      4.35836    -18.94422
     5.77154      4.46954    -18.10962     19.61736      3.18533      4.47408    -18.10279
     5.79158      4.61046    -17.24956     21.66968      6.49941      4.61597    -17.24219
     5.81162      4.78124    -16.36656     24.18764     10.02352      4.78799    -16.35859
     5.83166      4.98678    -15.45645     27.29808     13.76513      4.99510    -15.44786
     5.85170      5.23326    -14.51472     31.16943     17.71339      5.24360    -14.50548
     5.87174      5.52848    -13.53652     36.02518     21.82193      5.54146    -13.52666
     5.89178      5.88244    -12.51674     42.15857     25.97744      5.89889    -12.50644
     5.91182      6.30796    -11.45032     49.94331     29.94507      6.32897    -11.43996
     5.93186      6.82156    -10.33268     59.82389     33.27603      6.84862    -10.32302
     5.95190      7.44463     -9.16062     72.24553     35.16552      7.47965     -9.15314
     5.97194      8.20471     -7.93413     87.43958     34.27773      8.25003     -7.93156
      5.9920       9.1366      -6.6594     104.9418      28.6643       9.1947      -6.6666
      6.0120      10.2827      -5.3539     122.8224      16.1432      10.3549      -5.3794
      6.0321      11.6892      -4.0542     137.1625      -4.3435      11.7731      -4.1110
      6.0521      13.3960      -2.8238     143.1564     -30.7237      13.4793      -2.9296
      6.0721      15.4126      -1.7542     138.3021     -57.5065      15.4650      -1.9234
      6.0922      17.6886      -0.9372     124.5985     -78.9445      17.6599      -1.1619
      6.1122      20.1165      -0.3963     106.7642     -92.4942      19.9594      -0.6224
    6.132        22.63       -.2701E-1     88.93       -98.93        22.34       -.1640   
      6.1523      25.3319       0.3306      73.2703    -100.4054      24.9980       0.3524
     6.17234     28.55420      0.68406     60.37120    -98.92028     28.26871      0.86705
     6.19238     32.65598      0.73201     50.05747    -95.89025     32.49291      1.02189
     6.21242     37.82101     -0.15223     41.89428    -92.17625     37.81068      0.16734
     6.23246     43.82069     -2.83613     35.43066    -88.26220     43.95272     -2.56487
     6.25250     49.75011     -8.15883     30.28279    -84.40401     49.97562     -7.99859
     6.27254     53.97314    -16.31160     26.14747    -80.72691     54.21396    -16.28680
     6.29258     54.79132    -26.16243     22.79308    -77.28420     54.97354    -26.24208
     6.31262     51.69598    -35.50967     20.04464    -74.09064     51.79069    -35.62949
     6.33266     45.81270    -42.47482     17.77037    -71.14137     45.83774    -42.58288
     6.35271     38.92274    -46.50983     15.87056    -68.42207     38.91086    -46.58675
     6.37275     32.35989    -48.12108     14.26927    -65.91440     32.33533    -48.16899
     6.39279     26.72895    -48.12591     12.90823    -63.59909     26.70380    -48.15341
     6.41283     22.14032    -47.21337     11.74231    -61.45765     22.11893    -47.22824
     6.43287     18.48346    -45.84359     10.73623    -59.47266     18.46664    -45.85115
     6.45291     15.58714    -44.28963      9.86217    -57.62835     15.57432    -44.29310
     6.47295     13.28744    -42.70198      9.09802    -55.91062     13.27780    -42.70324
     6.49299     11.44871    -41.15836      8.42604    -54.30691     11.44147    -41.15846
     6.51303      9.96506    -39.69541      7.83187    -52.80599      9.95962    -39.69494
     6.53307      8.75599    -38.32740      7.30382    -51.39806      8.75188    -38.32667
     6.55311      7.76072    -37.05671      6.83231    -50.07438      7.75758    -37.05589
     6.57315      6.93338    -35.87980      6.40942    -48.82718      6.93097    -35.87899
     6.59319      6.23919    -34.79034      6.02854    -47.64966      6.23732    -34.78958
     6.61323      5.65156    -33.78102      5.68418    -46.53575      5.65010    -33.78032
     6.63327      5.15005    -32.84441      5.37170    -45.48004      5.14890    -32.84380
     6.65331      4.71871    -31.97343      5.08716    -44.47770      4.71779    -31.97288
     6.67335      4.34507    -31.16155      4.82723    -43.52445      4.34434    -31.16106
     6.69339      4.01927    -30.40289      4.58906    -42.61646      4.01869    -30.40247
     6.71343      3.73342    -29.69216      4.37020    -41.75024      3.73294    -29.69179
     6.73347      3.48117    -29.02468      4.16855    -40.92272      3.48078    -29.02435
     6.75351      3.25737    -28.39630      3.98226    -40.13111      3.25705    -28.39601
     6.77355      3.05783    -27.80333      3.80976    -39.37283      3.05756    -27.80308
     6.79359      2.87907    -27.24254      3.64965    -38.64562      2.87885    -27.24232
     6.81363      2.71824    -26.71103      3.50072    -37.94740      2.71805    -26.71083
     6.83367      2.57293    -26.20625      3.36190    -37.27626      2.57278    -26.20608
     6.85371      2.44115    -25.72595      3.23225    -36.63052      2.44102    -25.72580
     6.87375      2.32121    -25.26810      3.11095    -36.00854      2.32110    -25.26796
     6.89379      2.21166    -24.83087      2.99723    -35.40891      2.21156    -24.83075
     6.91383      2.11128    -24.41270      2.89047    -34.83030      2.11120    -24.41259
     6.93387      2.01903    -24.01210      2.79005    -34.27150      2.01896    -24.01200
     6.95391      1.93401    -23.62780      2.69547    -33.73138      1.93395    -23.62772
     6.97395      1.85544    -23.25861      2.60625    -33.20892      1.85539    -23.25854
     6.99399      1.78264    -22.90350      2.52197    -32.70316      1.78260    -22.90343
     7.01403      1.71502    -22.56149      2.44224    -32.21320      1.71498    -22.56143
     7.03407      1.65208    -22.23174      2.36673    -31.73823      1.65205    -22.23169
     7.05411      1.59335    -21.91343      2.29511    -31.27750      1.59332    -21.91338
     7.07415      1.53845    -21.60587      2.22712    -30.83030      1.53842    -21.60582
     7.09419      1.48702    -21.30838      2.16249    -30.39595      1.48700    -21.30834
     7.11423      1.43875    -21.02039      2.10099    -29.97389      1.43873    -21.02035
     7.13427      1.39337    -20.74132      2.04240    -29.56351      1.39335    -20.74128
     7.15431      1.35063    -20.47069      1.98654    -29.16427      1.35061    -20.47066
     7.17435      1.31030    -20.20802      1.93322    -28.77568      1.31029    -20.20798
     7.19439      1.27221    -19.95289      1.88229    -28.39727      1.27219    -19.95286
     7.21443      1.23616    -19.70490      1.83358    -28.02859      1.23614    -19.70487
     7.23447      1.20200    -19.46369      1.78696    -27.66924      1.20199    -19.46367
     7.25451      1.16958    -19.22891      1.74231    -27.31884      1.16957    -19.22889
     7.27455      1.13878    -19.00026      1.69951    -26.97702      1.13878    -19.00024
     7.29459      1.10949    -18.77744      1.65845    -26.64340      1.10948    -18.77743
     7.31463      1.08158    -18.56017      1.61903    -26.31768      1.08157    -18.56016
     7.33467      1.05497    -18.34822      1.58115    -25.99957      1.05497    -18.34821
     7.35471      1.02957    -18.14132      1.54474    -25.68876      1.02956    -18.14131
     7.37475      1.00530    -17.93929      1.50971    -25.38497      1.00529    -17.93927
     7.39479      0.98208    -17.74187      1.47598    -25.08797      0.98207    -17.74186
     7.41483      0.95985    -17.54891      1.44350    -24.79747      0.95984    -17.54891
     7.43487      0.93854    -17.36021      1.41218    -24.51326      0.93853    -17.36020
     7.45491      0.91810    -17.17561      1.38198    -24.23511      0.91809    -17.17559
     7.47495      0.89847    -16.99492      1.35284    -23.96282      0.89847    -16.99491
     7.49499      0.87961    -16.81802      1.32470    -23.69621      0.87961    -16.81801
     7.51503      0.86148    -16.64474      1.29752    -23.43501      0.86148    -16.64474
     7.53507      0.84403    -16.47497      1.27124    -23.17913      0.84402    -16.47497
     7.55511      0.82722    -16.30857      1.24584    -22.92833      0.82722    -16.30856
     7.57515      0.81102    -16.14542      1.22126    -22.68250      0.81101    -16.14542
     7.59519      0.79539    -15.98540      1.19746    -22.44143      0.79539    -15.98540
     7.61523      0.78031    -15.82842      1.17442    -22.20502      0.78031    -15.82841
     7.63527      0.76574    -15.67435      1.15210    -21.97307      0.76574    -15.67434
     7.65531      0.75167    -15.52311      1.13046    -21.74550      0.75167    -15.52311
     7.67535      0.73806    -15.37461      1.10948    -21.52213      0.73806    -15.37460
     7.69539      0.72490    -15.22875      1.08913    -21.30287      0.72490    -15.22874
     7.71543      0.71215    -15.08545      1.06938    -21.08759      0.71215    -15.08545
     7.73547      0.69981    -14.94463      1.05021    -20.87616      0.69981    -14.94463
     7.75551      0.68785    -14.80622      1.03159    -20.66849      0.68784    -14.80622
     7.77555      0.67625    -14.67013      1.01350    -20.46443      0.67625    -14.67013
     7.79559      0.66500    -14.53632      0.99592    -20.26393      0.66500    -14.53631
     7.81563      0.65408    -14.40469      0.97883    -20.06686      0.65408    -14.40469
     7.83567      0.64348    -14.27520      0.96221    -19.87315      0.64348    -14.27520
     7.85571      0.63319    -14.14778      0.94604    -19.68269      0.63319    -14.14777
     7.87575      0.62318    -14.02237      0.93031    -19.49539      0.62318    -14.02237
     7.89579      0.61346    -13.89892      0.91499    -19.31118      0.61346    -13.89892
     7.91583      0.60400    -13.77737      0.90008    -19.12999      0.60400    -13.77737
     7.93587      0.59480    -13.65767      0.88555    -18.95171      0.59480    -13.65767
     7.95591      0.58584    -13.53978      0.87140    -18.77627      0.58584    -13.53978
     7.97595      0.57712    -13.42364      0.85760    -18.60362      0.57712    -13.42364
     7.99599      0.56863    -13.30921      0.84416    -18.43368      0.56863    -13.30921
     8.01603      0.56036    -13.19645      0.83104    -18.26637      0.56036    -13.19644
     8.03607      0.55230    -13.08531      0.81826    -18.10165      0.55230    -13.08530
     8.05611      0.54444    -12.97575      0.80578    -17.93943      0.54444    -12.97575
     8.07615      0.53677    -12.86774      0.79361    -17.77967      0.53677    -12.86773
     8.09619      0.52929    -12.76122      0.78173    -17.62231      0.52929    -12.76122
     8.11623      0.52200    -12.65619      0.77013    -17.46727      0.52200    -12.65619
     8.13627      0.51488    -12.55258      0.75880    -17.31454      0.51488    -12.55258
     8.15631      0.50792    -12.45037      0.74774    -17.16402      0.50792    -12.45037
     8.17635      0.50113    -12.34954      0.73693    -17.01568      0.50113    -12.34954
     8.19639      0.49450    -12.25003      0.72637    -16.86947      0.49450    -12.25003
     8.21643      0.48802    -12.15184      0.71604    -16.72533      0.48802    -12.15184
     8.23647      0.48169    -12.05492      0.70595    -16.58323      0.48169    -12.05491
     8.25651      0.47550    -11.95924      0.69609    -16.44312      0.47550    -11.95924
     8.27655      0.46945    -11.86478      0.68644    -16.30495      0.46945    -11.86478
     8.29659      0.46353    -11.77152      0.67701    -16.16868      0.46353    -11.77152
     8.31663      0.45775    -11.67942      0.66778    -16.03427      0.45775    -11.67942
     8.33667      0.45209    -11.58847      0.65875    -15.90169      0.45209    -11.58847
     8.35671      0.44655    -11.49863      0.64991    -15.77088      0.44655    -11.49862
     8.37675      0.44112    -11.40988      0.64126    -15.64182      0.44112    -11.40988
     8.39679      0.43582    -11.32220      0.63279    -15.51446      0.43582    -11.32220
     8.41683      0.43062    -11.23557      0.62450    -15.38877      0.43062    -11.23557
     8.43687      0.42554    -11.14996      0.61638    -15.26472      0.42554    -11.14996
     8.45691      0.42056    -11.06536      0.60843    -15.14228      0.42056    -11.06535
     8.47695      0.41568    -10.98173      0.60064    -15.02139      0.41568    -10.98173
     8.49699      0.41090    -10.89908      0.59301    -14.90205      0.41090    -10.89908
     8.51703      0.40622    -10.81736      0.58554    -14.78421      0.40622    -10.81736
     8.53707      0.40163    -10.73657      0.57821    -14.66786      0.40163    -10.73657
     8.55711      0.39714    -10.65669      0.57104    -14.55295      0.39714    -10.65669
     8.57715      0.39273    -10.57769      0.56400    -14.43945      0.39273    -10.57769
     8.59719      0.38842    -10.49957      0.55710    -14.32734      0.38842    -10.49957
     8.61723      0.38419    -10.42229      0.55034    -14.21661      0.38418    -10.42229
     8.63727      0.38004    -10.34586      0.54371    -14.10720      0.38004    -10.34586
     8.65731      0.37597    -10.27024      0.53721    -13.99911      0.37597    -10.27024
     8.67735      0.37198    -10.19543      0.53084    -13.89230      0.37198    -10.19543
     8.69739      0.36808    -10.12140      0.52459    -13.78675      0.36808    -10.12140
     8.71743      0.36424    -10.04815      0.51846    -13.68243      0.36424    -10.04815
     8.73747      0.36049     -9.97566      0.51244    -13.57932      0.36049     -9.97566
     8.75751      0.35680     -9.90391      0.50654    -13.47742      0.35680     -9.90391
     8.77755      0.35319     -9.83288      0.50075    -13.37667      0.35319     -9.83288
     8.79760      0.34964     -9.76258      0.49507    -13.27707      0.34964     -9.76258
     8.81764      0.34617     -9.69297      0.48950    -13.17859      0.34617     -9.69297
     8.83768      0.34276     -9.62405      0.48403    -13.08122      0.34276     -9.62405
     8.85772      0.33942     -9.55581      0.47867    -12.98493      0.33942     -9.55581
     8.87776      0.33614     -9.48822      0.47340    -12.88970      0.33614     -9.48822
     8.89780      0.33293     -9.42129      0.46824    -12.79551      0.33293     -9.42129
     8.91784      0.32978     -9.35499      0.46317    -12.70235      0.32978     -9.35499
     8.93788      0.32670     -9.28931      0.45819    -12.61018      0.32670     -9.28931
     8.95792      0.32367     -9.22425      0.45331    -12.51900      0.32367     -9.22425
     8.97796      0.32070     -9.15978      0.44852    -12.42879      0.32070     -9.15978
     8.99800      0.31780     -9.09590      0.44381    -12.33953      0.31780     -9.09590
     9.01803      0.31495     -9.03260      0.43920    -12.25120      0.31495     -9.03260
     9.03808      0.31216     -8.96986      0.43467    -12.16378      0.31216     -8.96986
     9.05812      0.30943     -8.90768      0.43023    -12.07727      0.30943     -8.90768
     9.07816      0.30675     -8.84603      0.42587    -11.99162      0.30675     -8.84603
     9.09820      0.30413     -8.78491      0.42160    -11.90684      0.30413     -8.78491
     9.11824      0.30157     -8.72431      0.41740    -11.82291      0.30157     -8.72431
     9.13828      0.29906     -8.66422      0.41329    -11.73981      0.29906     -8.66422
     9.15832      0.29661     -8.60463      0.40926    -11.65752      0.29661     -8.60463
     9.17836      0.29421     -8.54552      0.40530    -11.57604      0.29421     -8.54552
     9.19840      0.29187     -8.48689      0.40142    -11.49533      0.29187     -8.48689
     9.21844      0.28958     -8.42872      0.39762    -11.41540      0.28958     -8.42872
     9.23848      0.28735     -8.37100      0.39390    -11.33622      0.28735     -8.37100
     9.25852      0.28517     -8.31373      0.39025    -11.25777      0.28517     -8.31373
     9.27856      0.28305     -8.25688      0.38668    -11.18004      0.28305     -8.25688
     9.29860      0.28098     -8.20046      0.38318    -11.10303      0.28098     -8.20046
     9.31864      0.27897     -8.14445      0.37976    -11.02671      0.27897     -8.14445
     9.33868      0.27701     -8.08884      0.37642    -10.95107      0.27701     -8.08884
     9.35872      0.27511     -8.03361      0.37314    -10.87609      0.27511     -8.03361
     9.37876      0.27327     -7.97876      0.36995    -10.80176      0.27327     -7.97876
     9.39880      0.27149     -7.92427      0.36683    -10.72806      0.27149     -7.92427
     9.41884      0.26977     -7.87014      0.36378    -10.65498      0.26977     -7.87014
     9.43888      0.26810     -7.81635      0.36082    -10.58250      0.26810     -7.81635
     9.45892      0.26650     -7.76288      0.35793    -10.51062      0.26650     -7.76288
     9.47896      0.26496     -7.70974      0.35512    -10.43931      0.26496     -7.70974
     9.49900      0.26348     -7.65690      0.35239    -10.36856      0.26348     -7.65690
     9.51904      0.26207     -7.60435      0.34974    -10.29834      0.26207     -7.60435
     9.53908      0.26073     -7.55208      0.34717    -10.22865      0.26073     -7.55208
     9.55912      0.25946     -7.50008      0.34469    -10.15947      0.25946     -7.50008
     9.57916      0.25826     -7.44833      0.34229    -10.09078      0.25826     -7.44833
     9.59920      0.25714     -7.39681      0.33999    -10.02258      0.25714     -7.39681
    9.619238     0.256099    -7.345522     0.337779    -9.954825     0.256099    -7.345524
    9.639277     0.255138    -7.294440     0.335666    -9.887511     0.255138    -7.294441
    9.659318     0.254263    -7.243547     0.333654    -9.820616     0.254263    -7.243547
    9.679358     0.253479    -7.192829     0.331747    -9.754134     0.253478    -7.192829
    9.699399     0.252790    -7.142266     0.329951    -9.688025     0.252789    -7.142266
    9.719439     0.252201    -7.091843     0.328273    -9.622271     0.252200    -7.091845
    9.739479     0.251719    -7.041534     0.326718    -9.556858     0.251718    -7.041537
    9.759519     0.251350    -6.991326     0.325294    -9.491761     0.251349    -6.991327
    9.779559     0.251102    -6.941191     0.324012    -9.426945     0.251101    -6.941194
    9.799599     0.250983    -6.891109     0.322880    -9.362391     0.250981    -6.891112
    9.819639     0.251002    -6.841054     0.321911    -9.298073     0.251000    -6.841057
    9.839679     0.251170    -6.791001     0.321118    -9.233961     0.251168    -6.791004
    9.859718     0.251498    -6.740920     0.320516    -9.170007     0.251496    -6.740923
    9.879759     0.252000    -6.690778     0.320123    -9.106195     0.251998    -6.690783
    9.899798     0.252691    -6.640547     0.319959    -9.042475     0.252689    -6.640550
    9.919839     0.253589    -6.590184     0.320049    -8.978802     0.253586    -6.590189
    9.939879     0.254711    -6.539660     0.320419    -8.915144     0.254708    -6.539664
    9.959920     0.256081    -6.488920     0.321103    -8.851434     0.256077    -6.488926
    9.979959     0.257723    -6.437932     0.322137    -8.787632     0.257719    -6.437937
    10.00000      0.25967     -6.38663      0.32357     -8.72367      0.25966     -6.38664
# 
# 01/04/2018 at 10:54 YAMBO_RT @ narro [start]
# 01/04/2018 at 10:54                  [end]
#  
# Timing   [Min/Max/Average]: 01s/01s/01s
#
# .-Input file : yambo.in
# | optics                         # [R OPT] Optics
# | bse                            # [R BSE] Bethe Salpeter Equation.
# | bsk                            # [R BSK] Bethe Salpeter Equation kernel
# | bss                            # [R BSS] Bethe Salpeter Equation solver
# | em1s                           # [R Xs] Static Inverse Dielectric Matrix
# | BoseTemp= 0.000000     eV      # Bosonic Temperature
# | FFTGvecs=  387         RL      # [FFT] Plane-waves
# | Chimod= "hartree"              # [X] IP/Hartree/ALDA/LRC/BSfxc
# | BSEmod= "retarded"             # [BSE] resonant/retarded/coupling
# | BSKmod= "SEX"                  # [BSE] IP/Hartree/HF/ALDA/SEX/BSfxc
# | BSSmod= "h"                    # [BSS] (h)aydock/(d)iagonalization/(i)nversion/(t)ddft`
# | BSENGexx=  531         RL      # [BSK] Exchange components
# | BSENGBlk=  59          RL      # [BSK] Screened interaction block size
# | #WehCpl                        # [BSK] eh interaction included also in coupling
# | KfnQPdb= "E < 08_gw_eq/ndb.QP" # [EXTQP BSK BSS] Database
# | % BEnRange
# |   0.00000 | 10.00000 | eV      # [BSS] Energy range
# | %
# | % BDmRange
# |   0.10000 |  0.10000 | eV      # [BSS] Damping range
# | %
# | BEnSteps=  500                 # [BSS] Energy steps
# | % BLongDir
# | 0.1000E-4 | 0.000    | 0.000    |        # [BSS] [cc] Electric Field
# | %
# | % BSEBands
# |   2 |  7 |                     # [BSK] Bands range
# | %
# | BSHayTrs=  0.02000             # [BSS] Relative [o/o] Haydock treshold. Strict(>0)/Average(<0)
# | % BndsRnXs
# |   1 |  8 |                     # [Xs] Polarization function bands
# | %
# | NGsBlkXs=  59          RL      # [Xs] Response block size
# | GrFnTpXs= "R"                  # [Xs] Green`s function (T)ordered,(R)etarded,(r)senant,(a)ntiresonant [T, R, r, Ta, Ra]
# | % DmRngeXs
# |   0.10000 |  0.10000 | eV      # [Xs] Damping range
# | %
# | % LongDrXs
# | 0.1000E-4 | 0.000    | 0.000    |        # [Xs] [cc] Electric Field
# | %
