#                                                           
#  **    **    **     ****     ****  ******     *******     
# //**  **    ****   /**/**   **/** /*////**   **/////**    
#  //****    **//**  /**//** ** /** /*   /**  **     //**   
#   //**    **  //** /** //***  /** /******  /**      /**   
#    /**   **********/**  //*   /** /*//// **/**      /**   
#    /**  /**//////**/**   /    /** /*    /**//**     **    
#    /**  /**     /**/**        /** /*******  //*******     
#    //   //      // //         //  ///////    ///////      
#                                                           
#        Version 4.3.0 Revision 15652 Hash 9dc5f79          
#                  MPI+SLK+OpenMP Build                     
#                http://www.yambo-code.org                  
#
# Absorption @ Q(1) [q->0 direction] :0.1000E-4  0.000     0.000   
#
#
#
# - The Green`s function is Retarded -
# - Using the Length Gauge -
# - [r,Vnl] *is* included -
#
#
#    Diamagnetic term
#    A [nel]
#    -4.030943
#
#    E/ev[1]      EPS-Im[2]    EPS-Re[3]
#
   0.2000        219.9       -307.2   
   0.2016        217.6       -297.6   
   0.2032        215.3       -288.2   
   0.2048        213.2       -279.0   
   0.2064        211.1       -270.0   
   0.2080        209.0       -261.2   
   0.2096        207.1       -252.5   
   0.2112        205.2       -244.1   
   0.2128        203.3       -235.8   
   0.2144        201.5       -227.7   
   0.2160        199.8       -219.7   
      0.2176     198.1715    -211.9572
      0.2192     196.5697    -204.3211
      0.2208     195.0235    -196.8345
      0.2224     193.5319    -189.4920
      0.2240     192.0936    -182.2895
      0.2257     190.7076    -175.2232
      0.2273     189.3729    -168.2889
      0.2289     188.0883    -161.4832
      0.2305     186.8529    -154.8015
      0.2321     185.6656    -148.2413
      0.2337     184.5257    -141.7986
      0.2353     183.4324    -135.4707
      0.2369     182.3847    -129.2536
      0.2385     181.3818    -123.1442
      0.2401     180.4231    -117.1400
      0.2417     179.5078    -111.2376
      0.2433     178.6353    -105.4350
      0.2449     177.8047     -99.7297
      0.2465     177.0159     -94.1181
      0.2481     176.2678     -88.5986
      0.2497     175.5600     -83.1677
      0.2513     174.8919     -77.8241
      0.2529     174.2632     -72.5650
      0.2545     173.6732     -67.3886
      0.2561     173.1217     -62.2925
      0.2577     172.6080     -57.2747
      0.2593     172.1317     -52.3337
      0.2609     171.6927     -47.4674
      0.2625     171.2903     -42.6732
      0.2641     170.9243     -37.9509
      0.2657     170.5945     -33.2980
      0.2673     170.3004     -28.7127
      0.2689     170.0418     -24.1929
      0.2705     169.8186     -19.7380
      0.2721     169.6301     -15.3462
      0.2737     169.4764     -11.0159
      0.2754     169.3573      -6.7465
      0.2770     169.2726      -2.5361
      0.2786     169.2219       1.6166
      0.2802     169.2052       5.7125
      0.2818     169.2224       9.7527
      0.2834     169.2731      13.7387
      0.2850     169.3573      17.6713
      0.2866     169.4751      21.5519
      0.2882     169.6260      25.3809
      0.2898     169.8102      29.1594
      0.2914     170.0273      32.8884
      0.2930     170.2775      36.5679
      0.2946     170.5605      40.2004
      0.2962     170.8764      43.7851
      0.2978     171.2248      47.3238
      0.2994     171.6060      50.8164
      0.3010     172.0197      54.2634
      0.3026     172.4666      57.6661
      0.3042     172.9455      61.0246
      0.3058     173.4565      64.3399
      0.3074     174.0001      67.6116
      0.3090     174.5757      70.8412
      0.3106     175.1836      74.0287
      0.3122     175.8236      77.1739
      0.3138     176.4958      80.2780
      0.3154     177.2000      83.3412
      0.3170     177.9362      86.3629
      0.3186     178.7040      89.3440
      0.3202     179.5035      92.2848
      0.3218     180.3344      95.1863
      0.3234     181.1967      98.0479
      0.3251     182.0905     100.8685
      0.3267     183.0153     103.6503
      0.3283     183.9708     106.3915
      0.3299     184.9574     109.0946
      0.3315     185.9744     111.7570
      0.3331     187.0217     114.3809
      0.3347     188.0992     116.9649
      0.3363     189.2063     119.5091
      0.3379     190.3430     122.0146
      0.3395     191.5089     124.4804
      0.3411     192.7037     126.9065
      0.3427     193.9272     129.2938
      0.3443     195.1786     131.6414
      0.3459     196.4575     133.9496
      0.3475     197.7641     136.2174
      0.3491     199.0974     138.4462
      0.3507     200.4573     140.6362
      0.3523     201.8430     142.7856
      0.3539     203.2540     144.8955
      0.3555     204.6899     146.9656
      0.3571     206.1502     148.9955
      0.3587     207.6339     150.9872
      0.3603     209.1411     152.9383
      0.3619     210.6702     154.8507
      0.3635     212.2217     156.7231
      0.3651     213.7940     158.5567
      0.3667     215.3870     160.3502
      0.3683     216.9995     162.1056
      0.3699     218.6314     163.8217
      0.3715     220.2817     165.4994
      0.3731     221.9498     167.1389
      0.3747     223.6349     168.7407
      0.3764     225.3360     170.3047
      0.3780     227.0531     171.8322
      0.3796     228.7851     173.3229
      0.3812     230.5313     174.7772
      0.3828     232.2912     176.1969
      0.3844     234.0642     177.5811
      0.3860     235.8496     178.9313
      0.3876     237.6468     180.2481
      0.3892     239.4553     181.5314
      0.3908     241.2747     182.7831
      0.3924     243.1048     184.0036
      0.3940     244.9450     185.1933
      0.3956     246.7948     186.3545
      0.3972     248.6541     187.4867
      0.3988     250.5228     188.5917
      0.4004     252.4006     189.6706
      0.4020     254.2876     190.7234
      0.4036     256.1838     191.7521
      0.4052     258.0895     192.7580
      0.4068     260.0046     193.7422
      0.4084     261.9297     194.7047
      0.4100     263.8648     195.6473
      0.4116     265.8112     196.5712
      0.4132     267.7683     197.4771
      0.4148     269.7377     198.3667
      0.4164     271.7201     199.2406
      0.4180     273.7162     200.0995
      0.4196     275.7270     200.9442
      0.4212     277.7540     201.7760
      0.4228     279.7979     202.5956
      0.4244     281.8604     203.4040
      0.4261     283.9426     204.2014
      0.4277     286.0461     204.9890
      0.4293     288.1726     205.7664
      0.4309     290.3236     206.5345
      0.4325     292.5010     207.2931
      0.4341     294.7065     208.0429
      0.4357     296.9421     208.7836
      0.4373     299.2097     209.5155
      0.4389     301.5109     210.2375
      0.4405     303.8483     210.9497
      0.4421     306.2236     211.6517
      0.4437     308.6385     212.3422
      0.4453     311.0963     213.0208
      0.4469     313.5978     213.6866
      0.4485     316.1458     214.3377
      0.4501     318.7424     214.9737
      0.4517     321.3897     215.5931
      0.4533     324.0894     216.1941
      0.4549     326.8435     216.7742
      0.4565     329.6545     217.3318
      0.4581     332.5239     217.8656
      0.4597     335.4536     218.3726
      0.4613     338.4453     218.8502
      0.4629     341.5012     219.2959
      0.4645     344.6223     219.7067
      0.4661     347.8102     220.0805
      0.4677     351.0670     220.4132
      0.4693     354.3938     220.7021
      0.4709     357.7919     220.9439
      0.4725     361.2613     221.1349
      0.4741     364.8035     221.2710
      0.4758     368.4197     221.3493
      0.4774     372.1098     221.3646
      0.4790     375.8750     221.3132
      0.4806     379.7150     221.1917
      0.4822     383.6303     220.9950
      0.4838     387.6205     220.7186
      0.4854     391.6853     220.3578
      0.4870     395.8242     219.9078
      0.4886     400.0355     219.3647
      0.4902     404.3194     218.7227
      0.4918     408.6732     217.9769
      0.4934     413.0967     217.1227
      0.4950     417.5878     216.1541
      0.4966     422.1439     215.0671
      0.4982     426.7628     213.8559
      0.4998     431.4418     212.5145
      0.5014     436.1772     211.0385
      0.5030     440.9669     209.4229
      0.5046     445.8055     207.6623
      0.5062     450.6897     205.7505
      0.5078     455.6153     203.6838
      0.5094     460.5770     201.4567
      0.5110     465.5701     199.0634
      0.5126     470.5884     196.5002
      0.5142     475.6260     193.7621
      0.5158     480.6771     190.8448
      0.5174     485.7346     187.7436
      0.5190     490.7910     184.4555
      0.5206     495.8394     180.9758
      0.5222     500.8717     177.3018
      0.5238     505.8793     173.4294
      0.5255     510.8540     169.3569
      0.5271     515.7863     165.0822
      0.5287     520.6672     160.6023
      0.5303     525.4882     155.9173
      0.5319     530.2371     151.0258
   0.5335        534.9        145.9   
   0.5351        539.5        140.6   
   0.5367        544.0        135.1   
   0.5383        548.3        129.4   
   0.5399        552.6        123.5   
   0.5415        556.7        117.4   
   0.5431        560.6        111.1   
   0.5447        564.4        104.6   
   0.5463        568.1        97.86   
   0.5479        571.5        90.99   
   0.5495        574.8        83.95   
   0.5511        577.9        76.74   
   0.5527        580.8        69.37   
   0.5543        583.4        61.85   
   0.5559        585.9        54.18   
   0.5575        588.1        46.39   
   0.5591        590.0        38.47   
   0.5607        591.7        30.45   
   0.5623        593.2        22.32   
   0.5639        594.4        14.11   
   0.5655        595.3        5.830   
   0.5671        595.9       -2.516   
   0.5687        596.3       -10.91   
   0.5703        596.4       -19.34   
   0.5719        596.3       -27.79   
   0.5735        595.8       -36.25   
   0.5752        595.1       -44.70   
   0.5768        594.1       -53.13   
   0.5784        592.8       -61.53   
   0.5800        591.2       -69.88   
   0.5816        589.4       -78.17   
   0.5832        587.3       -86.39   
   0.5848        584.9       -94.53   
      0.5864     582.3329    -102.5624
      0.5880     579.4720    -110.4915
      0.5896     576.3685    -118.3011
      0.5912     573.0309    -125.9807
      0.5928     569.4677    -133.5204
      0.5944     565.6871    -140.9114
      0.5960     561.6982    -148.1454
      0.5976     557.5112    -155.2137
      0.5992     553.1355    -162.1099
      0.6008     548.5812    -168.8272
      0.6024     543.8594    -175.3598
      0.6040     538.9791    -181.7031
      0.6056     533.9520    -187.8526
      0.6072     528.7889    -193.8044
      0.6088     523.4995    -199.5565
      0.6104     518.0939    -205.1060
      0.6120     512.5847    -210.4512
      0.6136     506.9803    -215.5916
      0.6152     501.2910    -220.5265
      0.6168     495.5276    -225.2559
      0.6184     489.6984    -229.7801
      0.6200     483.8142    -234.1017
      0.6216     477.8830    -238.2215
      0.6232     471.9139    -242.1402
      0.6248     465.9156    -245.8611
      0.6265     459.8958    -249.3878
      0.6281     453.8620    -252.7228
      0.6297     447.8219    -255.8689
      0.6313     441.7824    -258.8308
      0.6329     435.7505    -261.6118
      0.6345     429.7317    -264.2160
      0.6361     423.7324    -266.6478
      0.6377     417.7578    -268.9110
      0.6393     411.8133    -271.0105
      0.6409     405.9035    -272.9517
      0.6425     400.0327    -274.7382
      0.6441     394.2049    -276.3751
      0.6457     388.4249    -277.8669
      0.6473     382.6957    -279.2182
      0.6489     377.0201    -280.4353
      0.6505     371.4013    -281.5204
      0.6521     365.8419    -282.4797
      0.6537     360.3438    -283.3177
      0.6553     354.9103    -284.0388
      0.6569     349.5415    -284.6480
      0.6585     344.2407    -285.1494
      0.6601     339.0084    -285.5474
      0.6617     333.8460    -285.8456
      0.6633     328.7542    -286.0493
      0.6649     323.7343    -286.1621
      0.6665     318.7872    -286.1884
      0.6681     313.9127    -286.1311
      0.6697     309.1119    -285.9947
      0.6713     304.3848    -285.7825
      0.6729     299.7312    -285.4989
      0.6745     295.1513    -285.1464
      0.6762     290.6453    -284.7290
      0.6778     286.2122    -284.2499
      0.6794     281.8523    -283.7114
      0.6810     277.5655    -283.1173
      0.6826     273.3507    -282.4706
      0.6842     269.2074    -281.7734
      0.6858     265.1360    -281.0291
      0.6874     261.1348    -280.2402
      0.6890     257.2031    -279.4082
      0.6906     253.3401    -278.5369
      0.6922     249.5457    -277.6285
      0.6938     245.8187    -276.6843
      0.6954     242.1582    -275.7071
      0.6970     238.5634    -274.6981
      0.6986     235.0332    -273.6604
      0.7002     231.5671    -272.5948
      0.7018     228.1642    -271.5035
      0.7034     224.8227    -270.3886
      0.7050     221.5422    -269.2514
      0.7066     218.3220    -268.0941
      0.7082     215.1604    -266.9167
      0.7098     212.0573    -265.7222
      0.7114     209.0111    -264.5110
      0.7130     206.0211    -263.2846
      0.7146     203.0867    -262.0446
      0.7162     200.2052    -260.7911
      0.7178     197.3774    -259.5267
      0.7194     194.6015    -258.2519
      0.7210     191.8770    -256.9678
      0.7226     189.2027    -255.6749
      0.7242     186.5777    -254.3739
      0.7259     184.0010    -253.0669
      0.7275     181.4718    -251.7534
      0.7291     178.9890    -250.4352
      0.7307     176.5518    -249.1128
      0.7323     174.1594    -247.7864
      0.7339     171.8106    -246.4573
      0.7355     169.5048    -245.1261
      0.7371     167.2410    -243.7932
      0.7387     165.0187    -242.4585
      0.7403     162.8365    -241.1238
      0.7419     160.6940    -239.7893
      0.7435     158.5904    -238.4550
      0.7451     156.5245    -237.1214
      0.7467     154.4961    -235.7895
      0.7483     152.5042    -234.4593
      0.7499     150.5478    -233.1313
      0.7515     148.6265    -231.8051
      0.7531     146.7395    -230.4821
      0.7547     144.8862    -229.1625
      0.7563     143.0657    -227.8462
      0.7579     141.2775    -226.5343
      0.7595     139.5206    -225.2257
      0.7611     137.7948    -223.9219
      0.7627     136.0993    -222.6225
      0.7643     134.4334    -221.3278
      0.7659     132.7965    -220.0381
      0.7675     131.1881    -218.7534
      0.7691     129.6075    -217.4742
      0.7707     128.0543    -216.2008
      0.7723     126.5277    -214.9331
      0.7739     125.0272    -213.6715
      0.7756     123.5527    -212.4157
      0.7772     122.1031    -211.1661
      0.7788     120.6780    -209.9227
      0.7804     119.2772    -208.6857
      0.7820     117.8999    -207.4549
      0.7836     116.5459    -206.2310
      0.7852     115.2145    -205.0143
      0.7868     113.9053    -203.8036
      0.7884     112.6178    -202.5999
      0.7900     111.3519    -201.4029
      0.7916     110.1066    -200.2129
      0.7932     108.8819    -199.0299
      0.7948     107.6772    -197.8538
      0.7964     106.4921    -196.6850
      0.7980     105.3264    -195.5229
      0.7996     104.1797    -194.3683
      0.8012     103.0515    -193.2208
      0.8028     101.9414    -192.0802
      0.8044     100.8492    -190.9468
      0.8060      99.7743    -189.8206
      0.8076      98.7166    -188.7018
      0.8092      97.6757    -187.5900
      0.8108      96.6512    -186.4852
      0.8124      95.6430    -185.3882
      0.8140      94.6504    -184.2978
      0.8156      93.6734    -183.2146
      0.8172      92.7116    -182.1385
      0.8188      91.7648    -181.0696
      0.8204      90.8326    -180.0083
      0.8220      89.9149    -178.9540
      0.8236      89.0111    -177.9066
      0.8253      88.1210    -176.8665
      0.8269      87.2446    -175.8331
      0.8285      86.3815    -174.8068
      0.8301      85.5315    -173.7879
      0.8317      84.6943    -172.7755
      0.8333      83.8698    -171.7701
      0.8349      83.0576    -170.7720
      0.8365      82.2574    -169.7804
      0.8381      81.4691    -168.7955
      0.8397      80.6926    -167.8178
      0.8413      79.9274    -166.8467
      0.8429      79.1736    -165.8822
      0.8445      78.4308    -164.9244
      0.8461      77.6987    -163.9735
      0.8477      76.9775    -163.0292
      0.8493      76.2666    -162.0914
      0.8509      75.5660    -161.1599
      0.8525      74.8756    -160.2352
      0.8541      74.1950    -159.3168
      0.8557      73.5242    -158.4050
      0.8573      72.8630    -157.4993
      0.8589      72.2111    -156.6001
      0.8605      71.5685    -155.7071
      0.8621      70.9350    -154.8204
      0.8637      70.3104    -153.9398
      0.8653      69.6946    -153.0653
      0.8669      69.0874    -152.1968
      0.8685      68.4887    -151.3345
      0.8701      67.8982    -150.4780
      0.8717      67.3160    -149.6276
      0.8733      66.7419    -148.7833
      0.8749      66.1757    -147.9447
      0.8766      65.6172    -147.1119
      0.8782      65.0664    -146.2849
      0.8798      64.5233    -145.4633
      0.8814      63.9874    -144.6478
      0.8830      63.4589    -143.8380
      0.8846      62.9376    -143.0333
      0.8862      62.4233    -142.2349
      0.8878      61.9160    -141.4412
      0.8894      61.4155    -140.6532
      0.8910      60.9217    -139.8707
      0.8926      60.4346    -139.0933
      0.8942      59.9541    -138.3217
      0.8958      59.4800    -137.5551
      0.8974      59.0122    -136.7938
      0.8990      58.5508    -136.0375
      0.9006      58.0954    -135.2867
      0.9022      57.6460    -134.5408
      0.9038      57.2027    -133.7997
      0.9054      56.7652    -133.0641
      0.9070      56.3337    -132.3331
      0.9086      55.9077    -131.6074
      0.9102      55.4875    -130.8864
      0.9118      55.0727    -130.1703
      0.9134      54.6634    -129.4588
      0.9150      54.2596    -128.7525
      0.9166      53.8610    -128.0506
      0.9182      53.4677    -127.3534
      0.9198      53.0795    -126.6610
      0.9214      52.6965    -125.9732
      0.9230      52.3185    -125.2901
      0.9246      51.9455    -124.6116
      0.9263      51.5774    -123.9373
      0.9279      51.2142    -123.2675
      0.9295      50.8557    -122.6024
      0.9311      50.5020    -121.9415
      0.9327      50.1529    -121.2854
      0.9343      49.8083    -120.6333
      0.9359      49.4684    -119.9859
      0.9375      49.1330    -119.3428
      0.9391      48.8019    -118.7035
      0.9407      48.4752    -118.0686
      0.9423      48.1529    -117.4377
      0.9439      47.8348    -116.8115
      0.9455      47.5209    -116.1891
      0.9471      47.2112    -115.5713
      0.9487      46.9056    -114.9577
      0.9503      46.6040    -114.3477
      0.9519      46.3065    -113.7420
      0.9535      46.0129    -113.1402
      0.9551      45.7232    -112.5427
      0.9567      45.4374    -111.9491
      0.9583      45.1554    -111.3594
      0.9599      44.8773    -110.7739
      0.9615      44.6028    -110.1921
      0.9631      44.3320    -109.6143
      0.9647      44.0648    -109.0405
      0.9663      43.8013    -108.4705
      0.9679      43.5413    -107.9044
      0.9695      43.2848    -107.3421
      0.9711      43.0318    -106.7837
      0.9727      42.7821    -106.2292
      0.9743      42.5359    -105.6783
      0.9760      42.2929    -105.1314
      0.9776      42.0533    -104.5883
      0.9792      41.8170    -104.0490
      0.9808      41.5838    -103.5135
      0.9824      41.3538    -102.9817
      0.9840      41.1269    -102.4538
      0.9856      40.9030    -101.9294
      0.9872      40.6822    -101.4088
      0.9888      40.4643    -100.8919
      0.9904      40.2494    -100.3786
     0.99198     40.03738    -99.86917
     0.99359     39.82817    -99.36354
     0.99519     39.62177    -98.86152
     0.99679     39.41803    -98.36306
     0.99840     39.21704    -97.86835
     1.00000     39.01870    -97.37733
# 
# 07/28/2018 at 15:52 YAMBO_RT @ narro [start]
# 07/28/2018 at 15:52                  [end]
#
# .-Input file : yambo.in
# | optics                         # [R OPT] Optics
# | bse                            # [R BSE] Bethe Salpeter Equation.
# | BoseTemp=  0.02586     eV      # Bosonic Temperature
# | FFTGvecs=  603         RL      # [FFT] Plane-waves
# | X_Threads= 1                   # [OPENMP/X] Number of threads for response functions
# | DIP_Threads= 1                 # [OPENMP/X] Number of threads for dipoles
# | K_Threads= 1                   # [OPENMP/BSK] Number of threads for response functions
# | BSEmod= "retarded"             # [BSE] resonant/retarded/coupling
# | BSKmod= "IP"                   # [BSE] IP/Hartree/HF/ALDA/SEX/BSfxc
# | DipApproach= "Shifted grids"   # [Xd] [G-space v/R-space x/Covariant/Shifted grids]
# | ShiftedPaths= "SHIFTED_grids/shift_1 SHIFTED_grids/shift_2 SHIFTED_grids/shift_3" # [Xd] Shifted grids paths (separated by a space)
# | #EvalKerr                      # [BSE] Compute the Kerr effect
# | #AnHall                        # [BSE] Add the anomalous Hall effect to eps if using length gauge
# | DrudeWBS= ( 4.800000 , 5.650000 )  eV  # [BSE] Drude plasmon
# | % BEnRange
# |  0.200000 | 1.000000 | eV      # [BSS] Energy range
# | %
# | % BDmRange
# |   0.10000 |  0.10000 | eV      # [BSS] Damping range
# | %
# | BEnSteps=  500                 # [BSS] Energy steps
# | % BLongDir
# | 0.1000E-4 | 0.000    | 0.000    |        # [BSS] [cc] Electric Field
# | %
# | % BSEBands
# |   1 | 18 |                     # [BSK] Bands range
# | %
