#                                                                     
#  ____  ____     _       ____    ____  ______      ___               
# |_  _||_  _|   / \     |_   \  /   _||_   _ \   ."   `.             
#   \ \  / /    / _ \      |   \/   |    | |_) | /  .-.  \            
#    \ \/ /    / ___ \     | |\  /| |    |  __". | |   | |            
#    _|  |_  _/ /   \ \_  _| |_\/_| |_  _| |__) |\  `-"  /            
#   |______||____| |____||_____||_____||_______/  `.___."             
#                                                                     
#                                                                     
#                                                                     
# Version 5.2.0 Revision 22885 Hash (prev commit) 41fc9d87d4          
#                 Branch is phys-dichroism                            
#          MPI+OpenMP+SLK+SLEPC+HDF5_MPI_IO Build                     
#                http://www.yambo-code.org                            
#
# Joint Density of states @ Q(1):   0.00000000     0.999999975E-5   0.00000000    [q->0 direction]
#
# [GEN] GF Energies                               : Perdew, Burke & Ernzerhof(X)+Perdew, Burke & Ernzerhof(C)
# [GEN] Green`s Function                          : Retarded
#
# [GEN] Gauge                                     : Length
# [GEN] [r,Vnl] included                          : yes
#
# DIP band range                                  :   5  10
# DIP band range limits                           :  10   5
# DIP e/h energy range                            :  -1.00000000     -1.00000000    [eV]
# RL vectors in the sum                           :   603
# [r,Vnl] included                                : yes
# Bands ordered                                   : no
# Direct v evaluation                             : no
# Approach used                                   : G-space v
# Dipoles computed                                : R V P Spin
# Wavefunctions                                   : Perdew, Burke & Ernzerhof(X)+Perdew, Burke & Ernzerhof(C)
#
#
# [K] Identifier                                  :   4572
# [K] Dimension                                   :   634
# [K] Bands                                       :   5  10
# [K] Exchange res                                : yes
# [K] Correlation res                             : no
# [K] Kernel`s coupling                           : no
# [K] Exchange cpl                                : no
# [K] Correlation cpl                             : no
# [K] W interaction is bare                       : no
# [K] ALDA kernel in R-space                      : yes
# [K] RL vectors exchange                         :  1157
# [K] E/h energy range                            :  -1.00000000     -1.00000000    [eV]
# [K] Coupling range                              :   100.000000      100.000000    [o/o]
# [X] Response Kind                               : BAR
#
#
#    E[1] [eV]          Im(jdos)           Re(jdos)           Im(jdos_o)         Re(jdos_o)
#
       -2.000000          -46.49834           13.91417          -46.24128           17.82602
       -1.996000          -46.17687           14.44490          -45.69984           18.39369
       -1.992000          -45.84063           14.94324          -45.13692           18.91265
       -1.988000          -45.49301           15.41050          -44.55749           19.38306
       -1.984000          -45.13704           15.84821          -43.96579           19.80532
       -1.980000          -44.77516           16.25818          -43.36634           20.18044
       -1.976000          -44.40942           16.64246          -42.76329           20.50981
       -1.972000          -44.04120           17.00312          -42.15979           20.79515
       -1.968000          -43.67151           17.34215          -41.55952           21.03830
       -1.964000          -43.30077           17.66154          -40.96534           21.24165
       -1.960000          -42.92939           17.96303          -40.37961           21.40739
       -1.956000          -42.55721           18.24824          -39.80461           21.53816
       -1.952000          -42.18359           18.51835          -39.24195           21.63647
       -1.948000          -41.80801           18.77437          -38.69320           21.70500
       -1.944000          -41.42974           19.01694          -38.15897           21.74620
       -1.940000          -41.04792           19.24631          -37.63994           21.76266
       -1.936000          -40.66170           19.46249          -37.13633           21.75678
       -1.932000          -40.27031           19.66519          -36.64790           21.73052
       -1.928000          -39.87319           19.85387          -36.17457           21.68599
       -1.924000          -39.46978           20.02759          -35.71524           21.62455
       -1.920000          -39.05988           20.18550          -35.26957           21.54769
       -1.916000          -38.64328           20.32634          -34.83628           21.45625
       -1.912000          -38.22028           20.44891          -34.41456           21.35070
       -1.908000          -37.79115           20.55184          -34.00367           21.23146
       -1.904000          -37.35669           20.63377          -33.60291           21.09828
       -1.900000          -36.91770           20.69338          -33.21155           20.95082
       -1.896000          -36.47535           20.72935          -32.82961           20.78854
       -1.892000          -36.03110           20.74042          -32.45694           20.61059
       -1.888000          -35.58655           20.72556          -32.09404           20.41630
       -1.884000          -35.14352           20.68383          -31.74148           20.20479
       -1.880000          -34.70409           20.61444          -31.40038           19.97552
       -1.876000          -34.27043           20.51702          -31.07198           19.72771
       -1.872000          -33.84484           20.39112          -30.75769           19.46111
       -1.868000          -33.42971           20.23686          -30.45945           19.17586
       -1.864000          -33.02754           20.05451          -30.17872           18.87176
       -1.860000          -32.64074           19.84460          -29.91771           18.54950
       -1.856000          -32.27178           19.60798          -29.67802           18.20981
       -1.852000          -31.92289           19.34573          -29.46161           17.85363
       -1.848000          -31.59653           19.05924          -29.27012           17.48236
       -1.844000          -31.29450           18.75003          -29.10527           17.09739
       -1.840000          -31.01904           18.41997          -28.96842           16.70047
       -1.836000          -30.77171           18.07101          -28.86086           16.29338
       -1.832000          -30.55420           17.70523          -28.78379           15.87820
       -1.828000          -30.36786           17.32491          -28.73825           15.45695
       -1.824000          -30.21377           16.93241          -28.72471           15.03190
       -1.820000          -30.09287           16.53015          -28.74377           14.60527
       -1.816000          -30.00601           16.12057          -28.79593           14.17937
       -1.812000          -29.95362           15.70620          -28.88136           13.75651
       -1.808000          -29.93610           15.28960          -28.99999           13.33908
       -1.804000          -29.95348           14.87322          -29.15164           12.92943
       -1.800000          -30.00579           14.45961          -29.33595           12.52992
       -1.796000          -30.09291           14.05126          -29.55248           12.14286
       -1.792000          -30.21422           13.65064          -29.80025           11.77060
       -1.788000          -30.36926           13.26011          -30.07881           11.41532
       -1.784000          -30.55733           12.88202          -30.38682           11.07925
       -1.780000          -30.77752           12.51868          -30.72301           10.76454
       -1.776000          -31.02879           12.17224          -31.08622           10.47320
       -1.772000          -31.30995           11.84483          -31.47462           10.20723
       -1.768000          -31.61974           11.53853          -31.88673           9.968447
       -1.764000          -31.95680           11.25522          -32.32086           9.758578
       -1.760000          -32.31961           10.99673          -32.77475           9.579156
       -1.756000          -32.70635           10.76485          -33.24639           9.431750
       -1.752000          -33.11557           10.56115          -33.73369           9.317489
       -1.748000          -33.54541           10.38719          -34.23432           9.237579
       -1.744000          -33.99393           10.24442          -34.74603           9.192986
       -1.740000          -34.45935           10.13415          -35.26647           9.184474
       -1.736000          -34.93957           10.05769          -35.79311           9.212616
       -1.732000          -35.43255           10.01617          -36.32354           9.277997
       -1.728000          -35.93621           10.01079          -36.85531           9.380908
       -1.724000          -36.44827           10.04258          -37.38597           9.521532
       -1.720000          -36.96642           10.11254          -37.91296           9.699952
       -1.716000          -37.48822           10.22161          -38.43382           9.916101
       -1.712000          -38.01101           10.37061          -38.94600           10.16978
       -1.708000          -38.53206           10.56032          -39.44704           10.46074
       -1.704000          -39.04841           10.79136          -39.93413           10.78848
       -1.700000          -39.55682           11.06411          -40.40462           11.15236
       -1.696000          -40.05392           11.37877          -40.85564           11.55159
       -1.692000          -40.53626           11.73524          -41.28457           11.98512
       -1.688000          -40.99992           12.13315          -41.68866           12.45161
       -1.684000          -41.44110           12.57155          -42.06465           12.94946
       -1.680000          -41.85567           13.04918          -42.41028           13.47676
       -1.676000          -42.23985           13.56423          -42.72225           14.03116
       -1.672000          -42.58948           14.11431          -42.99825           14.60999
       -1.668000          -42.90083           14.69643          -43.23584           15.21013
       -1.664000          -43.17051           15.30704          -43.43273           15.82805
       -1.660000          -43.39507           15.94207          -43.58761           16.45989
       -1.656000          -43.57193           16.59679          -43.69881           17.10143
       -1.652000          -43.69925           17.26620          -43.76613           17.74815
       -1.648000          -43.77572           17.94479          -43.78947           18.39555
       -1.644000          -43.80082           18.62696          -43.76944           19.03889
       -1.640000          -43.77510           19.30698          -43.70760           19.67374
       -1.636000          -43.69954           19.97935          -43.60638           20.29603
       -1.632000          -43.57644           20.63880          -43.46840           20.90197
       -1.628000          -43.40879           21.28051          -43.29701           21.48847
       -1.624000          -43.20012           21.90031          -43.09671           22.05310
       -1.620000          -42.95434           22.49483          -42.87098           22.59450
       -1.616000          -42.67626           23.06152          -42.62438           23.11186
       -1.612000          -42.37047           23.59863          -42.36077           23.60530
       -1.608000          -42.04164           24.10553          -42.08397           24.07578
       -1.604000          -41.69405           24.58217          -41.79738           24.52514
       -1.600000          -41.33185           25.02940          -41.50337           24.95547
       -1.596000          -40.95856           25.44868          -41.20410           25.36959
       -1.592000          -40.57706           25.84199          -40.90067           25.77037
       -1.588000          -40.18961           26.21159          -40.59309           26.16058
       -1.584000          -39.79772           26.55993          -40.28106           26.54323
       -1.580000          -39.40208           26.88939          -39.96292           26.92073
       -1.576000          -39.00277           27.20215          -39.63684           27.29493
       -1.572000          -38.59947           27.50016          -39.30033           27.66715
       -1.568000          -38.19115           27.78480          -38.95038           28.03778
       -1.564000          -37.77659           28.05692          -38.58408           28.40655
       -1.560000          -37.35442           28.31690          -38.19836           28.77230
       -1.556000          -36.92322           28.56440          -37.79044           29.13289
       -1.552000          -36.48183           28.79869          -37.35818           29.48559
       -1.548000          -36.02927           29.01843          -36.89972           29.82710
       -1.544000          -35.56486           29.22200          -36.41426           30.15359
       -1.540000          -35.08876           29.40748          -35.90170           30.46078
       -1.536000          -34.60118           29.57290          -35.36244           30.74483
       -1.532000          -34.10307           29.71630          -34.79840           31.00147
       -1.528000          -33.59583           29.83585          -34.21175           31.22692
       -1.524000          -33.08106           29.92997          -33.60524           31.41824
       -1.520000          -32.56111           29.99738          -32.98268           31.57236
       -1.516000          -32.03798           30.03731          -32.34761           31.68734
       -1.512000          -31.51433           30.04919          -31.70443           31.76176
       -1.508000          -30.99234           30.03308          -31.05727           31.79490
       -1.504000          -30.47444           29.98913          -30.41011           31.78668
       -1.500000          -29.96295           29.91805          -29.76708           31.73768
       -1.496000          -29.45979           29.82071          -29.13199           31.64887
       -1.492000          -28.96689           29.69825          -28.50827           31.52171
       -1.488000          -28.48583           29.55187          -27.89884           31.35811
       -1.484000          -28.01801           29.38301          -27.30664           31.16018
       -1.480000          -27.56461           29.19307          -26.73396           30.93024
       -1.476000          -27.12657           28.98356          -26.18263           30.67058
       -1.472000          -26.70478           28.75585          -25.65430           30.38386
       -1.468000          -26.29974           28.51154          -25.15020           30.07242
       -1.464000          -25.91210           28.25198          -24.67139           29.73891
       -1.460000          -25.54196           27.97861          -24.21837           29.38564
       -1.456000          -25.18987           27.69278          -23.79172           29.01492
       -1.452000          -24.85578           27.39582          -23.39152           28.62910
       -1.448000          -24.53961           27.08909          -23.01792           28.23012
       -1.444000          -24.24146           26.77376          -22.67078           27.82018
       -1.440000          -23.96097           26.45106          -22.34975           27.40107
       -1.436000          -23.69786           26.12205          -22.05456           26.97470
       -1.432000          -23.45182           25.78780          -21.78475           26.54254
       -1.428000          -23.22236           25.44916          -21.53972           26.10644
       -1.424000          -23.00893           25.10699          -21.31889           25.66782
       -1.420000          -22.81102           24.76211          -21.12144           25.22801
       -1.416000          -22.62807           24.41500          -20.94669           24.78838
       -1.412000          -22.45933           24.06630          -20.79370           24.35017
       -1.408000          -22.30435           23.71631          -20.66154           23.91449
       -1.404000          -22.16260           23.36541          -20.54927           23.48257
       -1.400000          -22.03337           23.01387          -20.45575           23.05521
       -1.396000          -21.91627           22.66190          -20.37983           22.63332
       -1.392000          -21.81085           22.30954          -20.32019           22.21759
       -1.388000          -21.71675           21.95696          -20.27569           21.80872
       -1.384000          -21.63350           21.60424          -20.24477           21.40716
       -1.380000          -21.56066           21.25139          -20.22608           21.01315
       -1.376000          -21.49800           20.89844          -20.21822           20.62677
       -1.372000          -21.44525           20.54541          -20.21961           20.24797
       -1.368000          -21.40205           20.19228          -20.22887           19.87644
       -1.364000          -21.36800           19.83902          -20.24457           19.51154
       -1.360000          -21.34293           19.48545          -20.26543           19.15259
       -1.356000          -21.32646           19.13154          -20.29031           18.79856
       -1.352000          -21.31844           18.77705          -20.31817           18.44834
       -1.348000          -21.31860           18.42178          -20.34836           18.10052
       -1.344000          -21.32680           18.06544          -20.38020           17.75370
       -1.340000          -21.34281           17.70779          -20.41346           17.40632
       -1.336000          -21.36659           17.34837          -20.44828           17.05672
       -1.332000          -21.39818           16.98692          -20.48489           16.70341
       -1.328000          -21.43756           16.62300          -20.52391           16.34492
       -1.324000          -21.48490           16.25620          -20.56613           15.97978
       -1.320000          -21.54027           15.88614          -20.61262           15.60684
       -1.316000          -21.60382           15.51240          -20.66458           15.22498
       -1.312000          -21.67607           15.13454          -20.72332           14.83336
       -1.308000          -21.75720           14.75214          -20.79046           14.43137
       -1.304000          -21.84754           14.36476          -20.86744           14.01850
       -1.300000          -21.94774           13.97196          -20.95581           13.59455
       -1.296000          -22.05820           13.57332          -21.05724           13.15944
       -1.292000          -22.17976           13.16839          -21.17331           12.71334
       -1.288000          -22.31302           12.75679          -21.30540           12.25641
       -1.284000          -22.45887           12.33817          -21.45506           11.78916
       -1.280000          -22.61827           11.91212          -21.62363           11.31202
       -1.276000          -22.79224           11.47846          -21.81258           10.82562
       -1.272000          -22.98214           11.03700          -22.02326           10.33064
       -1.268000          -23.18901           10.58761          -22.25675           9.827838
       -1.264000          -23.41430           10.13035          -22.51444           9.317957
       -1.260000          -23.65952           9.665425          -22.79752           8.801939
       -1.256000          -23.92602           9.193099          -23.10707           8.280615
       -1.252000          -24.21547           8.713797          -23.44442           7.755024
       -1.248000          -24.52937           8.228172          -23.81062           7.226170
       -1.244000          -24.86938           7.736903          -24.20694           6.695114
       -1.240000          -25.23715           7.240928          -24.63456           6.163054
       -1.236000          -25.63415           6.741278          -25.09464           5.631195
       -1.232000          -26.06221           6.239169          -25.58856           5.100893
       -1.228000          -26.52275           5.735919          -26.11748           4.573618
       -1.224000          -27.01751           5.233109          -26.68272           4.050921
       -1.220000          -27.54808           4.732389          -27.28556           3.534571
       -1.216000          -28.11588           4.235631          -27.92733           3.026436
       -1.212000          -28.72264           3.744925          -28.60946           2.528577
       -1.208000          -29.36977           3.262511          -29.33306           2.043374
       -1.204000          -30.05859           2.790798          -30.09958           1.573251
       -1.200000          -30.79074           2.332633          -30.91021           1.121013
       -1.196000          -31.56723           1.890879          -31.76600           0.689776
       -1.192000          -32.38942           1.468797          -32.66828           0.282850
       -1.188000          -33.25845           1.069910          -33.61769          -0.096110
       -1.184000          -34.17487           0.698047          -34.61486          -0.443076
       -1.180000          -35.13953           0.357370          -35.66053          -0.753672
       -1.176000          -36.15269           0.052395          -36.75447          -1.023274
       -1.172000          -37.21455          -0.212162          -37.89662          -1.246743
       -1.168000          -38.32446          -0.431089          -39.08624          -1.418723
       -1.164000          -39.48171          -0.598993          -40.32204          -1.533548
       -1.160000          -40.68476          -0.710017          -41.60217          -1.585164
       -1.156000          -41.93182          -0.758278          -42.92395          -1.567459
       -1.152000          -43.21993          -0.737640          -44.28412          -1.474029
       -1.148000          -44.54530          -0.641748          -45.67807          -1.298542
       -1.144000          -45.90368          -0.464381          -47.10098          -1.034722
       -1.140000          -47.28965          -0.199419          -48.54640          -0.676433
       -1.136000          -48.69656           0.159024          -50.00697          -0.218050
       -1.132000          -50.11732           0.616396          -51.47439           0.345645
       -1.128000          -51.54304           1.177483          -52.93948           1.018915
       -1.124000          -52.96442           1.846260          -54.39145           1.805223
       -1.120000          -54.37102           2.625767          -55.81914           2.706810
       -1.116000          -55.75163           3.517782          -57.21103           3.724503
       -1.112000          -57.09460           4.522609          -58.55424           4.857687
       -1.108000          -58.38745           5.639156          -59.83622           6.104079
       -1.104000          -59.61768           6.864607          -61.04395           7.459629
       -1.100000          -60.77314           8.194376          -62.16485           8.918487
       -1.096000          -61.84177           9.622163          -63.18758           10.47297
       -1.092000          -62.81210           11.13992          -64.10016           12.11378
       -1.088000          -63.67368           12.73788          -64.89249           13.82980
       -1.084000          -64.41758           14.40485          -65.55680           15.60863
       -1.080000          -65.03614           16.12839          -66.08517           17.43657
       -1.076000          -65.52331           17.89500          -66.47315           19.29902
       -1.072000          -65.87506           19.69015          -66.71716           21.18051
       -1.068000          -66.08916           21.49913          -66.81594           23.06538
       -1.064000          -66.16547           23.30703          -66.77097           24.93780
       -1.060000          -66.10638           25.09894          -66.58534           26.78233
       -1.056000          -65.91545           26.86062          -66.26450           28.58401
       -1.052000          -65.59828           28.57865          -65.81505           30.32920
       -1.048000          -65.16251           30.24047          -65.24656           32.00501
       -1.044000          -64.61713           31.83507          -64.56931           33.60041
       -1.040000          -63.97231           33.35276          -63.79510           35.10614
       -1.036000          -63.23873           34.78571          -62.93646           36.51442
       -1.032000          -62.42834           36.12747          -62.00659           37.81981
       -1.028000          -61.55333           37.37365          -61.01941           39.01888
       -1.024000          -60.62563           38.52137          -59.98774           40.10983
       -1.020000          -59.65721           39.56944          -58.92500           41.09289
       -1.016000          -58.65945           40.51823          -57.84322           41.96970
       -1.012000          -57.64367           41.36950          -56.75472           42.74406
       -1.008000          -56.62000           42.12616          -55.66929           43.42025
       -1.004000          -55.59757           42.79219          -54.59657           44.00404
       -1.000000          -54.58504           43.37237          -53.54489           44.50220
       -0.996000          -53.58946           43.87234          -52.52075           44.92164
       -0.992000          -52.61748           44.29810          -51.53024           45.26994
       -0.988000          -51.67455           44.65608          -50.57771           45.55511
       -0.984000          -50.76484           44.95303          -49.66611           45.78465
       -0.980000          -49.89192           45.19561          -48.79775           45.96634
       -0.976000          -49.05847           45.39071          -47.97353           46.10746
       -0.972000          -48.26586           45.54511          -47.19370           46.21537
       -0.968000          -47.51506           45.66529          -46.45799           46.29655
       -0.964000          -46.80635           45.75758          -45.76463           46.35733
       -0.960000          -46.13906           45.82795          -45.11197           46.40283
       -0.956000          -45.51192           45.88224          -44.49731           46.43875
       -0.952000          -44.92311           45.92545          -43.91782           46.46889
       -0.948000          -44.37037           45.96258          -43.37064           46.49733
       -0.944000          -43.85109           45.99784          -42.85191           46.52737
       -0.940000          -43.36212           46.03514          -42.35855           46.56120
       -0.936000          -42.89988           46.07762          -41.88678           46.60144
       -0.932000          -42.46089           46.12799          -41.43267           46.64897
       -0.928000          -42.04083           46.18870          -40.99276           46.70511
       -0.924000          -41.63607           46.26092          -40.56393           46.77029
       -0.920000          -41.24249           46.34585          -40.14219           46.84454
       -0.916000          -40.85578           46.44399          -39.72471           46.92775
       -0.912000          -40.47221           46.55501          -39.30817           47.01904
       -0.908000          -40.08769           46.67815          -38.88985           47.11720
       -0.904000          -39.69824           46.81229          -38.46681           47.22089
       -0.900000          -39.30077           46.95547          -38.03696           47.32852
       -0.896000          -38.89200           47.10544          -37.59788           47.43774
       -0.892000          -38.46918           47.25924          -37.14774           47.54624
       -0.888000          -38.03020           47.41381          -36.68519           47.65176
       -0.884000          -37.57338           47.56542          -36.20924           47.75077
       -0.880000          -37.09759           47.71061          -35.71887           47.84069
       -0.876000          -36.60254           47.84519          -35.21440           47.91822
       -0.872000          -36.08846           47.96549          -34.69626           47.98061
       -0.868000          -35.55622           48.06755          -34.16505           48.02430
       -0.864000          -35.00741           48.14776          -33.62228           48.04689
       -0.860000          -34.44400           48.20294          -33.06993           48.04517
       -0.856000          -33.86870           48.23021          -32.51017           48.01732
       -0.852000          -33.28445           48.22710          -31.94566           47.96156
       -0.848000          -32.69429           48.19178          -31.37909           47.87595
       -0.844000          -32.10193           48.12303          -30.81340           47.75985
       -0.840000          -31.51085           48.01994          -30.25188           47.61256
       -0.836000          -30.92430           47.88231          -29.69741           47.43389
       -0.832000          -30.34599           47.71045          -29.15294           47.22443
       -0.828000          -29.77873           47.50491          -28.62107           46.98495
       -0.824000          -29.22584           47.26675          -28.10452           46.71584
       -0.820000          -28.68979           46.99728          -27.60556           46.41875
       -0.816000          -28.17312           46.69812          -27.12637           46.09521
       -0.812000          -27.67787           46.37097          -26.66865           45.74686
       -0.808000          -27.20584           46.01768          -26.23396           45.37502
       -0.804000          -26.75871           45.64021          -25.82386           44.98165
       -0.800000          -26.33749           45.24048          -25.43900           44.56844
       -0.796000          -25.94347           44.82039          -25.08068           44.13727
       -0.792000          -25.57734           44.38185          -24.74940           43.68977
       -0.788000          -25.23967           43.92662          -24.44565           43.22739
       -0.784000          -24.93111           43.45643          -24.16995           42.75159
       -0.780000          -24.65187           42.97295          -23.92254           42.26427
       -0.776000          -24.40226           42.47765          -23.70382           41.76655
       -0.772000          -24.18249           41.97202          -23.51370           41.25956
       -0.768000          -23.99256           41.45737          -23.35242           40.74480
       -0.764000          -23.83264           40.93502          -23.22003           40.22318
       -0.760000          -23.70290           40.40603          -23.11677           39.69586
       -0.756000          -23.60317           39.87155          -23.04256           39.16373
       -0.752000          -23.53378           39.33269          -22.99759           38.62783
       -0.748000          -23.49462           38.79031          -22.98204           38.08893
       -0.744000          -23.48586           38.24544          -22.99602           37.54800
       -0.740000          -23.50780           37.69893          -23.03961           37.00587
       -0.736000          -23.56051           37.15165          -23.11333           36.46328
       -0.732000          -23.64431           36.60463          -23.21730           35.92127
       -0.728000          -23.75956           36.05864          -23.35203           35.38038
       -0.724000          -23.90644           35.51457          -23.51775           34.84163
       -0.720000          -24.08556           34.97354          -23.71498           34.30606
       -0.716000          -24.29732           34.43651          -23.94432           33.77465
       -0.712000          -24.54208           33.90445          -24.20604           33.24807
       -0.708000          -24.82064           33.37860          -24.50123           32.72790
       -0.704000          -25.13333           32.86023          -24.83024           32.21500
       -0.700000          -25.48096           32.35064          -25.19361           31.71111
       -0.696000          -25.86413           31.85140          -25.59233           31.21742
       -0.692000          -26.28346           31.36400          -26.02687           30.73556
       -0.688000          -26.73946           30.89035          -26.49795           30.26751
       -0.684000          -27.23285           30.43237          -27.00637           29.81495
       -0.680000          -27.76422           29.99214          -27.55266           29.38020
       -0.676000          -28.33378           29.57198          -28.13730           28.96552
       -0.672000          -28.94216           29.17443          -28.76064           28.57361
       -0.668000          -29.58957           28.80223          -29.42320           28.20703
       -0.664000          -30.27584           28.45833          -30.12492           27.86882
       -0.660000          -31.00100           28.14587          -30.86580           27.56217
       -0.656000          -31.76441           27.86809          -31.64527           27.29076
       -0.652000          -32.56559           27.62865          -32.46288           27.05780
       -0.648000          -33.40321           27.43103          -33.31741           26.86741
       -0.644000          -34.27592           27.27921          -34.20760           26.72328
       -0.640000          -35.18174           27.17686          -35.13141           26.62957
       -0.636000          -36.11852           27.12792          -36.08658           26.59038
       -0.632000          -37.08308           27.13627          -37.07005           26.60953
       -0.628000          -38.07204           27.20553          -38.07822           26.69119
       -0.624000          -39.08164           27.33924          -39.10722           26.83895
       -0.620000          -40.10724           27.54055          -40.15209           27.05623
       -0.616000          -41.14389           27.81236          -41.20762           27.34598
       -0.612000          -42.18599           28.15693          -42.26820           27.71066
       -0.608000          -43.22792           28.57603          -43.32736           28.15225
       -0.604000          -44.26336           29.07078          -44.37860           28.67173
       -0.600000          -45.28587           29.64159          -45.41499           29.26947
       -0.596000          -46.28930           30.28810          -46.42955           29.94502
       -0.592000          -47.26633           31.00923          -47.41513           30.69672
       -0.588000          -48.21138           31.80309          -48.36525           31.52232
       -0.584000          -49.11819           32.66703          -49.27308           32.41886
       -0.580000          -49.98075           33.59785          -50.13338           33.38221
       -0.576000          -50.79393           34.59167          -50.94031           34.40778
       -0.572000          -51.55318           35.64418          -51.68936           35.49078
       -0.568000          -52.25412           36.75076          -52.37649           36.62563
       -0.564000          -52.89349           37.90639          -52.99916           37.80677
       -0.560000          -53.46803           39.10598          -53.55429           39.02867
       -0.556000          -53.97537           40.34445          -54.04033           40.28588
       -0.552000          -54.41347           41.61652          -54.45633           41.57272
       -0.548000          -54.78109           42.91713          -54.80114           42.88412
       -0.544000          -55.07698           44.24108          -55.07482           44.21524
       -0.540000          -55.30043           45.58353          -55.27704           45.56095
       -0.536000          -55.45064           46.93936          -55.40811           46.91707
       -0.532000          -55.52832           48.30373          -55.46821           48.27904
       -0.528000          -55.53288           49.67188          -55.45819           49.64257
       -0.524000          -55.46501           51.03898          -55.37837           51.00374
       -0.520000          -55.32542           52.40049          -55.22994           52.35824
       -0.516000          -55.11518           53.75169          -55.01355           53.70197
       -0.512000          -54.83571           55.08809          -54.73093           55.03129
       -0.508000          -54.48834           56.40519          -54.38297           56.34168
       -0.504000          -54.07541           57.69875          -53.97199           57.63013
       -0.500000          -53.59874           58.96445          -53.49937           58.89212
       -0.496000          -53.06121           60.19837          -52.96766           60.12422
       -0.492000          -52.46534           61.39672          -52.37907           61.32289
       -0.488000          -51.81484           62.55552          -51.73656           62.48435
       -0.484000          -51.11277           63.67181          -51.04354           63.60572
       -0.480000          -50.36332           64.74200          -50.30295           64.68371
       -0.476000          -49.57027           65.76387          -49.51874           65.71587
       -0.472000          -48.73865           66.73490          -48.69524           66.70005
       -0.468000          -47.87283           67.65331          -47.83646           67.63393
       -0.464000          -46.97731           68.51801          -46.94677           68.51665
       -0.460000          -46.05762           69.32836          -46.03051           69.34723
       -0.456000          -45.11794           70.08423          -45.09240           70.12547
       -0.452000          -44.16301           70.78639          -44.13623           70.85147
       -0.448000          -43.19738           71.43550          -43.16619           71.52601
       -0.444000          -42.22462           72.03346          -42.18609           72.15038
       -0.440000          -41.24856           72.58191          -41.19902           72.72591
       -0.436000          -40.27201           73.08295          -40.20795           73.25385
       -0.432000          -39.29782           73.53896          -39.21547           73.73615
       -0.428000          -38.32803           73.95204          -38.22370           74.17463
       -0.424000          -37.36435           74.32471          -37.23438           74.57104
       -0.420000          -36.40818           74.65871          -36.24929           74.92658
       -0.416000          -35.46046           74.95676          -35.26954           75.24311
       -0.412000          -34.52205           75.22009          -34.29650           75.52217
       -0.408000          -33.59367           75.45061          -33.33128           75.76447
       -0.404000          -32.67585           75.64969          -32.37486           75.97157
       -0.400000          -31.76886           75.81842          -31.42834           76.14444
       -0.396000          -30.87342           75.95802          -30.49288           76.28400
       -0.392000          -29.98987           76.06953          -29.56947           76.39122
       -0.388000          -29.11894           76.15365          -28.65950           76.46732
       -0.384000          -28.26105           76.21127          -27.76359           76.51324
       -0.380000          -27.41709           76.24319          -26.88340           76.53005
       -0.376000          -26.58760           76.25022          -26.01972           76.51882
       -0.372000          -25.77345           76.23330          -25.17367           76.48122
       -0.368000          -24.97547           76.19330          -24.34620           76.41819
       -0.364000          -24.19441           76.13120          -23.53833           76.33180
       -0.360000          -23.43098           76.04791          -22.75075           76.22278
       -0.356000          -22.68608           75.94499          -21.98406           76.09308
       -0.352000          -21.96021           75.82340          -21.23899           75.94434
       -0.348000          -21.25415           75.68466          -20.51581           75.77818
       -0.344000          -20.56828           75.52981          -19.81483           75.59587
       -0.340000          -19.90296           75.36068          -19.13633           75.39936
       -0.336000          -19.25854           75.17838          -18.48026           75.19006
       -0.332000          -18.63508           74.98460          -17.84654           74.96946
       -0.328000          -18.03266           74.78068          -17.23499           74.73922
       -0.324000          -17.45115           74.56803          -16.64536           74.50031
       -0.320000          -16.89029           74.34791          -16.07719           74.25443
       -0.316000          -16.34985           74.12191          -15.53020           74.00271
       -0.312000          -15.82932           73.89112          -15.00374           73.74586
       -0.308000          -15.32819           73.65662          -14.49736           73.48579
       -0.304000          -14.84583           73.41986          -14.01030           73.22272
       -0.300000          -14.38167           73.18147          -13.54215           72.95798
       -0.296000          -13.93493           72.94257          -13.09219           72.69200
       -0.292000          -13.50491           72.70385          -12.65973           72.42625
       -0.288000          -13.09074           72.46601          -12.24407           72.16061
       -0.284000          -12.69164           72.22968          -11.84468           71.89602
       -0.280000          -12.30684           71.99548          -11.46073           71.63279
       -0.276000          -11.93549           71.76370          -11.09166           71.37165
       -0.272000          -11.57696           71.53448          -10.73695           71.11297
       -0.268000          -11.23034           71.30836          -10.39579           70.85708
       -0.264000          -10.89501           71.08538          -10.06773           70.60422
       -0.260000          -10.57031           70.86546          -9.752101           70.35466
       -0.256000          -10.25569           70.64891          -9.448393           70.10880
       -0.252000          -9.950630           70.43546          -9.156082           69.86652
       -0.248000          -9.654611           70.22536          -8.874630           69.62838
       -0.244000          -9.367250           70.01810          -8.603599           69.39420
       -0.240000          -9.088221           69.81424          -8.342458           69.16434
       -0.236000          -8.817163           69.61317          -8.090838           68.93884
       -0.232000          -8.553839           69.41521          -7.848258           68.71771
       -0.228000          -8.298043           69.22019          -7.614347           68.50082
       -0.224000          -8.049567           69.02804          -7.388765           68.28868
       -0.220000          -7.808227           68.83878          -7.171088           68.08122
       -0.216000          -7.573858           68.65253          -6.961003           67.87815
       -0.212000          -7.346343           68.46916          -6.758220           67.67993
       -0.208000          -7.125493           68.28882          -6.562420           67.48634
       -0.204000          -6.911221           68.11171          -6.373321           67.29739
       -0.200000          -6.703336           67.93760          -6.190632           67.11311
       -0.196000          -6.501710           67.76682          -6.014146           66.93368
       -0.192000          -6.306256           67.59943          -5.843606           66.75871
       -0.188000          -6.116755           67.43536          -5.678751           66.58868
       -0.184000          -5.933088           67.27486          -5.519414           66.42339
       -0.180000          -5.755111           67.11813          -5.365400           66.26281
       -0.176000          -5.582649           66.96498          -5.216467           66.10720
       -0.172000          -5.415537           66.81574          -5.072468           65.95612
       -0.168000          -5.253657           66.67033          -4.933230           65.81006
       -0.164000          -5.096823           66.52907          -4.798563           65.66891
       -0.160000          -4.944872           66.39181          -4.668337           65.53268
       -0.156000          -4.797660           66.25891          -4.542379           65.40143
       -0.152000          -4.655001           66.13023          -4.420509           65.27518
       -0.148000          -4.516747           66.00613          -4.302597           65.15418
       -0.144000          -4.382726           65.88651          -4.188437           65.03839
       -0.140000          -4.252759           65.77151          -4.077892           64.92789
       -0.136000          -4.126688           65.66141          -3.970790           64.82288
       -0.132000          -4.004306           65.55595          -3.866905           64.72341
       -0.128000          -3.885418           65.45575          -3.766067           64.62973
       -0.124000          -3.769844           65.36077          -3.668020           64.54185
       -0.120000          -3.657324           65.27087          -3.572550           64.45972
       -0.116000          -3.547653           65.18662          -3.479332           64.38406
       -0.112000          -3.440563           65.10762          -3.388128           64.31445
       -0.108000          -3.335761           65.03468          -3.298562           64.25137
       -0.104000          -3.232958           64.96725          -3.210277           64.19466
       -0.100000          -3.131805           64.90599          -3.122858           64.14441
       -0.096000          -3.031946           64.85066          -3.035869           64.10120
       -0.092000          -2.933007           64.80145          -2.948846           64.06463
       -0.088000          -2.834535           64.75842          -2.861262           64.03452
       -0.084000          -2.736091           64.72150          -2.772583           64.01114
       -0.080000          -2.637222           64.69085          -2.682273           63.99466
       -0.076000          -2.537409           64.66618          -2.589736           63.98390
       -0.072000          -2.436141           64.64743          -2.494415           63.97968
       -0.068000          -2.332921           64.63442          -2.395764           63.98096
       -0.064000          -2.227231           64.62688          -2.293248           63.98770
       -0.060000          -2.118581           64.62440          -2.186394           63.99910
       -0.056000          -2.006514           64.62667          -2.074789           64.01477
       -0.052000          -1.890611           64.63306          -1.958073           64.03387
       -0.048000          -1.770502           64.64307          -1.836012           64.05582
       -0.044000          -1.645922           64.65598          -1.708430           64.07985
       -0.040000          -1.516662           64.67129          -1.575268           64.10505
       -0.036000          -1.382620           64.68819          -1.436605           64.13117
       -0.032000          -1.243800           64.70590          -1.292570           64.15644
       -0.028000          -1.100332           64.72385          -1.143458           64.18120
       -0.024000          -0.952461           64.74110          -0.989651           64.20412
       -0.020000          -0.800533           64.75703          -0.831610           64.22455
       -0.016000          -0.645027           64.77102          -0.669900           64.24234
       -0.012000          -0.486529           64.78249          -0.505166           64.25645
       -0.008000          -0.325686           64.79093          -0.338095           64.26676
       -0.004000          -0.163244           64.79632          -0.169442           64.27331
        0.000000           0.000000           64.79800           0.000000           64.27532
        0.004000           0.163253           64.79632           0.169451           64.27332
        0.008000           0.325694           64.79094           0.338104           64.26675
        0.012000           0.486529           64.78249           0.505166           64.25645
        0.016000           0.645034           64.77101           0.669907           64.24235
        0.020000           0.800533           64.75703           0.831610           64.22455
        0.024000           0.952461           64.74110           0.989651           64.20412
        0.028000           1.100339           64.72385           1.143466           64.18120
        0.032000           1.243800           64.70590           1.292570           64.15644
        0.036000           1.382620           64.68819           1.436605           64.13117
        0.040000           1.516668           64.67129           1.575276           64.10503
        0.044000           1.645922           64.65598           1.708429           64.07985
        0.048000           1.770507           64.64307           1.836018           64.05582
        0.052000           1.890617           64.63306           1.958080           64.03389
        0.056000           2.006514           64.62668           2.074789           64.01477
        0.060000           2.118587           64.62440           2.186397           63.99908
        0.064000           2.227236           64.62688           2.293257           63.98770
        0.068000           2.332921           64.63441           2.395764           63.98096
        0.072000           2.436145           64.64743           2.494422           63.97967
        0.076000           2.537413           64.66618           2.589742           63.98390
        0.080000           2.637222           64.69086           2.682273           63.99466
        0.084000           2.736095           64.72149           2.772591           64.01114
        0.088000           2.834535           64.75841           2.861263           64.03452
        0.092000           2.933007           64.80145           2.948847           64.06462
        0.096000           3.031952           64.85066           3.035872           64.10120
        0.100000           3.131805           64.90599           3.122859           64.14441
        0.104000           3.232965           64.96725           3.210279           64.19466
        0.108000           3.335768           65.03469           3.298567           64.25135
        0.112000           3.440563           65.10763           3.388128           64.31445
        0.116000           3.547659           65.18663           3.479337           64.38408
        0.120000           3.657331           65.27088           3.572550           64.45972
        0.124000           3.769845           65.36077           3.668020           64.54185
        0.128000           3.885424           65.45576           3.766071           64.62975
        0.132000           4.004312           65.55596           3.866910           64.72343
        0.136000           4.126688           65.66141           3.970790           64.82288
        0.140000           4.252765           65.77152           4.077899           64.92791
        0.144000           4.382726           65.88651           4.188437           65.03839
        0.148000           4.516747           66.00613           4.302597           65.15418
        0.152000           4.655006           66.13024           4.420520           65.27518
        0.156000           4.797660           66.25892           4.542379           65.40143
        0.160000           4.944872           66.39181           4.668336           65.53268
        0.164000           5.096829           66.52906           4.798577           65.66891
        0.168000           5.253656           66.67034           4.933230           65.81006
        0.172000           5.415546           66.81577           5.072475           65.95612
        0.176000           5.582656           66.96500           5.216475           66.10721
        0.180000           5.755112           67.11813           5.365401           66.26281
        0.184000           5.933096           67.27487           5.519423           66.42339
        0.188000           6.116764           67.43537           5.678754           66.58867
        0.192000           6.306255           67.59943           5.843607           66.75871
        0.196000           6.501720           67.76684           6.014151           66.93368
        0.200000           6.703335           67.93759           6.190632           67.11311
        0.204000           6.911221           68.11170           6.373320           67.29739
        0.208000           7.125504           68.28882           6.562434           67.48634
        0.212000           7.346342           68.46916           6.758219           67.67993
        0.216000           7.573858           68.65253           6.961003           67.87815
        0.220000           7.808238           68.83878           7.171101           68.08122
        0.224000           8.049566           69.02804           7.388765           68.28867
        0.228000           8.298059           69.22019           7.614363           68.50085
        0.232000           8.553852           69.41521           7.848270           68.71772
        0.236000           8.817162           69.61317           8.090838           68.93884
        0.240000           9.088230           69.81425           8.342465           69.16438
        0.244000           9.367268           70.01811           8.603618           69.39420
        0.248000           9.654611           70.22536           8.874630           69.62838
        0.252000           9.950647           70.43546           9.156096           69.86652
        0.256000           10.25570           70.64890           9.448412           70.10881
        0.260000           10.57031           70.86546           9.752101           70.35466
        0.264000           10.89503           71.08539           10.06774           70.60423
        0.268000           11.23034           71.30836           10.39579           70.85708
        0.272000           11.57696           71.53448           10.73694           71.11297
        0.276000           11.93551           71.76370           11.09169           71.37170
        0.280000           12.30684           71.99548           11.46073           71.63279
        0.284000           12.69166           72.22971           11.84469           71.89603
        0.288000           13.09076           72.46603           12.24408           72.16068
        0.292000           13.50491           72.70385           12.65973           72.42626
        0.296000           13.93495           72.94257           13.09222           72.69202
        0.300000           14.38170           73.18147           13.54216           72.95798
        0.304000           14.84584           73.41987           14.01031           73.22272
        0.308000           15.32820           73.65665           14.49736           73.48579
        0.312000           15.82934           73.89113           15.00377           73.74591
        0.316000           16.34986           74.12191           15.53021           74.00271
        0.320000           16.89031           74.34792           16.07721           74.25443
        0.324000           17.45115           74.56803           16.64536           74.50031
        0.328000           18.03268           74.78068           17.23500           74.73922
        0.332000           18.63511           74.98461           17.84657           74.96946
        0.336000           19.25854           75.17838           18.48026           75.19006
        0.340000           19.90298           75.36069           19.13634           75.39936
        0.344000           20.56832           75.52982           19.81487           75.59588
        0.348000           21.25415           75.68466           20.51581           75.77818
        0.352000           21.96023           75.82339           21.23901           75.94434
        0.356000           22.68612           75.94500           21.98410           76.09309
        0.360000           23.43100           76.04791           22.75076           76.22278
        0.364000           24.19443           76.13120           23.53836           76.33177
        0.368000           24.97550           76.19330           24.34629           76.41824
        0.372000           25.77348           76.23329           25.17369           76.48120
        0.376000           26.58763           76.25023           26.01973           76.51884
        0.380000           27.41709           76.24319           26.88340           76.53005
        0.384000           28.26108           76.21127           27.76361           76.51323
        0.388000           29.11896           76.15364           28.65952           76.46732
        0.392000           29.98987           76.06953           29.56947           76.39122
        0.396000           30.87345           75.95800           30.49290           76.28398
        0.400000           31.76891           75.81842           31.42839           76.14442
        0.404000           32.67585           75.64969           32.37486           75.97158
        0.408000           33.59370           75.45061           33.33129           75.76447
        0.412000           34.52208           75.22009           34.29654           75.52216
        0.416000           35.46046           74.95675           35.26954           75.24311
        0.420000           36.40820           74.65870           36.24933           74.92660
        0.424000           37.36441           74.32469           37.23447           74.57105
        0.428000           38.32805           73.95203           38.22372           74.17463
        0.432000           39.29786           73.53894           39.21551           73.73615
        0.436000           40.27206           73.08292           40.20799           73.25381
        0.440000           41.24859           72.58191           41.19904           72.72590
        0.444000           42.22464           72.03344           42.18616           72.15041
        0.448000           43.19738           71.43550           43.16619           71.52601
        0.452000           44.16304           70.78637           44.13625           70.85146
        0.456000           45.11800           70.08419           45.09247           70.12539
        0.460000           46.05762           69.32836           46.03052           69.34723
        0.464000           46.97733           68.51800           46.94677           68.51665
        0.468000           47.87288           67.65327           47.83646           67.63389
        0.472000           48.73865           66.73490           48.69524           66.70005
        0.476000           49.57029           65.76385           49.51874           65.71586
        0.480000           50.36335           64.74195           50.30297           64.68372
        0.484000           51.11280           63.67178           51.04355           63.60567
        0.488000           51.81487           62.55549           51.73658           62.48430
        0.492000           52.46537           61.39665           52.37917           61.32281
        0.496000           53.06121           60.19834           52.96769           60.12420
        0.500000           53.59875           58.96443           53.49939           58.89206
        0.504000           54.07541           57.69875           53.97198           57.63013
        0.508000           54.48835           56.40515           54.38302           56.34165
        0.512000           54.83574           55.08802           54.73092           55.03122
        0.516000           55.11518           53.75169           55.01355           53.70196
        0.520000           55.32543           52.40046           55.22993           52.35819
        0.524000           55.46502           51.03891           55.37836           51.00364
        0.528000           55.53288           49.67188           55.45819           49.64257
        0.532000           55.52832           48.30369           55.46822           48.27902
        0.536000           55.45064           46.93929           55.40814           46.91697
        0.540000           55.30042           45.58350           55.27705           45.56091
        0.544000           55.07695           44.24103           55.07482           44.21518
        0.548000           54.78107           42.91706           54.80109           42.88406
        0.552000           54.41345           41.61649           54.45634           41.57272
        0.556000           53.97535           40.34443           54.04033           40.28586
        0.560000           53.46804           39.10598           53.55429           39.02867
        0.564000           52.89349           37.90636           52.99913           37.80674
        0.568000           52.25409           36.75072           52.37646           36.62559
        0.572000           51.55317           35.64418           51.68936           35.49078
        0.576000           50.79391           34.59165           50.94029           34.40776
        0.580000           49.98069           33.59779           50.13332           33.38214
        0.584000           49.11819           32.66703           49.27309           32.41886
        0.588000           48.21135           31.80307           48.36523           31.52229
        0.592000           47.26629           31.00918           47.41507           30.69670
        0.596000           46.28931           30.28810           46.42955           29.94501
        0.600000           45.28585           29.64157           45.41496           29.26946
        0.604000           44.26329           29.07075           44.37854           28.67169
        0.608000           43.22789           28.57603           43.32736           28.15224
        0.612000           42.18596           28.15693           42.26818           27.71066
        0.616000           41.14382           27.81233           41.20761           27.34597
        0.620000           40.10722           27.54055           40.15208           27.05623
        0.624000           39.08161           27.33923           39.10720           26.83896
        0.628000           38.07204           27.20553           38.07822           26.69120
        0.632000           37.08305           27.13627           37.07002           26.60952
        0.636000           36.11847           27.12791           36.08654           26.59043
        0.640000           35.18174           27.17686           35.13141           26.62957
        0.644000           34.27589           27.27921           34.20757           26.72328
        0.648000           33.40318           27.43102           33.31737           26.86741
        0.652000           32.56559           27.62865           32.46288           27.05781
        0.656000           31.76439           27.86809           31.64523           27.29077
        0.660000           31.00096           28.14590           30.86577           27.56216
        0.664000           30.27582           28.45834           30.12489           27.86882
        0.668000           29.58955           28.80224           29.42320           28.20704
        0.672000           28.94213           29.17445           28.76063           28.57362
        0.676000           28.33375           29.57198           28.13729           28.96553
        0.680000           27.76420           29.99214           27.55262           29.38019
        0.684000           27.23285           30.43237           27.00637           29.81495
        0.688000           26.73944           30.89038           26.49795           30.26753
        0.692000           26.28344           31.36403           26.02685           30.73558
        0.696000           25.86412           31.85140           25.59233           31.21742
        0.700000           25.48095           32.35066           25.19360           31.71112
        0.704000           25.13332           32.86026           24.83018           32.21504
        0.708000           24.82064           33.37861           24.50123           32.72790
        0.712000           24.54207           33.90446           24.20604           33.24808
        0.716000           24.29730           34.43654           23.94431           33.77468
        0.720000           24.08556           34.97354           23.71498           34.30606
        0.724000           23.90643           35.51458           23.51772           34.84165
        0.728000           23.75956           36.05866           23.35201           35.38039
        0.732000           23.64430           36.60464           23.21732           35.92128
        0.736000           23.56051           37.15167           23.11333           36.46329
        0.740000           23.50780           37.69896           23.03961           37.00588
        0.744000           23.48587           38.24545           22.99601           37.54800
        0.748000           23.49463           38.79032           22.98203           38.08894
        0.752000           23.53378           39.33269           22.99759           38.62783
        0.756000           23.60317           39.87156           23.04257           39.16375
        0.760000           23.70291           40.40605           23.11677           39.69587
        0.764000           23.83264           40.93502           23.22003           40.22318
        0.768000           23.99257           41.45739           23.35243           40.74480
        0.772000           24.18250           41.97205           23.51372           41.25960
        0.776000           24.40226           42.47765           23.70382           41.76655
        0.780000           24.65187           42.97296           23.92256           42.26427
        0.784000           24.93112           43.45645           24.16997           42.75160
        0.788000           25.23968           43.92664           24.44565           43.22739
        0.792000           25.57736           44.38186           24.74940           43.68977
        0.796000           25.94349           44.82041           25.08069           44.13730
        0.800000           26.33751           45.24049           25.43902           44.56844
        0.804000           26.75873           45.64022           25.82386           44.98166
        0.808000           27.20583           46.01769           26.23396           45.37502
        0.812000           27.67788           46.37098           26.66868           45.74689
        0.816000           28.17314           46.69814           27.12641           46.09519
        0.820000           28.68979           46.99728           27.60556           46.41875
        0.824000           29.22586           47.26675           28.10453           46.71584
        0.828000           29.77877           47.50492           28.62110           46.98495
        0.832000           30.34599           47.71045           29.15294           47.22442
        0.836000           30.92432           47.88231           29.69743           47.43390
        0.840000           31.51089           48.01995           30.25191           47.61259
        0.844000           32.10194           48.12303           30.81341           47.75989
        0.848000           32.69430           48.19178           31.37908           47.87594
        0.852000           33.28448           48.22710           31.94571           47.96155
        0.856000           33.86871           48.23021           32.51019           48.01732
        0.860000           34.44403           48.20295           33.06996           48.04515
        0.864000           35.00741           48.14776           33.62228           48.04689
        0.868000           35.55623           48.06756           34.16504           48.02432
        0.872000           36.08847           47.96549           34.69633           47.98058
        0.876000           36.60254           47.84519           35.21440           47.91822
        0.880000           37.09759           47.71061           35.71889           47.84068
        0.884000           37.57340           47.56541           36.20926           47.75075
        0.888000           38.03020           47.41381           36.68519           47.65176
        0.892000           38.46920           47.25925           37.14774           47.54625
        0.896000           38.89201           47.10543           37.59789           47.43772
        0.900000           39.30077           46.95548           38.03696           47.32852
        0.904000           39.69825           46.81228           38.46683           47.22088
        0.908000           40.08770           46.67813           38.88992           47.11725
        0.912000           40.47222           46.55501           39.30817           47.01903
        0.916000           40.85579           46.44399           39.72473           46.92777
        0.920000           41.24251           46.34586           40.14223           46.84454
        0.924000           41.63609           46.26092           40.56393           46.77028
        0.928000           42.04083           46.18870           40.99279           46.70510
        0.932000           42.46089           46.12799           41.43267           46.64896
        0.936000           42.89989           46.07762           41.88678           46.60144
        0.940000           43.36215           46.03513           42.35857           46.56118
        0.944000           43.85109           45.99785           42.85191           46.52737
        0.948000           44.37037           45.96259           43.37068           46.49735
        0.952000           44.92315           45.92545           43.91788           46.46890
        0.956000           45.51192           45.88223           44.49730           46.43875
        0.960000           46.13907           45.82795           45.11196           46.40282
        0.964000           46.80640           45.75757           45.76464           46.35731
        0.968000           47.51507           45.66529           46.45801           46.29654
        0.972000           48.26588           45.54510           47.19374           46.21535
        0.976000           49.05851           45.39070           47.97361           46.10747
        0.980000           49.89196           45.19561           48.79781           45.96635
        0.984000           50.76485           44.95303           49.66616           45.78464
        0.988000           51.67455           44.65607           50.57771           45.55510
        0.992000           52.61750           44.29809           51.53025           45.26993
        0.996000           53.58952           43.87231           52.52079           44.92164
        1.000000           54.58504           43.37238           53.54490           44.50220
        1.004000           55.59758           42.79217           54.59658           44.00402
        1.008000           56.62006           42.12611           55.66930           43.42023
        1.012000           57.64367           41.36950           56.75472           42.74405
        1.016000           58.65948           40.51822           57.84328           41.96969
        1.020000           59.65724           39.56940           58.92506           41.09283
        1.024000           60.62567           38.52134           59.98773           40.10978
        1.028000           61.55335           37.37362           61.01946           39.01888
        1.032000           62.42837           36.12742           62.00670           37.81977
        1.036000           63.23875           34.78567           62.93652           36.51440
        1.040000           63.97234           33.35272           63.79510           35.10611
        1.044000           64.61713           31.83507           64.56931           33.60041
        1.048000           65.16251           30.24044           65.24661           32.00499
        1.052000           65.59828           28.57856           65.81509           30.32912
        1.056000           65.91544           26.86062           66.26450           28.58401
        1.060000           66.10638           25.09890           66.58534           26.78229
        1.064000           66.16547           23.30693           66.77097           24.93771
        1.068000           66.08916           21.49913           66.81594           23.06538
        1.072000           65.87506           19.69011           66.71714           21.18048
        1.076000           65.52328           17.89491           66.47310           19.29893
        1.080000           65.03614           16.12839           66.08517           17.43657
        1.084000           64.41756           14.40483           65.55676           15.60858
        1.088000           63.67365           12.73780           64.89249           13.82971
        1.092000           62.81208           11.13988           64.10013           12.11374
        1.096000           61.84173           9.622126           63.18759           10.47292
        1.100000           60.77310           8.194314           62.16484           8.918412
        1.104000           59.61766           6.864572           61.04399           7.459596
        1.108000           58.38742           5.639104           59.83615           6.104045
        1.112000           57.09460           4.522610           58.55424           4.857686
        1.116000           55.75161           3.517751           57.21100           3.724476
        1.120000           54.37095           2.625723           55.81908           2.706758
        1.124000           52.96442           1.846266           54.39145           1.805224
        1.128000           51.54301           1.177459           52.93940           1.018897
        1.132000           50.11723           0.616373           51.47432           0.345615
        1.136000           48.69656           0.159027           50.00697          -0.218051
        1.140000           47.28963          -0.199429           48.54639          -0.676445
        1.144000           45.90360          -0.464388           47.10088          -1.034735
        1.148000           44.54526          -0.641755           45.67803          -1.298549
        1.152000           43.21986          -0.737643           44.28406          -1.474041
        1.156000           41.93177          -0.758279           42.92389          -1.567457
        1.160000           40.68476          -0.710016           41.60217          -1.585164
        1.164000           39.48165          -0.598978           40.32198          -1.533534
        1.168000           38.32447          -0.431093           39.08624          -1.418724
        1.172000           37.21452          -0.212161           37.89661          -1.246745
        1.176000           36.15265           0.052414           36.75443          -1.023262
        1.180000           35.13953           0.357364           35.66053          -0.753672
        1.184000           34.17484           0.698050           34.61482          -0.443064
        1.188000           33.25842           1.069924           33.61758          -0.096096
        1.192000           32.38943           1.468797           32.66828           0.282850
        1.196000           31.56721           1.890898           31.76599           0.689786
        1.200000           30.79070           2.332659           30.91018           1.121034
        1.204000           30.05859           2.790797           30.09958           1.573252
        1.208000           29.36976           3.262520           29.33305           2.043385
        1.212000           28.72261           3.744948           28.60942           2.528607
        1.216000           28.11588           4.235635           27.92733           3.026436
        1.220000           27.54806           4.732417           27.28553           3.534595
        1.224000           27.01751           5.233116           26.68272           4.050921
        1.228000           26.52274           5.735934           26.11747           4.573628
        1.232000           26.06219           6.239194           25.58853           5.100919
        1.236000           25.63414           6.741282           25.09464           5.631196
        1.240000           25.23715           7.240935           24.63456           6.163060
        1.244000           24.86936           7.736934           24.20694           6.695139
        1.248000           24.52937           8.228169           23.81062           7.226169
        1.252000           24.21547           8.713801           23.44439           7.755038
        1.256000           23.92600           9.193121           23.10704           8.280643
        1.260000           23.65952           9.665422           22.79752           8.801939
        1.264000           23.41430           10.13036           22.51444           9.317968
        1.268000           23.18900           10.58764           22.25673           9.827859
        1.272000           22.98214           11.03701           22.02326           10.33065
        1.276000           22.79223           11.47849           21.81256           10.82567
        1.280000           22.61828           11.91214           21.62363           11.31205
        1.284000           22.45887           12.33816           21.45506           11.78916
        1.288000           22.31302           12.75682           21.30541           12.25644
        1.292000           22.17976           13.16839           21.17331           12.71334
        1.296000           22.05820           13.57333           21.05724           13.15946
        1.300000           21.94773           13.97199           20.95581           13.59456
        1.304000           21.84754           14.36476           20.86744           14.01850
        1.308000           21.75719           14.75215           20.79046           14.43139
        1.312000           21.67606           15.13456           20.72331           14.83338
        1.316000           21.60382           15.51240           20.66458           15.22498
        1.320000           21.54026           15.88616           20.61262           15.60685
        1.324000           21.48489           16.25623           20.56615           15.97980
        1.328000           21.43756           16.62300           20.52391           16.34492
        1.332000           21.39818           16.98693           20.48486           16.70342
        1.336000           21.36660           17.34839           20.44827           17.05676
        1.340000           21.34281           17.70779           20.41346           17.40632
        1.344000           21.32680           18.06547           20.38020           17.75372
        1.348000           21.31860           18.42178           20.34836           18.10052
        1.352000           21.31845           18.77707           20.31818           18.44834
        1.356000           21.32646           19.13155           20.29032           18.79857
        1.360000           21.34293           19.48546           20.26543           19.15259
        1.364000           21.36800           19.83901           20.24459           19.51155
        1.368000           21.40205           20.19229           20.22888           19.87645
        1.372000           21.44526           20.54542           20.21961           20.24797
        1.376000           21.49800           20.89844           20.21823           20.62677
        1.380000           21.56067           21.25140           20.22609           21.01315
        1.384000           21.63350           21.60424           20.24477           21.40716
        1.388000           21.71675           21.95697           20.27567           21.80874
        1.392000           21.81085           22.30957           20.32018           22.21761
        1.396000           21.91627           22.66191           20.37983           22.63332
        1.400000           22.03339           23.01389           20.45575           23.05523
        1.404000           22.16260           23.36543           20.54926           23.48258
        1.408000           22.30435           23.71634           20.66154           23.91453
        1.412000           22.45933           24.06630           20.79371           24.35017
        1.416000           22.62807           24.41500           20.94669           24.78838
        1.420000           22.81102           24.76211           21.12146           25.22803
        1.424000           23.00893           25.10700           21.31889           25.66784
        1.428000           23.22238           25.44916           21.53976           26.10645
        1.432000           23.45184           25.78782           21.78478           26.54259
        1.436000           23.69786           26.12205           22.05456           26.97470
        1.440000           23.96097           26.45106           22.34975           27.40106
        1.444000           24.24147           26.77377           22.67082           27.82020
        1.448000           24.53962           27.08911           23.01795           28.23016
        1.452000           24.85580           27.39584           23.39155           28.62912
        1.456000           25.18988           27.69278           23.79172           29.01493
        1.460000           25.54196           27.97861           24.21837           29.38564
        1.464000           25.91210           28.25198           24.67140           29.73891
        1.468000           26.29976           28.51156           25.15023           30.07243
        1.472000           26.70480           28.75587           25.65434           30.38386
        1.476000           27.12661           28.98358           26.18266           30.67062
        1.480000           27.56460           29.19306           26.73396           30.93024
        1.484000           28.01801           29.38301           27.30664           31.16018
        1.488000           28.48585           29.55188           27.89887           31.35812
        1.492000           28.96691           29.69826           28.50829           31.52171
        1.496000           29.45983           29.82071           29.13201           31.64885
        1.500000           29.96295           29.91804           29.76708           31.73767
        1.504000           30.47443           29.98912           30.41011           31.78668
        1.508000           30.99234           30.03308           31.05727           31.79490
        1.512000           31.51435           30.04919           31.70446           31.76176
        1.516000           32.03801           30.03732           32.34765           31.68735
        1.520000           32.56113           29.99737           32.98272           31.57234
        1.524000           33.08106           29.92997           33.60524           31.41824
        1.528000           33.59583           29.83585           34.21175           31.22692
        1.532000           34.10307           29.71629           34.79841           31.00145
        1.536000           34.60121           29.57289           35.36246           30.74481
        1.540000           35.08880           29.40746           35.90172           30.46078
        1.544000           35.56490           29.22199           36.41429           30.15355
        1.548000           36.02927           29.01843           36.89972           29.82710
        1.552000           36.48183           28.79869           37.35818           29.48559
        1.556000           36.92323           28.56440           37.79042           29.13286
        1.560000           37.35444           28.31689           38.19836           28.77229
        1.564000           37.77662           28.05690           38.58406           28.40654
        1.568000           38.19114           27.78480           38.95039           28.03779
        1.572000           38.59946           27.50017           39.30033           27.66714
        1.576000           39.00277           27.20214           39.63687           27.29493
        1.580000           39.40209           26.88939           39.96293           26.92075
        1.584000           39.79774           26.55991           40.28108           26.54321
        1.588000           40.18964           26.21156           40.59310           26.16055
        1.592000           40.57706           25.84199           40.90067           25.77037
        1.596000           40.95856           25.44869           41.20410           25.36959
        1.600000           41.33185           25.02939           41.50336           24.95546
        1.604000           41.69405           24.58215           41.79736           24.52511
        1.608000           42.04165           24.10550           42.08395           24.07575
        1.612000           42.37049           23.59860           42.36081           23.60526
        1.616000           42.67626           23.06152           42.62438           23.11186
        1.620000           42.95434           22.49483           42.87098           22.59450
        1.624000           43.20012           21.90029           43.09673           22.05309
        1.628000           43.40881           21.28047           43.29702           21.48845
        1.632000           43.57645           20.63877           43.46839           20.90195
        1.636000           43.69954           19.97937           43.60638           20.29606
        1.640000           43.77510           19.30699           43.70761           19.67374
        1.644000           43.80083           18.62695           43.76945           19.03886
        1.648000           43.77573           17.94476           43.78945           18.39553
        1.652000           43.69924           17.26617           43.76613           17.74811
        1.656000           43.57191           16.59675           43.69883           17.10137
        1.660000           43.39508           15.94207           43.58761           16.45989
        1.664000           43.17051           15.30704           43.43274           15.82805
        1.668000           42.90083           14.69641           43.23584           15.21011
        1.672000           42.58945           14.11427           42.99826           14.60996
        1.676000           42.23983           13.56422           42.72222           14.03112
        1.680000           41.85569           13.04920           42.41028           13.47677
        1.684000           41.44110           12.57155           42.06464           12.94946
        1.688000           40.99992           12.13315           41.68866           12.45161
        1.692000           40.53626           11.73524           41.28454           11.98511
        1.696000           40.05390           11.37876           40.85561           11.55156
        1.700000           39.55679           11.06409           40.40457           11.15232
        1.704000           39.04841           10.79137           39.93413           10.78848
        1.708000           38.53206           10.56032           39.44705           10.46074
        1.712000           38.01101           10.37062           38.94601           10.16978
        1.716000           37.48819           10.22160           38.43379           9.916088
        1.720000           36.96641           10.11254           37.91294           9.699939
        1.724000           36.44822           10.04258           37.38589           9.521505
        1.728000           35.93621           10.01079           36.85532           9.380907
        1.732000           35.43255           10.01617           36.32354           9.277999
        1.736000           34.93957           10.05769           35.79310           9.212616
        1.740000           34.45932           10.13415           35.26641           9.184471
        1.744000           33.99391           10.24444           34.74600           9.192983
        1.748000           33.54541           10.38718           34.23432           9.237577
        1.752000           33.11557           10.56116           33.73370           9.317491
        1.756000           32.70636           10.76485           33.24639           9.431751
        1.760000           32.31959           10.99674           32.77472           9.579159
        1.764000           31.95679           11.25524           32.32084           9.758585
        1.768000           31.61973           11.53856           31.88670           9.968457
        1.772000           31.30995           11.84483           31.47462           10.20722
        1.776000           31.02879           12.17224           31.08622           10.47320
        1.780000           30.77752           12.51869           30.72301           10.76454
        1.784000           30.55731           12.88204           30.38679           11.07926
        1.788000           30.36926           13.26014           30.07879           11.41533
        1.792000           30.21421           13.65068           29.80022           11.77064
        1.796000           30.09290           14.05126           29.55248           12.14286
        1.800000           30.00579           14.45961           29.33595           12.52993
        1.804000           29.95347           14.87325           29.15160           12.92947
        1.808000           29.93610           15.28962           28.99999           13.33911
        1.812000           29.95362           15.70622           28.88137           13.75653
        1.816000           30.00601           16.12057           28.79593           14.17937
        1.820000           30.09287           16.53015           28.74377           14.60527
        1.824000           30.21377           16.93242           28.72471           15.03190
        1.828000           30.36786           17.32493           28.73824           15.45696
        1.832000           30.55422           17.70524           28.78381           15.87822
        1.836000           30.77172           18.07103           28.86088           16.29340
        1.840000           31.01904           18.41997           28.96842           16.70047
        1.844000           31.29450           18.75003           29.10527           17.09739
        1.848000           31.59653           19.05924           29.27012           17.48236
        1.852000           31.92290           19.34574           29.46163           17.85365
        1.856000           32.27179           19.60799           29.67803           18.20982
        1.860000           32.64074           19.84460           29.91771           18.54950
        1.864000           33.02755           20.05451           30.17872           18.87176
        1.868000           33.42971           20.23686           30.45945           19.17586
        1.872000           33.84486           20.39112           30.75770           19.46114
        1.876000           34.27045           20.51703           31.07200           19.72773
        1.880000           34.70410           20.61447           31.40038           19.97552
        1.884000           35.14352           20.68383           31.74148           20.20479
        1.888000           35.58655           20.72555           32.09404           20.41630
        1.892000           36.03109           20.74042           32.45694           20.61059
        1.896000           36.47537           20.72936           32.82962           20.78853
        1.900000           36.91771           20.69338           33.21155           20.95082
        1.904000           37.35670           20.63376           33.60292           21.09827
        1.908000           37.79115           20.55185           34.00367           21.23146
        1.912000           38.22028           20.44891           34.41456           21.35070
        1.916000           38.64330           20.32635           34.83632           21.45624
        1.920000           39.05990           20.18550           35.26957           21.54768
        1.924000           39.46981           20.02757           35.71525           21.62456
        1.928000           39.87319           19.85387           36.17457           21.68599
        1.932000           40.27031           19.66519           36.64790           21.73052
        1.936000           40.66170           19.46249           37.13633           21.75678
        1.940000           41.04794           19.24629           37.63997           21.76266
        1.944000           41.42978           19.01693           38.15898           21.74621
        1.948000           41.80803           18.77437           38.69318           21.70500
        1.952000           42.18359           18.51835           39.24195           21.63647
        1.956000           42.55721           18.24824           39.80461           21.53816
        1.960000           42.92939           17.96303           40.37961           21.40739
        1.964000           43.30079           17.66153           40.96536           21.24162
        1.968000           43.67152           17.34212           41.55959           21.03827
        1.972000           44.04126           17.00309           42.15987           20.79511
        1.976000           44.40942           16.64246           42.76329           20.50981
        1.980000           44.77516           16.25817           43.36634           20.18044
        1.984000           45.13707           15.84819           43.96580           19.80529
        1.988000           45.49305           15.41048           44.55756           19.38303
        1.992000           45.84065           14.94323           45.13692           18.91263
        1.996000           46.17687           14.44491           45.69984           18.39369
        2.000000           46.49834           13.91417           46.24128           17.82602
        2.004000           46.80117           13.35039           46.75631           17.21013
        2.008000           47.08128           12.75329           47.23959           16.54717
        2.012000           47.33443           12.12327           47.68614           15.83893
        2.016000           47.55597           11.46133           48.09122           15.08772
        2.020000           47.74143           10.76934           48.44955           14.29667
        2.024000           47.88614           10.04958           48.75657           13.46930
        2.028000           47.98611           9.305202           49.00832           12.60992
        2.032000           48.03735           8.540155           49.20070           11.72332
        2.036000           48.03625           7.758732           49.33040           10.81479
        2.040000           47.97975           6.966129           49.39450           9.890141
        2.044000           47.86565           6.167698           49.39129           8.955206
        2.048000           47.69211           5.369375           49.31898           8.016488
        2.052000           47.45818           4.577458           49.17671           7.080542
        2.056000           47.16376           3.798435           48.96417           6.154147
        2.060000           46.80951           3.038778           48.68204           5.244125
        2.064000           46.39732           2.305112           48.33185           4.357400
        2.068000           45.92939           1.603502           47.91584           3.500466
        2.072000           45.40908           0.940102           47.43703           2.679909
        2.076000           44.84055           0.320346           46.89885           1.901914
        2.080000           44.22855          -0.250776           46.30635           1.172102
        2.084000           43.57859          -0.769089           45.66455           0.495593
        2.088000           42.89661          -1.231124           44.97907          -0.123117
        2.092000           42.18867          -1.634298           44.25649          -0.680616
        2.096000           41.46138          -1.976875           43.50341          -1.174022
        2.100000           40.72108          -2.257958           42.72634          -1.601451
        2.104000           39.97430          -2.477575           41.93242          -1.961884
        2.108000           39.22714          -2.636318           41.12868          -2.255101
        2.112000           38.48539          -2.735749           40.32130          -2.481901
        2.116000           37.75455          -2.777914           39.51667          -2.643517
        2.120000           37.03956          -2.765345           38.72071          -2.742093
        2.124000           36.34502          -2.701065           37.93896          -2.780081
        2.128000           35.67482          -2.588512           37.17599          -2.760629
        2.132000           35.03249          -2.431161           36.43653          -2.687094
        2.136000           34.42083          -2.232826           35.72417          -2.563143
        2.140000           33.84229          -1.997360           35.04209          -2.392556
        2.144000           33.29889          -1.728612           34.39329          -2.179390
        2.148000           32.79219          -1.430479           33.78008          -1.927547
        2.152000           32.32327          -1.106768           33.20396          -1.641022
        2.156000           31.89299          -0.761250           32.66669          -1.323726
        2.160000           31.50163          -0.397470           32.16906          -0.979474
        2.164000           31.14949          -0.018952           31.71217          -0.611943
        2.168000           30.83633           0.370956           31.29608          -0.224706
        2.172000           30.56197           0.768989           30.92142           0.178743
        2.176000           30.32571           1.172115           30.58788           0.595003
        2.180000           30.12684           1.577459           30.29538           1.021066
        2.184000           29.96447           1.982272           30.04358           1.453739
        2.188000           29.83746           2.383895           29.83193           1.890114
        2.192000           29.74468           2.779944           29.66002           2.327318
        2.196000           29.68483           3.168062           29.52689           2.762674
        2.200000           29.65633           3.546187           29.43178           3.193401
        2.204000           29.65779           3.912322           29.37375           3.617039
        2.208000           29.68753           4.264695           29.35159           4.030955
        2.212000           29.74397           4.601586           29.36418           4.432802
        2.216000           29.82539           4.921479           29.41037           4.820053
        2.220000           29.92997           5.222924           29.48877           5.190307
        2.224000           30.05600           5.504707           29.59755           5.541298
        2.228000           30.20171           5.765606           29.73528           5.870698
        2.232000           30.36518           6.004505           29.89976           6.176178
        2.236000           30.54465           6.220382           30.08924           6.455479
        2.240000           30.73811           6.412236           30.30127           6.706448
        2.244000           30.94361           6.579156           30.53311           6.926937
        2.248000           31.15904           6.720348           30.78238           7.114971
        2.252000           31.38222           6.834975           31.04546           7.268683
        2.256000           31.61073           6.922394           31.31892           7.386471
        2.260000           31.84194           6.982055           31.59890           7.467001
        2.264000           32.07315           7.013652           31.88126           7.509272
        2.268000           32.30145           7.017019           32.16143           7.512836
        2.272000           32.52374           6.992454           32.43473           7.477722
        2.276000           32.73682           6.940517           32.69608           7.404699
        2.280000           32.93734           6.862250           32.94067           7.295186
        2.284000           33.12191           6.759194           33.16325           7.151337
        2.288000           33.28732           6.633402           33.35921           6.976215
        2.292000           33.43069           6.487468           33.52420           6.773576
        2.296000           33.54931           6.324528           33.65419           6.547984
        2.300000           33.64087           6.148116           33.74612           6.304648
        2.304000           33.70374           5.962136           33.79770           6.049248
        2.308000           33.73673           5.770888           33.80732           5.787938
        2.312000           33.73951           5.578740           33.77456           5.526958
        2.316000           33.71239           5.390070           33.70003           5.272531
        2.320000           33.65623           5.209169           33.58532           5.030696
        2.324000           33.57274           5.040081           33.43277           4.807120
        2.328000           33.46404           4.886495           33.24561           4.606914
        2.332000           33.33280           4.751689           33.02781           4.434467
        2.336000           33.18204           4.638355           32.78387           4.293541
        2.340000           33.01510           4.548673           32.51828           4.186992
        2.344000           32.83537           4.484313           32.23611           4.116907
        2.348000           32.64634           4.446334           31.94218           4.084698
        2.352000           32.45152           4.435438           31.64156           4.091010
        2.356000           32.25418           4.451810           31.33887           4.135867
        2.360000           32.05756           4.495150           31.03836           4.218772
        2.364000           31.86456           4.564999           30.74436           4.338769
        2.368000           31.67804           4.660562           30.46046           4.494538
        2.372000           31.50042           4.780834           30.19044           4.684470
        2.376000           31.33417           4.924670           29.93709           4.906703
        2.380000           31.18143           5.090781           29.70359           5.159252
        2.384000           31.04415           5.277822           29.49215           5.439981
        2.388000           30.92406           5.484356           29.30514           5.746708
        2.392000           30.82298           5.708879           29.14467           6.077221
        2.396000           30.74241           5.949840           29.01258           6.429047
        2.400000           30.68393           6.205485           28.91044           6.799882
        2.404000           30.64886           6.474242           28.83969           7.187439
        2.408000           30.63858           6.754170           28.80165           7.589198
        2.412000           30.65419           7.043420           28.79741           8.002781
        2.416000           30.69681           7.339873           28.82816           8.425655
        2.420000           30.76745           7.641456           28.89449           8.855367
        2.424000           30.86691           7.945838           28.99743           9.289270
        2.428000           30.99584           8.250706           29.13764           9.724865
        2.432000           31.15470           8.553548           29.31544           10.15937
        2.436000           31.34374           8.851854           29.53117           10.59029
        2.440000           31.56302           9.142929           29.78542           11.01461
        2.444000           31.81229           9.424172           30.07774           11.42967
        2.448000           32.09111           9.692865           30.40846           11.83233
        2.452000           32.39887           9.946425           30.77730           12.21985
        2.456000           32.73462           10.18221           31.18358           12.58897
        2.460000           33.09717           10.39765           31.62677           12.93673
        2.464000           33.48509           10.59031           32.10604           13.25984
        2.468000           33.89672           10.75784           32.61997           13.55519
        2.472000           34.33039           10.89804           33.16743           13.81945
        2.476000           34.78400           11.00887           33.74642           14.04955
        2.480000           35.25528           11.08838           34.35484           14.24222
        2.484000           35.74198           11.13489           34.99051           14.39443
        2.488000           36.24157           11.14673           35.65030           14.50314
        2.492000           36.75140           11.12261           36.33156           14.56571
        2.496000           37.26878           11.06131           37.03057           14.57932
        2.500000           37.79078           10.96177           37.74369           14.54166
        2.504000           38.31440           10.82324           38.46673           14.45075
        2.508000           38.83652           10.64513           39.19532           14.30471
        2.512000           39.35393           10.42703           39.92477           14.10223
        2.516000           39.86334           10.16886           40.65002           13.84241
        2.520000           40.36135           9.870760           41.36631           13.52474
        2.524000           40.84458           9.533154           42.06832           13.14922
        2.528000           41.30943           9.156789           42.75025           12.71650
        2.532000           41.75230           8.742753           43.40690           12.22773
        2.536000           42.16979           8.292572           44.03317           11.68476
        2.540000           42.55845           7.807986           44.62361           11.08980
        2.544000           42.91498           7.291201           45.17307           10.44586
        2.548000           43.23629           6.744776           45.67720           9.756508
        2.552000           43.51924           6.171657           46.13144           9.025721
        2.556000           43.76132           5.575117           46.53173           8.258032
        2.560000           43.96021           4.958744           46.87479           7.458339
        2.564000           44.11395           4.326232           47.15808           6.631750
        2.568000           44.22090           3.681638           47.37888           5.783677
        2.572000           44.27989           3.029164           47.53579           4.919707
        2.576000           44.29016           2.373011           47.62753           4.045478
        2.580000           44.25122           1.717675           47.65314           3.166731
        2.584000           44.16314           1.067267           47.61265           2.288961
        2.588000           44.02631           0.426338           47.50631           1.417899
        2.592000           43.84153          -0.200807           47.33452           0.559101
        2.596000           43.60999          -0.809920           47.09865          -0.281891
        2.600000           43.33326          -1.396736           46.80014          -1.099573
        2.604000           43.01342          -1.957119           46.44132          -1.888492
        2.608000           42.65276          -2.487230           46.02442          -2.643551
        2.612000           42.25420          -2.983287           45.55256          -3.359469
        2.616000           41.82091          -3.441754           45.02949          -4.031436
        2.620000           41.35663          -3.859452           44.45929          -4.654819
        2.624000           40.86543          -4.233664           43.84660          -5.225509
        2.628000           40.35168          -4.562073           43.19674          -5.739817
        2.632000           39.81990          -4.842886           42.51504          -6.194718
        2.636000           39.27493          -5.074966           41.80765          -6.587893
        2.640000           38.72168          -5.257651           41.08055          -6.917678
        2.644000           38.16502          -5.391032           40.34007          -7.183184
        2.648000           37.60969          -5.475544           39.59243          -7.384268
        2.652000           37.06019          -5.512483           38.84352          -7.521597
        2.656000           36.52061          -5.503386           38.09904          -7.596360
        2.660000           35.99497          -5.450325           37.36443          -7.610462
        2.664000           35.48667          -5.355677           36.64475          -7.566222
        2.668000           34.99878          -5.222124           35.94435          -7.466428
        2.672000           34.53396          -5.052439           35.26727          -7.314169
        2.676000           34.09424          -4.849533           34.61705          -7.112680
        2.680000           33.68139          -4.616365           33.99660          -6.865445
        2.684000           33.29691          -4.355863           33.40838          -6.575996
        2.688000           32.94174          -4.070817           32.85463          -6.247794
        2.692000           32.61669          -3.763994           32.33698          -5.884389
        2.696000           32.32231          -3.437976           31.85672          -5.489128
        2.700000           32.05886          -3.095167           31.41498          -5.065211
        2.704000           31.82656          -2.737827           31.01261          -4.615739
        2.708000           31.62541          -2.368143           30.64980          -4.143782
        2.712000           31.45547          -1.988073           30.32722          -3.652146
        2.716000           31.31661          -1.599625           30.04526          -3.143576
        2.720000           31.20866          -1.204473           29.80356          -2.620505
        2.724000           31.13152          -0.804359           29.60257          -2.085405
        2.728000           31.08497          -0.400954           29.44202          -1.540629
        2.732000           31.06886           0.004138           29.32191          -0.988325
        2.736000           31.08287           0.409293           29.24231          -0.430718
        2.740000           31.12682           0.813027           29.20270           0.130160
        2.744000           31.20033           1.213724           29.20316           0.692271
        2.748000           31.30314           1.609939           29.24351           1.253622
        2.752000           31.43485           2.000131           29.32343           1.812113
        2.756000           31.59498           2.382774           29.44283           2.365779
        2.760000           31.78304           2.756306           29.60151           2.912449
        2.764000           31.99852           3.119348           29.79903           3.450180
        2.768000           32.24081           3.470404           30.03492           3.976701
        2.772000           32.50925           3.807905           30.30896           4.489831
        2.776000           32.80305           4.130410           30.62042           4.987278
        2.780000           33.12141           4.436377           30.96869           5.466644
        2.784000           33.46335           4.724373           31.35278           5.925519
        2.788000           33.82791           4.992897           31.77162           6.361513
        2.792000           34.21388           5.240551           32.22387           6.772141
        2.796000           34.61996           5.465783           32.70819           7.154905
        2.800000           35.04470           5.667371           33.22248           7.507401
        2.804000           35.48642           5.843888           33.76480           7.827265
        2.808000           35.94335           5.994222           34.33263           8.112244
        2.812000           36.41362           6.117400           34.92339           8.360386
        2.816000           36.89510           6.212466           35.53395           8.569931
        2.820000           37.38557           6.278943           36.16129           8.739376
        2.824000           37.88275           6.316258           36.80180           8.867645
        2.828000           38.38417           6.324523           37.45155           8.954014
        2.832000           38.88762           6.303716           38.10748           8.998287
        2.836000           39.39070           6.254455           38.76538           9.000680
        2.840000           39.89119           6.177446           39.42171           8.961914
        2.844000           40.38702           6.073792           40.07315           8.883186
        2.848000           40.87630           5.944718           40.71613           8.766125
        2.852000           41.35733           5.791811           41.34775           8.612726
        2.856000           41.82887           5.616656           41.96538           8.425338
        2.860000           42.28973           5.421096           42.56710           8.206586
        2.864000           42.73922           5.206931           43.15094           7.959221
        2.868000           43.17683           4.976073           43.71569           7.686092
        2.872000           43.60237           4.730312           44.26048           7.390136
        2.876000           44.01596           4.471336           44.78501           7.074143
        2.880000           44.41808           4.200745           45.28922           6.740799
        2.884000           44.80922           3.919884           45.77357           6.392652
        2.888000           45.19034           3.629966           46.23875           6.032020
        2.892000           45.56228           3.331963           46.68572           5.660927
        2.896000           45.92611           3.026523           47.11568           5.281185
        2.900000           46.28303           2.713983           47.52999           4.894147
        2.904000           46.63413           2.394538           47.93039           4.500974
        2.908000           46.98057           2.067989           48.31816           4.102430
        2.912000           47.32330           1.733825           48.69533           3.698922
        2.916000           47.66315           1.391491           49.06310           3.290474
        2.920000           48.00082           1.040057           49.42317           2.876964
        2.924000           48.33677           0.678350           49.77724           2.457577
        2.928000           48.67139           0.305236           50.12603           2.031548
        2.932000           49.00428          -0.080558           50.47060           1.597735
        2.936000           49.33531          -0.480497           50.81170           1.154691
        2.940000           49.66369          -0.895752           51.14951           0.701121
        2.944000           49.98864          -1.327658           51.48418           0.235153
        2.948000           50.30890          -1.777378           51.81515          -0.244664
        2.952000           50.62307          -2.245855           52.14154          -0.740082
        2.956000           50.92945          -2.733968           52.46257          -1.252481
        2.960000           51.22631          -3.242215           52.77670          -1.783239
        2.964000           51.51142          -3.770900           53.08169          -2.333565
        2.968000           51.78283          -4.320180           53.37600          -2.904231
        2.972000           52.03836          -4.889756           53.65696          -3.495813
        2.976000           52.27570          -5.479044           53.92242          -4.108523
        2.980000           52.49262          -6.087119           54.16945          -4.741988
        2.984000           52.68699          -6.712734           54.39557          -5.395608
        2.988000           52.85686          -7.354300           54.59799          -6.067976
        2.992000           53.00021          -8.010025           54.77441          -6.757823
        2.996000           53.11562          -8.677701           54.92253          -7.462879
        3.000000           53.20156          -9.354904           55.04034          -8.180768
        3.004000           53.25715          -10.03899           55.12580          -8.908660
        3.008000           53.28167          -10.72714           55.17821          -9.643329
        3.012000           53.27489          -11.41662           55.19663          -10.38193
        3.016000           53.23697          -12.10442           55.18096          -11.12084
        3.020000           53.16846          -12.78767           55.13157          -11.85686
        3.024000           53.07034          -13.46369           55.04922          -12.58673
        3.028000           52.94395          -14.12994           54.93515          -13.30757
        3.032000           52.79088          -14.78406           54.79103          -14.01645
        3.036000           52.61308          -15.42409           54.61878          -14.71126
        3.040000           52.41275          -16.04838           54.42075          -15.39005
        3.044000           52.19210          -16.65563           54.19941          -16.05111
        3.048000           51.95357          -17.24486           53.95694          -16.69327
        3.052000           51.69962          -17.81545           53.69613          -17.31573
        3.056000           51.43259          -18.36716           53.41959          -17.91798
        3.060000           51.15475          -18.90013           53.12909          -18.49995
        3.064000           50.86827          -19.41474           52.82729          -19.06171
        3.068000           50.57516          -19.91156           52.51615          -19.60351
        3.072000           50.27738          -20.39149           52.19781          -20.12590
        3.076000           49.97652          -20.85559           51.87406          -20.62955
        3.080000           49.67405          -21.30514           51.54667          -21.11526
        3.084000           49.37115          -21.74150           51.21741          -21.58432
        3.088000           49.06880          -22.16609           50.88771          -22.03762
        3.092000           48.76783          -22.58059           50.55891          -22.47657
        3.096000           48.46864          -22.98657           50.23222          -22.90289
        3.100000           48.17162          -23.38567           49.90859          -23.31796
        3.104000           47.87674          -23.77962           49.58859          -23.72399
        3.108000           47.58369          -24.17010           49.27310          -24.12265
        3.112000           47.29202          -24.55858           48.96191          -24.51609
        3.116000           47.00095          -24.94665           48.65491          -24.90636
        3.120000           46.70954          -25.33556           48.35143          -25.29540
        3.124000           46.41653          -25.72662           48.05089          -25.68530
        3.128000           46.12044          -26.12083           47.75178          -26.07772
        3.132000           45.81978          -26.51891           47.45268          -26.47449
        3.136000           45.51272          -26.92148           47.15170          -26.87670
        3.140000           45.19741          -27.32870           46.84687          -27.28542
        3.144000           44.87194          -27.74061           46.53592          -27.70134
        3.148000           44.53426          -28.15690           46.21633          -28.12513
        3.152000           44.18246          -28.57689           45.88566          -28.55643
        3.156000           43.81445          -28.99966           45.54113          -28.99494
        3.160000           43.42846          -29.42394           45.18044          -29.43962
        3.164000           43.02269          -29.84813           44.80111          -29.88952
        3.168000           42.59557          -30.27031           44.40062          -30.34267
        3.172000           42.14562          -30.68835           43.97679          -30.79714
        3.176000           41.67176          -31.09975           43.52766          -31.25047
        3.180000           41.17318          -31.50180           43.05186          -31.69965
        3.184000           40.64938          -31.89152           42.54795          -32.14184
        3.188000           40.10048          -32.26580           42.01535          -32.57317
        3.192000           39.52665          -32.62150           41.45349          -32.99035
        3.196000           38.92891          -32.95538           40.86287          -33.38954
        3.200000           38.30862          -33.26424           40.24423          -33.76710
        3.204000           37.66761          -33.54514           39.59897          -34.11906
        3.208000           37.00823          -33.79526           38.92904          -34.44202
        3.212000           36.33325          -34.01210           38.23704          -34.73277
        3.216000           35.64560          -34.19368           37.52579          -34.98839
        3.220000           34.94867          -34.33829           36.79870          -35.20657
        3.224000           34.24612          -34.44469           36.05949          -35.38524
        3.228000           33.54151          -34.51228           35.31200          -35.52283
        3.232000           32.83860          -34.54076           34.56030          -35.61881
        3.236000           32.14114          -34.53048           33.80844          -35.67263
        3.240000           31.45248          -34.48211           33.06031          -35.68456
        3.244000           30.77609          -34.39679           32.31997          -35.65525
        3.248000           30.11510          -34.27599           31.59085          -35.58589
        3.252000           29.47238          -34.12148           30.87636          -35.47795
        3.256000           28.85054          -33.93536           30.17976          -35.33344
        3.260000           28.25174          -33.71973           29.50361          -35.15434
        3.264000           27.67798          -33.47698           28.85030          -34.94283
        3.268000           27.13096          -33.20964           28.22217          -34.70156
        3.272000           26.61205          -32.92012           27.62077          -34.43297
        3.276000           26.12232          -32.61094           27.04767          -34.13956
        3.280000           25.66271          -32.28466           26.50393          -33.82413
        3.284000           25.23378          -31.94366           25.99055          -33.48895
        3.288000           24.83596          -31.59035           25.50809          -33.13655
        3.292000           24.46958          -31.22706           25.05709          -32.76928
        3.296000           24.13473          -30.85609           24.63794          -32.38940
        3.300000           23.83136          -30.47964           24.25077          -31.99930
        3.304000           23.55940          -30.09988           23.89555          -31.60105
        3.308000           23.31854          -29.71879           23.57238          -31.19672
        3.312000           23.10847          -29.33842           23.28088          -30.78811
        3.316000           22.92879          -28.96075           23.02114          -30.37736
        3.320000           22.77899          -28.58768           22.79272          -29.96617
        3.324000           22.65848          -28.22115           22.59544          -29.55646
        3.328000           22.56658          -27.86286           22.42892          -29.14985
        3.332000           22.50258          -27.51476           22.29272          -28.74816
        3.336000           22.46561          -27.17858           22.18646          -28.35323
        3.340000           22.45476          -26.85612           22.10977          -27.96678
        3.344000           22.46902          -26.54908           22.06190          -27.59057
        3.348000           22.50719          -26.25924           22.04230          -27.22658
        3.352000           22.56805          -25.98820           22.05044          -26.87629
        3.356000           22.65023          -25.73759           22.08529          -26.54198
        3.360000           22.75218          -25.50903           22.14609          -26.22523
        3.364000           22.87224          -25.30405           22.23169          -25.92818
        3.368000           23.00863          -25.12407           22.34078          -25.65281
        3.372000           23.15941          -24.97042           22.47210          -25.40090
        3.376000           23.32244          -24.84433           22.62378          -25.17452
        3.380000           23.49547          -24.74689           22.79395          -24.97545
        3.384000           23.67609          -24.67907           22.98065          -24.80556
        3.388000           23.86173          -24.64158           23.18132          -24.66642
        3.392000           24.04971          -24.63494           23.39345          -24.55953
        3.396000           24.23723          -24.65948           23.61405          -24.48615
        3.400000           24.42139          -24.71519           23.84002          -24.44721
        3.404000           24.59922          -24.80178           24.06820          -24.44345
        3.408000           24.76774          -24.91875           24.29498          -24.47504
        3.412000           24.92399          -25.06504           24.51707          -24.54203
        3.416000           25.06500          -25.23947           24.73070          -24.64376
        3.420000           25.18802          -25.44049           24.93240          -24.77938
        3.424000           25.29039          -25.66614           25.11882          -24.94748
        3.428000           25.36967          -25.91414           25.28654          -25.14624
        3.432000           25.42365          -26.18211           25.43268          -25.37356
        3.436000           25.45042          -26.46717           25.55438          -25.62689
        3.440000           25.44839          -26.76645           25.64925          -25.90343
        3.444000           25.41631          -27.07678           25.71518          -26.20021
        3.448000           25.35328          -27.39493           25.75045          -26.51398
        3.452000           25.25878          -27.71749           25.75368          -26.84140
        3.456000           25.13269          -28.04119           25.72397          -27.17899
        3.460000           24.97523          -28.36262           25.66069          -27.52342
        3.464000           24.78701          -28.67855           25.56350          -27.87105
        3.468000           24.56896          -28.98579           25.43257          -28.21853
        3.472000           24.32244          -29.28125           25.26841          -28.56231
        3.476000           24.04903          -29.56215           25.07160          -28.89921
        3.480000           23.75068          -29.82578           24.84331          -29.22581
        3.484000           23.42967          -30.06974           24.58500          -29.53917
        3.488000           23.08835          -30.29201           24.29852          -29.83610
        3.492000           22.72943          -30.49074           23.98581          -30.11394
        3.496000           22.35574          -30.66453           23.64928          -30.37036
        3.500000           21.97020          -30.81224           23.29163          -30.60274
        3.504000           21.57587          -30.93320           22.91591          -30.80951
        3.508000           21.17568          -31.02703           22.52505          -30.98914
        3.512000           20.77266          -31.09372           22.12239          -31.14041
        3.516000           20.36970          -31.13368           21.71122          -31.26284
        3.520000           19.96959          -31.14758           21.29479          -31.35603
        3.524000           19.57491          -31.13634           20.87635          -31.42033
        3.528000           19.18812          -31.10120           20.45915          -31.45612
        3.532000           18.81135          -31.04362           20.04590          -31.46432
        3.536000           18.44659          -30.96524           19.63948          -31.44634
        3.540000           18.09557          -30.86774           19.24242          -31.40350
        3.544000           17.75976          -30.75310           18.85682          -31.33746
        3.548000           17.44046          -30.62323           18.48479          -31.25023
        3.552000           17.13860          -30.48009           18.12794          -31.14338
        3.556000           16.85504          -30.32576           17.78753          -31.01940
        3.560000           16.59035          -30.16227           17.46493          -30.88033
        3.564000           16.34497          -29.99160           17.16095          -30.72815
        3.568000           16.11911          -29.81577           16.87646          -30.56504
        3.572000           15.91284          -29.63680           16.61178          -30.39308
        3.576000           15.72604          -29.45659           16.36732          -30.21446
        3.580000           15.55846          -29.27707           16.14318          -30.03119
        3.584000           15.40969          -29.10011           15.93936          -29.84524
        3.588000           15.27919          -28.92757           15.75577          -29.65861
        3.592000           15.16622          -28.76121           15.59200          -29.47318
        3.596000           15.06995          -28.60279           15.44765          -29.29109
        3.600000           14.98932          -28.45395           15.32215          -29.11395
        3.604000           14.92316          -28.31630           15.21462          -28.94370
        3.608000           14.87009          -28.19137           15.12429          -28.78222
        3.612000           14.82858          -28.08053           15.05003          -28.63101
        3.616000           14.79693          -27.98503           14.99060          -28.49195
        3.620000           14.77324          -27.90599           14.94464          -28.36643
        3.624000           14.75547          -27.84427           14.91050          -28.25608
        3.628000           14.74143          -27.80057           14.88637          -28.16223
        3.632000           14.72881          -27.77529           14.87016          -28.08607
        3.636000           14.71520          -27.76855           14.85974          -28.02846
        3.640000           14.69814          -27.78018           14.85278          -27.99020
        3.644000           14.67519          -27.80959           14.84670          -27.97176
        3.648000           14.64392          -27.85594           14.83882          -27.97316
        3.652000           14.60204          -27.91800           14.82651          -27.99434
        3.656000           14.54741          -27.99420           14.80694          -28.03454
        3.660000           14.47813          -28.08265           14.77752          -28.09261
        3.664000           14.39262          -28.18121           14.73564          -28.16724
        3.668000           14.28956          -28.28745           14.67903          -28.25638
        3.672000           14.16808          -28.39888           14.60558          -28.35802
        3.676000           14.02766          -28.51282           14.51374          -28.46945
        3.680000           13.86826          -28.62660           14.40223          -28.58784
        3.684000           13.69019          -28.73759           14.27021          -28.71035
        3.688000           13.49416          -28.84333           14.11742          -28.83390
        3.692000           13.28124          -28.94148           13.94406          -28.95552
        3.696000           13.05283          -29.03003           13.75090          -29.07230
        3.700000           12.81053          -29.10717           13.53900          -29.18163
        3.704000           12.55618          -29.17142           13.30982          -29.28114
        3.708000           12.29174          -29.22171           13.06525          -29.36878
        3.712000           12.01914          -29.25722           12.80721          -29.44276
        3.716000           11.74042          -29.27750           12.53787          -29.50191
        3.720000           11.45751          -29.28234           12.25947          -29.54539
        3.724000           11.17228          -29.27191           11.97425          -29.57263
        3.728000           10.88646          -29.24644           11.68432          -29.58348
        3.732000           10.60156          -29.20654           11.39173          -29.57795
        3.736000           10.31903          -29.15281           11.09834          -29.55655
        3.740000           10.04007          -29.08610           10.80586          -29.51977
        3.744000           9.765728          -29.00726           10.51580          -29.46835
        3.748000           9.496884          -28.91721           10.22942          -29.40330
        3.752000           9.234277          -28.81694           9.947934          -29.32550
        3.756000           8.978405          -28.70741           9.672116          -29.23595
        3.760000           8.729733          -28.58951           9.402792          -29.13565
        3.764000           8.488549          -28.46420           9.140526          -29.02567
        3.768000           8.255054          -28.33237           8.885741          -28.90693
        3.772000           8.029352          -28.19477           8.638759          -28.78065
        3.776000           7.811495          -28.05224           8.399780          -28.64742
        3.780000           7.601389          -27.90547           8.168814          -28.50838
        3.784000           7.398969          -27.75513           7.945961          -28.36405
        3.788000           7.204091          -27.60184           7.731142          -28.21556
        3.792000           7.016591          -27.44612           7.524255          -28.06326
        3.796000           6.836285          -27.28848           7.325164          -27.90796
        3.800000           6.662916          -27.12939           7.133653          -27.75017
        3.804000           6.496274          -26.96922           6.949513          -27.59030
        3.808000           6.336120          -26.80834           6.772517          -27.42905
        3.812000           6.182201          -26.64706           6.602415          -27.26659
        3.816000           6.034278          -26.48571           6.438996          -27.10353
        3.820000           5.892116          -26.32451           6.281991          -26.93999
        3.824000           5.755437          -26.16365           6.131088          -26.77633
        3.828000           5.624027          -26.00339           5.986090          -26.61280
        3.832000           5.497643          -25.84384           5.846711          -26.44975
        3.836000           5.376066          -25.68517           5.712752          -26.28716
        3.840000           5.259075          -25.52748           5.583900          -26.12538
        3.844000           5.146470          -25.37095           5.459982          -25.96449
        3.848000           5.038027          -25.21559           5.340774          -25.80455
        3.852000           4.933564          -25.06153           5.225997          -25.64577
        3.856000           4.832898          -24.90881           5.115499          -25.48827
        3.860000           4.735849          -24.75749           5.009072          -25.33205
        3.864000           4.642260          -24.60763           4.906531          -25.17719
        3.868000           4.551950          -24.45925           4.807662          -25.02373
        3.872000           4.464779          -24.31237           4.712332          -24.87181
        3.876000           4.380599          -24.16702           4.620359          -24.72133
        3.880000           4.299277          -24.02323           4.531577          -24.57242
        3.884000           4.220676          -23.88099           4.445870          -24.42508
        3.888000           4.144689          -23.74035           4.363074          -24.27928
        3.892000           4.071172          -23.60124           4.283044          -24.13512
        3.896000           4.000028          -23.46370           4.205675          -23.99246
        3.900000           3.931152          -23.32772           4.130838          -23.85142
        3.904000           3.864440          -23.19330           4.058410          -23.71200
        3.908000           3.799808          -23.06042           3.988323          -23.57420
        3.912000           3.737146          -22.92907           3.920415          -23.43791
        3.916000           3.676383          -22.79922           3.854635          -23.30328
        3.920000           3.617433          -22.67089           3.790863          -23.17009
        3.924000           3.560223          -22.54404           3.729040          -23.03852
        3.928000           3.504677          -22.41867           3.669050          -22.90838
        3.932000           3.450733          -22.29475           3.610847          -22.77984
        3.936000           3.398313          -22.17227           3.554345          -22.65273
        3.940000           3.347362          -22.05119           3.499457          -22.52714
        3.944000           3.297821          -21.93150           3.446140          -22.40302
        3.948000           3.249632          -21.81318           3.394305          -22.28030
        3.952000           3.202740          -21.69622           3.343916          -22.15904
        3.956000           3.157103          -21.58060           3.294904          -22.03913
        3.960000           3.112661          -21.46629           3.247214          -21.92061
        3.964000           3.069374          -21.35324           3.200798          -21.80346
        3.968000           3.027196          -21.24150           3.155602          -21.68759
        3.972000           2.986088          -21.13100           3.111588          -21.57308
        3.976000           2.946013          -21.02175           3.068705          -21.45986
        3.980000           2.906927          -20.91370           3.026912          -21.34790
        3.984000           2.868795          -20.80683           2.986168          -21.23718
        3.988000           2.831583          -20.70116           2.946427          -21.12771
        3.992000           2.795258          -20.59662           2.907659          -21.01948
        3.996000           2.759791          -20.49322           2.869840          -20.91236
        4.000000           2.725154          -20.39094           2.832920          -20.80653
# 
# 10/28/2023 at 22:56 yambo @ unimi-XPS-8930 [start]
# 10/28/2023 at 22:56                        [end]
#  
# Timing   [Min/Max/Average]: 08s/08s/08s
#
# .-Input file  yambo.in
# | optics                           # [R] Linear Response optical properties
# | bss                              # [R] BSE solver
# | bse                              # [R][BSE] Bethe Salpeter Equation.
# | tddft                            # [R][K] Use TDDFT kernel
# | ElecTemp= 0.025861         eV    # Electronic Temperature
# | BoseTemp= 0.025861         eV    # Bosonic Temperature
# | FFTGvecs=  603             RL    # [FFT] Plane-waves
# | BS_nCPU_LinAlg_INV= 1            # [PARALLEL] CPUs for Linear Algebra (if -1 it is automatically set)
# | BS_nCPU_LinAlg_DIAGO= 1          # [PARALLEL] CPUs for Linear Algebra (if -1 it is automatically set)
# | X_Threads= 1                     # [OPENMP/X] Number of threads for response functions
# | DIP_Threads= 1                   # [OPENMP/X] Number of threads for dipoles
# | K_Threads= 1                     # [OPENMP/BSK] Number of threads for response functions
# | BSKmod= "ALDA"                   # [BSE] IP/Hartree/HF/ALDA/SEX/BSfxc
# | BSEmod= "retarded"               # [BSE] resonant/retarded/coupling
# | BSSmod= "d"                      # [BSS] (h)aydock/(d)iagonalization/(s)lepc/(i)nversion/(t)ddft`
# | DipComputed= "R V P Spin"        # [DIP] [default R P V; extra P2 Spin Orb]
# | BSENGexx= 1157             RL    # [BSK] Exchange components
# | BSENGfxc= 1157             RL    # [BSK] Fxc components
# | % BSEQptR
# |  1 | 1 |                             # [BSK] Transferred momenta range
# | %
# | % BSEBands
# |   5 | 10 |                           # [BSK] Bands range
# | %
# | % BEnRange
# | -2.000000 | 4.000000 |         eV    # [BSS] Energy range
# | %
# | % BDmRange
# |  0.100000 | 0.100000 |         eV    # [BSS] Damping range
# | %
# | BEnSteps= 1501                   # [BSS] Energy steps
# | % BLongDir
# |  0.000000 | 1.000000 | 0.000000 |        # [BSS] [cc] Electric Field versor
# | %
# | BSEprop= " abs jdos magn"        # [BSS] Can be any among abs/jdos/kerr/asymm/anHAll/magn/dich/photolum/esrt
# | BSEdips= "none"                  # [BSS] Can be "trace/none" or "xy/xz/yz" to define off-diagonal rotation plane
# | #WRbsWF                        # [BSS] Write to disk excitonic the WFs
