#  __  __   ________   ___ __ __    _______   ______        
# /_/\/_/\ /_______/\ /__//_//_/\ /_______/\ /_____/\       
# \ \ \ \ \\::: _  \ \\::\| \| \ \\::: _  \ \\:::_ \ \      
#  \:\_\ \ \\::(_)  \ \\:.      \ \\::(_)  \/_\:\ \ \ \     
#   \::::_\/ \:: __  \ \\:.\-/\  \ \\::  _  \ \\:\ \ \ \    
#     \::\ \  \:.\ \  \ \\. \  \  \ \\::(_)  \ \\:\_\ \ \   
#      \__\/   \__\/\__\/ \__\/ \__\/ \_______\/ \_____\/   
#                                                           
#               Version 3.4.2 Revision 4952                 
#                http://www.yambo-code.org                  
#
# Polarizability ( -<<X>> ) [area @ Q(1) [q->0 direction]0.1000E-4  0.000     0.000   
#
#
# - Energies      are Slater exchange(X)+Perdew & Zunger(C)+Scissor
# - Wavefunctions are Slater exchange(X)+Perdew & Zunger(C)
#
# - The Green`s function is resonant -
# - Using Shifted Grids -
# - [r,Vnl] *is* included -
#
#   BSK|Identifier              :3029
#      |Dimension               :936
#      |Bands                   :20 - 50
#      |Exchange           [res]: yes
#      |Correlation        [res]: yes
#      |Kernel`s coupling       : no
#      |Exchange           [cpl]: no
#      |W interaction is bare   : no
#      |Correlation        [cpl]: no
#      |ALDA kernel in R-space  : no
#      |RL vectors    [exchange]:107
#      |RL vectors [correlation]:107
#      |E/h energy range    [ev]:-1.000000 - -1.000000
#      |Coupling range     [o/o]: 100.0000 -  100.0000
#    W |Interaction is diagonal : no
#      |Matrix size             :107
#      |Bands                   :1 - 100
#      |e/h energy range    [ev]:-1.000000 - -1.000000
#      |Poles              [o/o]: 100.0000
#      |Rl vectors in the sum   :989
#      |[r,Vnl] included        : yes
#      |Field direction         :0.1000E-4  0.000000  0.000000
#      |Coulomb Cutoff        :none
#      |xc-Kernel               :none
#   RIM|RL components      [col]:0
#      |Random points      [col]:0
#  
#   Haydock|Accuracy (requested) [o/o]:   0.0050
#          |Accuracy (reached)   [o/o]:   0.0042
#          |Iteration                 :65
#
#  E/ev[1]    alpha /Im[2alpha /Re[3alpha0/Im[4alpha0/Re[5alpha`/Im[6alpha`/Re[7]
#
  0.00      -.868E-09   23.9      0.570E-09   20.3      -.744E-09   23.9    
   0.03344    0.10172   23.87630    0.07419   20.26243    0.10172   23.87630
   0.06689    0.10436   23.81625    0.07564   20.21823    0.10436   23.81625
   0.10033    0.10610   23.79066    0.07653   20.19916    0.10610   23.79065
   0.13378    0.10774   23.77468    0.07736   20.18671    0.10774   23.77468
   0.16722    0.10935   23.76425    0.07818   20.17827    0.10935   23.76425
   0.20067    0.11095   23.75753    0.07898   20.17215    0.11095   23.75753
   0.23411    0.11255   23.75356    0.07979   20.16774    0.11255   23.75357
   0.26756    0.11415   23.75193    0.08060   20.16509    0.11415   23.75194
   0.30100    0.11576   23.75228    0.08141   20.16359    0.11576   23.75228
   0.33445    0.11739   23.75431    0.08222   20.16323    0.11739   23.75431
   0.36789    0.11903   23.75793    0.08304   20.16379    0.11903   23.75793
   0.40134    0.12069   23.76320    0.08386   20.16525    0.12069   23.76320
   0.43478    0.12237   23.76981    0.08469   20.16742    0.12237   23.76981
   0.46823    0.12406   23.77776    0.08553   20.17039    0.12406   23.77777
   0.50167    0.12578   23.78687    0.08637   20.17429    0.12578   23.78687
   0.53512    0.12752   23.79717    0.08723   20.17869    0.12752   23.79717
   0.56856    0.12927   23.80892    0.08809   20.18374    0.12927   23.80892
   0.60201    0.13106   23.82183    0.08895   20.18957    0.13106   23.82183
   0.63545    0.13286   23.83590    0.08983   20.19584    0.13286   23.83590
   0.66890    0.13469   23.85095    0.09072   20.20294    0.13469   23.85095
   0.70234    0.13655   23.86734    0.09161   20.21050    0.13655   23.86734
   0.73579    0.13843   23.88481    0.09251   20.21869    0.13843   23.88482
   0.76923    0.14034   23.90361    0.09343   20.22750    0.14034   23.90362
   0.80268    0.14227   23.92334    0.09435   20.23712    0.14227   23.92334
   0.83612    0.14424   23.94393    0.09528   20.24707    0.14424   23.94393
   0.86957    0.14623   23.96593    0.09622   20.25776    0.14623   23.96593
   0.90301    0.14826   23.98884    0.09717   20.26883    0.14826   23.98884
   0.93645    0.15031   24.01310    0.09813   20.28051    0.15031   24.01310
   0.96990    0.15240   24.03831    0.09911   20.29271    0.15240   24.03831
   1.00334    0.15451   24.06471    0.10009   20.30564    0.15451   24.06471
   1.03679    0.15667   24.09197    0.10108   20.31905    0.15667   24.09197
   1.07023    0.15885   24.12036    0.10209   20.33313    0.15885   24.12036
   1.10368    0.16108   24.14997    0.10310   20.34769    0.16108   24.14997
   1.13712    0.16333   24.18068    0.10413   20.36277    0.16333   24.18068
   1.17057    0.16562   24.21278    0.10517   20.37830    0.16562   24.21278
   1.20401    0.16795   24.24586    0.10623   20.39448    0.16795   24.24587
   1.23746    0.17032   24.28011    0.10729   20.41117    0.17032   24.28011
   1.27090    0.17273   24.31550    0.10837   20.42870    0.17273   24.31550
   1.30435    0.17517   24.35201    0.10946   20.44647    0.17517   24.35200
   1.33779    0.17767   24.38951    0.11056   20.46504    0.17767   24.38951
   1.37124    0.18020   24.42822    0.11168   20.48408    0.18020   24.42822
   1.40468    0.18277   24.46841    0.11281   20.50348    0.18277   24.46841
   1.43813    0.18540   24.50939    0.11395   20.52379    0.18540   24.50939
   1.47157    0.18806   24.55199    0.11511   20.54457    0.18806   24.55199
   1.50502    0.19078   24.59566    0.11628   20.56585    0.19078   24.59566
   1.53846    0.19354   24.64045    0.11747   20.58770    0.19354   24.64046
   1.57191    0.19636   24.68634    0.11867   20.61025    0.19636   24.68635
   1.60535    0.19922   24.73346    0.11989   20.63315    0.19922   24.73346
   1.63880    0.20214   24.78204    0.12112   20.65683    0.20214   24.78203
   1.67224    0.20511   24.83189    0.12237   20.68099    0.20511   24.83190
   1.70569    0.20813   24.88327    0.12364   20.70564    0.20813   24.88327
   1.73913    0.21122   24.93570    0.12492   20.73102    0.21122   24.93570
   1.77258    0.21436   24.98936    0.12621   20.75725    0.21436   24.98936
   1.80602    0.21756   25.04454    0.12753   20.78366    0.21756   25.04454
   1.83946    0.22083   25.10093    0.12886   20.81095    0.22083   25.10093
   1.87291    0.22416   25.15879    0.13021   20.83897    0.22416   25.15879
   1.90635    0.22755   25.21810    0.13158   20.86711    0.22755   25.21811
   1.93980    0.23101   25.27886    0.13296   20.89611    0.23101   25.27886
   1.97324    0.23454   25.34087    0.13437   20.92592    0.23454   25.34087
   2.00669    0.23814   25.40443    0.13579   20.95630    0.23814   25.40442
   2.04013    0.24182   25.46929    0.13723   20.98698    0.24182   25.46929
   2.07358    0.24558   25.53589    0.13870   21.01864    0.24558   25.53589
   2.10702    0.24940   25.60403    0.14018   21.05087    0.24940   25.60403
   2.14047    0.25332   25.67358    0.14168   21.08361    0.25332   25.67357
   2.17391    0.25731   25.74475    0.14321   21.11715    0.25731   25.74475
   2.20736    0.26139   25.81743    0.14475   21.15132    0.26139   25.81743
   2.24080    0.26557   25.89160    0.14632   21.18624    0.26557   25.89160
   2.27425    0.26983   25.96756    0.14791   21.22174    0.26983   25.96755
   2.30769    0.27419   26.04529    0.14953   21.25787    0.27419   26.04528
   2.34114    0.27864   26.12478    0.15116   21.29455    0.27864   26.12478
   2.37458    0.28319   26.20613    0.15282   21.33232    0.28319   26.20613
   2.40803    0.28785   26.28903    0.15451   21.37050    0.28785   26.28903
   2.44147    0.29261   26.37394    0.15622   21.40963    0.29261   26.37394
   2.47492    0.29749   26.46053    0.15795   21.44917    0.29749   26.46053
   2.50836    0.30248   26.54899    0.15972   21.48955    0.30248   26.54899
   2.54181    0.30760   26.63933    0.16150   21.53078    0.30760   26.63934
   2.57525    0.31283   26.73173    0.16332   21.57263    0.31283   26.73173
   2.60870    0.31821   26.82585    0.16516   21.61519    0.31821   26.82586
   2.64214    0.32371   26.92218    0.16704   21.65847    0.32371   26.92218
   2.67559    0.32935   27.02072    0.16894   21.70251    0.32935   27.02071
   2.70903    0.33513   27.12127    0.17087   21.74743    0.33513   27.12127
   2.74247    0.34106   27.22410    0.17283   21.79311    0.34106   27.22409
   2.77592    0.34714   27.32902    0.17482   21.83967    0.34714   27.32903
   2.80936    0.35339   27.43631    0.17684   21.88692    0.35339   27.43631
   2.84281    0.35981   27.54573    0.17889   21.93516    0.35981   27.54573
   2.87625    0.36640   27.65778    0.18098   21.98399    0.36640   27.65778
   2.90970    0.37317   27.77220    0.18311   22.03380    0.37317   27.77220
   2.94314    0.38014   27.88907    0.18527   22.08425    0.38014   27.88908
   2.97659    0.38730   28.00861    0.18746   22.13592    0.38730   28.00861
   3.01003    0.39468   28.13043    0.18969   22.18810    0.39468   28.13043
   3.04348    0.40227   28.25521    0.19196   22.24118    0.40227   28.25520
   3.07692    0.41009   28.38279    0.19427   22.29518    0.41009   28.38280
   3.11037    0.41814   28.51327    0.19661   22.35001    0.41814   28.51327
   3.14381    0.42645   28.64647    0.19900   22.40605    0.42645   28.64647
   3.17726    0.43501   28.78294    0.20143   22.46281    0.43501   28.78294
   3.21070    0.44386   28.92230    0.20389   22.52068    0.44386   28.92230
   3.24415    0.45300   29.06484    0.20641   22.57939    0.45300   29.06484
   3.27759    0.46245   29.21064    0.20897   22.63907    0.46245   29.21064
   3.31104    0.47221   29.35998    0.21158   22.69939    0.47221   29.35998
   3.34448    0.48232   29.51272    0.21423   22.76109    0.48232   29.51273
   3.37793    0.49280   29.66905    0.21693   22.82369    0.49280   29.66906
   3.41137    0.50365   29.82929    0.21969   22.88720    0.50365   29.82929
   3.44482    0.51493   29.99322    0.22249   22.95194    0.51493   29.99322
   3.47826    0.52663   30.16133    0.22535   23.01759    0.52663   30.16133
   3.51171    0.53881   30.33342    0.22825   23.08471    0.53881   30.33343
   3.54515    0.55148   30.50994    0.23122   23.15245    0.55148   30.50993
   3.57860    0.56470   30.69086    0.23425   23.22142    0.56470   30.69086
   3.61204    0.57850   30.87635    0.23733   23.29155    0.57850   30.87634
   3.64548    0.59293   31.06679    0.24048   23.36277    0.59293   31.06678
   3.67893    0.60804   31.26227    0.24369   23.43528    0.60804   31.26226
   3.71237    0.62389   31.46314    0.24696   23.50897    0.62389   31.46314
   3.74582    0.64058   31.66932    0.25030   23.58391    0.64058   31.66931
   3.77926    0.65815   31.88153    0.25372   23.65988    0.65815   31.88153
   3.81271    0.67673   32.09970    0.25720   23.73725    0.67673   32.09970
   3.84615    0.69642   32.32447    0.26076   23.81590    0.69642   32.32447
   3.87960    0.71740   32.55590    0.26438   23.89598    0.71739   32.55590
   3.91304    0.73979   32.79468    0.26810   23.97713    0.73979   32.79468
   3.94649    0.76383   33.04112    0.27189   24.05980    0.76384   33.04111
   3.97993    0.78981   33.29575    0.27578   24.14371    0.78981   33.29575
   4.01338    0.81803   33.55932    0.27974   24.22920    0.81803   33.55932
   4.04682    0.84899   33.83229    0.28379   24.31634    0.84899   33.83229
   4.08027    0.88324   34.11565    0.28795   24.40461    0.88324   34.11565
   4.11371    0.92163   34.41025    0.29220   24.49453    0.92163   34.41024
   4.14716    0.96526   34.71727    0.29655   24.58580    0.96526   34.71727
   4.18060    1.01578   35.03782    0.30101   24.67887    1.01578   35.03782
   4.21405    1.07552   35.37346    0.30557   24.77356    1.07552   35.37346
   4.24749    1.14811   35.72559    0.31025   24.86984    1.14811   35.72559
   4.28094    1.23921   36.09521    0.31506   24.96770    1.23921   36.09521
   4.31438    1.35779   36.48211    0.31999   25.06741    1.35779   36.48211
   4.34783    1.51846   36.88170    0.32505   25.16876    1.51846   36.88170
   4.38127    1.74346   37.27890    0.33025   25.27184    1.74346   37.27890
   4.41472    2.05659   37.63724    0.33558   25.37705    2.05659   37.63723
   4.44816    2.43977   37.88663    0.34106   25.48410    2.43977   37.88663
   4.48161    2.75995   37.93527    0.34671   25.59308    2.75996   37.93527
   4.51505    2.83234   37.83112    0.35252   25.70404    2.83234   37.83112
   4.54849    2.64223   37.84806    0.35850   25.81706    2.64224   37.84806
   4.58194    2.37961   38.12316    0.36467   25.93212    2.37961   38.12316
   4.61538    2.18534   38.57896    0.37102   26.04961    2.18534   38.57896
   4.64883    2.08491   39.12342    0.37758   26.16914    2.08492   39.12342
   4.68227    2.06416   39.71198    0.38437   26.29094    2.06416   39.71198
   4.71572    2.11015   40.33150    0.39138   26.41527    2.11015   40.33150
   4.74916    2.21619   40.98656    0.39864   26.54189    2.21619   40.98656
   4.78261    2.36557   41.68453    0.40615   26.67130    2.36557   41.68453
   4.81605    2.54657   42.38964    0.41394   26.80314    2.54657   42.38964
   4.84950    2.83664   43.08215    0.42203   26.93794    2.83664   43.08215
   4.88294    3.27237   43.81640    0.43044   27.07543    3.27237   43.81641
   4.91639    3.82689   44.51883    0.43920   27.21579    3.82689   44.51883
   4.94983    4.46117   45.04153    0.44833   27.35934    4.46117   45.04153
   4.98328    5.00975   45.32943    0.45787   27.50614    5.00975   45.32943
   5.01672    5.32896   45.54267    0.46784   27.65628    5.32896   45.54267
   5.05017    5.44835   45.88162    0.47831   27.80957    5.44835   45.88162
   5.08361    5.48243   46.46008    0.48931   27.96671    5.48244   46.46008
   5.11706    5.61078   47.36587    0.50090   28.12763    5.61079   47.36587
   5.15050    5.98346   48.52544    0.51314   28.29260    5.98347   48.52544
   5.18395    6.73817   49.75872    0.52611   28.46183    6.73813   49.75871
   5.21739    7.96036   50.83605    0.53990   28.63547    7.96036   50.83609
   5.25084    9.54099   51.39812    0.55464   28.81384    9.54101   51.39805
   5.28428   10.90689   51.18419    0.57043   28.99733   10.90688   51.18422
   5.31773   11.38720   50.72258    0.58747   29.18612   11.38727   50.72260
   5.35117   11.33581   50.99825    0.60593   29.38083   11.33578   50.99817
   5.38462   11.59832   52.24469    0.62610   29.58172   11.59831   52.24472
   5.41806   12.68982   53.96875    0.64827   29.78946   12.68987   53.96879
   5.45151   14.92264   55.49308    0.67288   30.00465   14.92261   55.49293
   5.48495   18.24274   55.92678    0.70048   30.22790   18.24246   55.92675
   5.51839   21.59004   54.34414    0.73180   30.46022   21.59044   54.34455
   5.55184   23.00663   51.34889    0.76786   30.70253   23.00670   51.34838
   5.58528   22.38690   49.26596    0.81003   30.95628   22.38583   49.26608
   5.61873   21.93051   48.88473    0.86033   31.22272   21.93193   48.88549
   5.65217   22.98532   48.96209    0.92167   31.50367   22.98526   48.96079
   5.68562   24.92520   47.60857    0.99843   31.80102   24.92282   47.60896
   5.71906   25.47255   44.25302    1.09742   32.11626   25.47493   44.25456
   5.75251   23.22733   41.19720    1.22934   32.44995   23.22898   41.19381
   5.78595   19.80285   40.34017    1.41143   32.79830   19.79814   40.34196
   5.81940   16.84903   41.19217    1.67048   33.14673   16.85097   41.19504
   5.85284   14.63623   42.93980    2.04235   33.45400   14.64152   42.93597
   5.88629   13.17992   45.12070    2.54216   33.63431   13.17129   45.11860
   5.91973   12.61795   47.60006    3.05828   33.56727   12.61952   47.60695
   5.95318   12.80669   50.32567    3.30512   33.22230   12.81612   50.32759
   5.98662   13.63508   52.95041    3.13807   32.88318   13.62799   52.93116
   6.02007   15.07786   55.18421    2.77898   32.86478   15.06580   55.20017
   6.05351   16.99972   56.92617    2.49665   33.13622   17.02567   56.94908
   6.08696   19.16008   58.06150    2.38612   33.53423   19.15196   58.00425
   6.12040   21.21782   58.66864    2.44230   33.92915   21.18205   58.69534
   6.15385   23.26908   59.19497    2.59623   34.22590   23.32479   59.25235
   6.18729   25.61603   59.42586    2.69181   34.39259   25.60641   59.32982
   6.22074   27.99986   58.85737    2.62021   34.53975   27.93112   58.87885
   6.25418   30.03059   57.52589    2.46470   34.82723   30.11439   57.61160
   6.28763   31.01266   55.53608    2.35111   35.26918   31.02159   55.44830
   6.32107   30.50889   53.89632    2.32946   35.80614   30.41067   53.88307
   6.35452   29.84924   53.52633    2.41603   36.39715   29.90466   53.61559
   6.38796   29.85612   53.61660    2.63091   37.01468   29.92118   53.57551
   6.42140   29.52995   53.29753    3.00459   37.62595   29.43333   53.23315
   6.45485   28.33697   53.36288    3.54859   38.16826   28.33623   53.43955
   6.48829   27.10235   54.59539    4.19426   38.48926   27.17738   54.61388
   6.52174   26.32315   56.85734    4.77083   38.42863   26.29770   56.77638
   6.55518   26.47733   60.14513    4.99346   38.17295   26.42914   60.16183
   6.58863   28.15268   64.20591    4.85243   38.18764   28.17203   64.27776
   6.62207   31.80603   67.97086    4.72820   38.62619   31.86313   67.94356
   6.65552   37.24569   70.16036    4.87170   39.28709   37.19912   70.06975
   6.68896   43.45092   70.10155    5.30037   39.85888   43.39977   70.17707
   6.72241   49.53441   67.91209    5.91462   40.06629   49.63754   67.97712
   6.75585   54.57523   63.57727    6.33902   39.92820   54.55606   63.46589
   6.78930   57.75423   57.72897    6.27559   39.88269   57.66591   57.74343
   6.82274   58.69114   51.05587    6.01557   40.30084   58.74558   51.11945
   6.85619   56.47553   44.80851    5.91606   41.09275   56.52188   44.77356
   6.88963   52.42274   40.69423    6.11694   42.03545   52.38480   40.66578
   6.92308   48.18464   38.16117    6.71722   42.99625   48.15298   38.18904
   6.95652   43.14511   37.11938    7.72950   43.87770   43.17050   37.13934
   6.98997   37.89599   38.46924    9.00999   44.46681   37.92291   38.44832
   7.02341   34.17851   41.33492   10.32456   44.63326   34.16104   41.31656
   7.05686   32.20358   44.25986   11.46769   44.50933   32.17417   44.27235
   7.09030   30.42320   46.93672   12.46969   44.34075   30.44021   46.95973
   7.12375   28.17397   50.05186   13.66003   44.11440   28.20419   50.04597
   7.15719   26.61403   54.25198   14.94689   43.52387   26.60027   54.21955
   7.19064   26.31343   59.53361   15.99207   42.59069   26.27838   59.53119
   7.22408   27.18873   65.14419   17.00816   41.33224   27.19342   65.20631
   7.25752   29.36513   70.57547   17.72888   39.28351   29.42435   70.57439
   7.29097   32.98278   75.49728   17.02545   36.82808   32.96896   75.38230
   7.32441   37.80029   79.04439   14.95924   35.42856   37.69988   79.09166
   7.35786   42.58370   80.66440   12.85121   35.56327   42.67093   80.83356
   7.39130   46.25714   81.50397   11.51704   36.59655   46.34179   81.33283
   7.42475   49.07771   82.67182   11.01653   37.73918   48.90842   82.55418
   7.45819   51.40445   84.42492   11.08181   38.53687   51.40141   84.70371
   7.49164   54.20480   87.67164   11.32801   39.06358   54.39182   87.64230
   7.52508   58.96129   91.70369   11.69002   39.44127   58.88858   91.42304
   7.55853   65.46902   94.00475   12.31606   39.36189   65.28277   94.14588
   7.59197   71.62218   94.16431   12.71366   38.57098   71.80907   94.42155
   7.62542   77.26721   94.36510   12.17415   37.55164   77.38202   94.10289
   7.65886   83.57838   94.05568   10.87351   37.08120   83.29774   93.88740
   7.69231   88.34569   91.40968    9.43487   37.38966   88.35693   91.75717
   7.72575   89.71249   89.61214    8.26958   38.27612   90.03252   89.64409
   7.75920   91.47128   92.30463    7.49691   39.44916   91.30882   91.90479
   7.79264   96.91360   97.55007    7.07558   40.66135   96.61347   97.69645
    7.8261   106.0416   101.8043     6.9323    41.7429   106.4161   102.2651
    7.8595   118.6325   103.6684     6.9232    42.6993   118.7801   103.1695
    7.8930   133.3181   100.3626     6.9377    43.5899   132.6534   100.1652
    7.9264   144.1728    90.7144     6.9821    44.4673   144.5838    91.4013
    7.9599   148.0285    80.9653     7.1016    45.3512   148.4918    80.6011
    7.9933   148.8128    76.5592     7.3406    46.1995   147.9847    76.2337
    8.0268   152.0052    77.9615     7.5623    46.8897   152.2368    78.5672
    8.0602   164.0497    82.2165     7.6568    47.5176   164.6314    82.0801
    8.0936   186.2659    80.6415     7.7888    48.2971   185.5887    80.1277
    8.1271   209.3469    64.0734     8.0914    49.0660   209.2159    64.6627
    8.1605   220.0674    37.5090     8.3880    49.5103   220.9657    37.3061
    8.1940   218.8349    14.0870     8.3601    49.7620   218.1920    13.8085
    8.2274   214.2973    -1.2466     8.0654    50.2452   214.0952    -0.7118
    8.2609   214.0232   -12.7779     7.7252    50.9979   214.7305   -13.1314
    8.2943   218.7702   -30.1121     7.3709    51.8333   218.2514   -30.1644
    8.3278   217.3563   -55.9885     6.9546    52.8581   217.3691   -55.6339
    8.3612   202.0135   -80.9448     6.5551    54.1783   202.2538   -81.2662
    8.3946   178.0970   -94.0619     6.3314    55.6906   177.9173   -94.0241
    8.4281   157.4474   -92.7752     6.3339    57.2706   157.4769   -92.6387
    8.4615   148.3358   -84.6155     6.5020    58.8421   148.4001   -84.7020
    8.4950   150.6086   -81.2738     6.7416    60.4181   150.5583   -81.3105
    8.5284   156.7156   -92.1338     7.0276    62.0750   156.7035   -92.0384
    8.5619   153.0339  -114.1765     7.4404    63.8561   153.0809  -114.2299
    8.5953   134.6398  -132.7201     8.0990    65.7108   134.5899  -132.7496
    8.6288   110.3415  -139.9167     9.0751    67.4816   110.3725  -139.8524
    8.6622    87.9788  -138.0235    10.2900    68.9299    87.9746  -138.0653
    8.6957    69.9399  -131.0429    11.4159    69.9427    69.9246  -131.0355
    8.7291    56.4259  -121.7486    12.0951    70.8449    56.4424  -121.7377
    8.7625    46.7357  -111.9099    12.4042    72.0818    46.7282  -111.9209
    8.7960    39.8046  -102.4186    12.7321    73.7956    39.8036  -102.4146
   8.82943   34.79635  -93.46069   13.45052   75.81971   34.80027  -93.45968
   8.86288   31.26023  -84.98887   14.72435   77.71812   31.25756  -84.99080
   8.89632   28.99306  -76.92818   16.25208   79.07390   28.99307  -76.92669
   8.92977   27.87497  -69.15675   17.46391   80.02273   27.87633  -69.15688
   8.96321   27.92155  -61.66016   18.21133   81.01286   27.92026  -61.66082
   8.99666   29.25942  -54.41468   18.68078   82.13360   29.26018  -54.41390
   9.03010   32.24075  -47.52018   18.83633   83.51830   32.24073  -47.52077
   9.06355   37.40326  -41.28650   18.74316   85.49059   37.40328  -41.28633
   9.09699   45.15670  -36.54620   18.77235   88.14648   45.15682  -36.54610
   9.13043   54.99228  -35.12539   19.27543   91.32543   54.99264  -35.12558
   9.16388   65.31174  -39.55241   20.44066   94.83990   65.31165  -39.55232
   9.19732   72.24303  -51.03418   22.46598   98.27516   72.24213  -51.03419
    9.2308    70.3090   -65.4898    25.1670   100.9850    70.3091   -65.4899
    9.2642    60.3981   -74.3404    27.7559   102.7045    60.3979   -74.3402
    9.2977    49.6262   -75.0918    29.3948   103.8536    49.6264   -75.0918
    9.3311    42.3194   -71.0751    29.7432   105.4837    42.3194   -71.0752
    9.3645    39.1699   -65.4479    29.3046   108.6766    39.1698   -65.4479
    9.3980    39.9276   -60.2493    29.2283   113.4500    39.9276   -60.2493
    9.4314    43.8851   -57.1864    30.2328   119.3501    43.8851   -57.1864
    9.4649    49.0642   -58.0257    32.5888   125.8967    49.0642   -58.0257
    9.4983    52.7015   -63.3251    36.3244   132.5566    52.7014   -63.3250
    9.5318    52.7399   -71.2267    41.1278   139.1340    52.7398   -71.2267
    9.5652    48.0205   -79.1654    46.9435   146.0719    48.0206   -79.1655
    9.5987    39.5917   -83.9321    54.8483   153.3463    39.5916   -83.9320
    9.6321    30.8481   -84.3328    66.1189   159.2267    30.8481   -84.3327
    9.6656    23.9006   -81.9793    80.0166   160.3190    23.9006   -81.9793
    9.6990    18.9175   -78.6310    91.7812   154.1771    18.9174   -78.6308
    9.7324    15.4056   -75.1866    95.3664   144.5383    15.4056   -75.1866
    9.7659    12.8915   -71.9855    91.3170   139.3477    12.8915   -71.9852
    9.7993    11.0443   -69.1211    85.4403   142.3935    11.0442   -69.1210
    9.8328     9.6493   -66.5939    82.1689   151.1792     9.6493   -66.5941
    9.8662     8.5771   -64.4263    83.2439   160.9680     8.5771   -64.4265
    9.8997     7.7438   -62.6387    86.9227   167.4369     7.7437   -62.6385
    9.9331     7.1112   -61.3850    87.0230   166.9712     7.1112   -61.3850
    9.9666     6.7643   -61.9362    65.4062   153.9326     6.7644   -61.9364
  10.00     0.4849E-1  -60.06     0.6675      200.7     0.4849E-1  -60.06   
# 
# YAMBO@anomaly x 001 CPUs * 11/19/2015  17:00 [start]
#                            11/19/2015  17:00 [end]
# 
# Cpu Timing [Min/Max/Average]: 14s/14s/14s
#
# .-Input file : yambo.in
# | optics                       # [R OPT] Optics
# | bse                          # [R BSE] Bethe Salpeter Equation.
# | bsk                          # [R BSK] Bethe Salpeter Equation kernel
# | bss                          # [R BSS] Bethe Salpeter Equation solver
# | em1s                         # [R Xs] Static Inverse Dielectric Matrix
# | FFTGvecs=  989         RL    # [FFT] Plane-waves
# | NonPDirs= "YZ"               # [X/BSS] Non periodic chartesian directions (X,Y,Z,XY...)
# | Chimod= "hartree"            # [X] IP/Hartree/ALDA/LRC/BSfxc
# | BSEmod= "resonant"           # [BSE] resonant/causal/coupling
# | BSKmod= "SEX"                # [BSE] IP/Hartree/HF/ALDA/SEX/BSfxc
# | BSSmod= "h"                  # [BSS] (h)aydock/(d)iagonalization/(i)nversion/(t)ddft`
# | BSENGexx= 107          RL    # [BSK] Exchange components
# | BSENGBlk= 107          RL    # [BSK] Screened interaction block size
# | #WehCpl                      # [BSK] eh interaction included also in coupling
# | % KfnQP_E
# |  2.300000 | 1.000000 | 1.000000 |        # [EXTQP BSE] E parameters  (c/v) eV|adim|adim
# | %
# | % BEnRange
# |   0.00000 | 10.00000 | eV    # [BSS] Energy range
# | %
# | % BDmRange
# |   0.10000 |  0.10000 | eV    # [BSS] Damping range
# | %
# | BEnSteps= 300                # [BSS] Energy steps
# | % BLongDir
# | 0.1000E-4 | 0.000    | 0.000    |        # [BSS] [cc] Electric Field
# | %
# | % BSEBands
# |   20 |  50 |                 # [BSK] Bands range
# | %
# | BSHayTrs=   0.0050           # [BSS] [o/o] Haydock treshold. Strict(>0)/Average(<0)
# | % BndsRnXs
# |    1 | 100 |                 # [Xs] Polarization function bands
# | %
# | NGsBlkXs= 107          RL    # [Xs] Response block size
# | % LongDrXs
# | 0.1000E-4 | 0.000    | 0.000    |        # [Xs] [cc] Electric Field
# | %
