#                                                           
#  __  __   ________   ___ __ __    _______   ______        
# /_/\/_/\ /_______/\ /__//_//_/\ /_______/\ /_____/\       
# \ \ \ \ \\::: _  \ \\::\| \| \ \\::: _  \ \\:::_ \ \      
#  \:\_\ \ \\::(_)  \ \\:.      \ \\::(_)  \/_\:\ \ \ \     
#   \::::_\/ \:: __  \ \\:.\-/\  \ \\::  _  \ \\:\ \ \ \    
#     \::\ \  \:.\ \  \ \\. \  \  \ \\::(_)  \ \\:\_\ \ \   
#      \__\/   \__\/\__\/ \__\/ \__\/ \_______\/ \_____\/   
#                                                           
#                                                           
#        Version 4.2.0 Revision 14319 Hash 8432f48          
#                  MPI+SLK+OpenMP Build                     
#                http://www.yambo-code.org                  
#
# Polarizability ( -<<X>> ) [volume @ Q(1) [q->0 direction]0.1000E-4  0.000     0.000   
#
#
# - Energies      are Teter 93(XC)+Scissor
# - Wavefunctions are Teter 93(XC)
#
# - The Green`s function is Retarded -
# - Using the Length Gauge -
# - [r,Vnl] *is* included -
#
#   BSK|Identifier              :2874
#      |Dimension               :199
#      |Bands                   :1 - 200
#      |Exchange           [res]: yes
#      |Correlation        [res]: no
#      |Kernel`s coupling       : no
#      |Exchange           [cpl]: no
#      |Correlation        [cpl]: no
#      |W interaction is bare   : no
#      |ALDA kernel in R-space  : no
#      |RL vectors    [exchange]:9045
#      |E/h energy range    [ev]:-1.000000 - -1.000000
#      |Coupling range     [o/o]: 100.0000 -  100.0000
#
#  E/ev[1]    ALPHA-Im[2]ALPHA-Re[3]ALPHAo-Im[4ALPHAo-Re[5]
#
   0.00000    0.00000    8.05771    0.00000   10.73405
 0.2002E-1  0.7701E-4   8.058     0.1711E-3   10.73   
 0.4004E-1  0.1540E-3   8.058     0.3421E-3   10.73   
 0.6006E-1  0.2310E-3   8.058     0.5132E-3   10.73   
 0.8008E-1  0.3080E-3   8.058     0.6843E-3   10.73   
 0.1001     0.3851E-3   8.058     0.8554E-3   10.73   
 0.1201     0.4621E-3   8.058     0.1026E-2   10.73   
 0.1401     0.5391E-3   8.058     0.1198E-2   10.73   
 0.1602     0.6162E-3   8.058     0.1369E-2   10.74   
 0.1802     0.6932E-3   8.058     0.1540E-2   10.74   
 0.2002     0.7702E-3   8.058     0.1711E-2   10.74   
 0.2202     0.8473E-3   8.059     0.1882E-2   10.74   
 0.2402     0.9244E-3   8.059     0.2054E-2   10.74   
 0.2603     0.1001E-2   8.059     0.2225E-2   10.74   
 0.2803     0.1079E-2   8.059     0.2396E-2   10.74   
 0.3003     0.1156E-2   8.059     0.2568E-2   10.74   
 0.3203     0.1233E-2   8.060     0.2739E-2   10.74   
 0.3403     0.1310E-2   8.060     0.2911E-2   10.74   
 0.3604     0.1387E-2   8.060     0.3082E-2   10.74   
 0.3804     0.1464E-2   8.060     0.3254E-2   10.74   
 0.4004     0.1541E-2   8.061     0.3426E-2   10.74   
 0.4204     0.1619E-2   8.061     0.3597E-2   10.74   
 0.4404     0.1696E-2   8.061     0.3769E-2   10.74   
 0.4605     0.1773E-2   8.062     0.3941E-2   10.74   
 0.4805     0.1850E-2   8.062     0.4113E-2   10.74   
 0.5005     0.1928E-2   8.063     0.4285E-2   10.74   
 0.5205     0.2005E-2   8.063     0.4457E-2   10.75   
 0.5405     0.2082E-2   8.063     0.4629E-2   10.75   
 0.5606     0.2160E-2   8.064     0.4802E-2   10.75   
 0.5806     0.2237E-2   8.064     0.4974E-2   10.75   
 0.6006     0.2315E-2   8.065     0.5147E-2   10.75   
 0.6206     0.2392E-2   8.065     0.5319E-2   10.75   
 0.6406     0.2470E-2   8.066     0.5492E-2   10.75   
 0.6607     0.2547E-2   8.066     0.5665E-2   10.75   
 0.6807     0.2625E-2   8.067     0.5838E-2   10.75   
 0.7007     0.2702E-2   8.067     0.6011E-2   10.76   
 0.7207     0.2780E-2   8.068     0.6184E-2   10.76   
 0.7407     0.2857E-2   8.068     0.6357E-2   10.76   
 0.7608     0.2935E-2   8.069     0.6531E-2   10.76   
 0.7808     0.3013E-2   8.069     0.6704E-2   10.76   
 0.8008     0.3091E-2   8.070     0.6878E-2   10.76   
 0.8208     0.3168E-2   8.071     0.7051E-2   10.76   
 0.8408     0.3246E-2   8.071     0.7225E-2   10.76   
 0.8609     0.3324E-2   8.072     0.7399E-2   10.77   
 0.8809     0.3402E-2   8.073     0.7574E-2   10.77   
 0.9009     0.3480E-2   8.073     0.7748E-2   10.77   
 0.9209     0.3558E-2   8.074     0.7923E-2   10.77   
 0.9409     0.3636E-2   8.075     0.8097E-2   10.77   
 0.9610     0.3714E-2   8.075     0.8272E-2   10.77   
 0.9810     0.3792E-2   8.076     0.8447E-2   10.78   
  1.001     0.3870E-2   8.077     0.8622E-2   10.78   
  1.021     0.3949E-2   8.078     0.8797E-2   10.78   
  1.041     0.4027E-2   8.079     0.8973E-2   10.78   
  1.061     0.4105E-2   8.079     0.9149E-2   10.78   
  1.081     0.4184E-2   8.080     0.9324E-2   10.78   
  1.101     0.4262E-2   8.081     0.9500E-2   10.79   
  1.121     0.4341E-2   8.082     0.9677E-2   10.79   
  1.141     0.4419E-2   8.083     0.9853E-2   10.79   
  1.161     0.4498E-2   8.084     0.1003E-1   10.79   
  1.181     0.4577E-2   8.085     0.1021E-1   10.79   
  1.201     0.4655E-2   8.086     0.1038E-1   10.80   
  1.221     0.4734E-2   8.087     0.1056E-1   10.80   
  1.241     0.4813E-2   8.087     0.1074E-1   10.80   
  1.261     0.4892E-2   8.088     0.1092E-1   10.80   
  1.281     0.4971E-2   8.089     0.1109E-1   10.80   
  1.301     0.5050E-2   8.090     0.1127E-1   10.81   
  1.321     0.5129E-2   8.091     0.1145E-1   10.81   
  1.341     0.5208E-2   8.092     0.1163E-1   10.81   
  1.361     0.5287E-2   8.094     0.1181E-1   10.81   
  1.381     0.5367E-2   8.095     0.1199E-1   10.82   
  1.401     0.5446E-2   8.096     0.1216E-1   10.82   
  1.421     0.5525E-2   8.097     0.1234E-1   10.82   
  1.441     0.5605E-2   8.098     0.1252E-1   10.82   
  1.461     0.5684E-2   8.099     0.1270E-1   10.83   
  1.481     0.5764E-2   8.100     0.1288E-1   10.83   
  1.502     0.5844E-2   8.101     0.1306E-1   10.83   
  1.522     0.5923E-2   8.102     0.1325E-1   10.83   
  1.542     0.6003E-2   8.104     0.1343E-1   10.84   
  1.562     0.6083E-2   8.105     0.1361E-1   10.84   
  1.582     0.6163E-2   8.106     0.1379E-1   10.84   
  1.602     0.6243E-2   8.107     0.1397E-1   10.84   
  1.622     0.6324E-2   8.109     0.1415E-1   10.85   
  1.642     0.6404E-2   8.110     0.1433E-1   10.85   
  1.662     0.6484E-2   8.111     0.1452E-1   10.85   
  1.682     0.6565E-2   8.112     0.1470E-1   10.86   
  1.702     0.6645E-2   8.114     0.1488E-1   10.86   
  1.722     0.6726E-2   8.115     0.1507E-1   10.86   
  1.742     0.6806E-2   8.116     0.1525E-1   10.87   
  1.762     0.6887E-2   8.118     0.1543E-1   10.87   
  1.782     0.6968E-2   8.119     0.1562E-1   10.87   
  1.802     0.7049E-2   8.121     0.1580E-1   10.87   
  1.822     0.7130E-2   8.122     0.1599E-1   10.88   
  1.842     0.7211E-2   8.124     0.1617E-1   10.88   
  1.862     0.7292E-2   8.125     0.1636E-1   10.88   
  1.882     0.7373E-2   8.126     0.1655E-1   10.89   
  1.902     0.7455E-2   8.128     0.1673E-1   10.89   
  1.922     0.7536E-2   8.129     0.1692E-1   10.89   
  1.942     0.7618E-2   8.131     0.1711E-1   10.90   
  1.962     0.7700E-2   8.132     0.1729E-1   10.90   
  1.982     0.7781E-2   8.134     0.1748E-1   10.90   
  2.002     0.7863E-2   8.136     0.1767E-1   10.91   
  2.022     0.7945E-2   8.137     0.1786E-1   10.91   
  2.042     0.8027E-2   8.139     0.1805E-1   10.92   
  2.062     0.8110E-2   8.140     0.1824E-1   10.92   
  2.082     0.8192E-2   8.142     0.1843E-1   10.92   
  2.102     0.8274E-2   8.144     0.1861E-1   10.93   
  2.122     0.8357E-2   8.145     0.1881E-1   10.93   
  2.142     0.8439E-2   8.147     0.1900E-1   10.93   
  2.162     0.8522E-2   8.149     0.1919E-1   10.94   
  2.182     0.8605E-2   8.150     0.1938E-1   10.94   
  2.202     0.8688E-2   8.152     0.1957E-1   10.95   
  2.222     0.8771E-2   8.154     0.1976E-1   10.95   
  2.242     0.8854E-2   8.156     0.1996E-1   10.95   
  2.262     0.8937E-2   8.157     0.2015E-1   10.96   
  2.282     0.9021E-2   8.159     0.2034E-1   10.96   
  2.302     0.9104E-2   8.161     0.2054E-1   10.97   
  2.322     0.9188E-2   8.163     0.2073E-1   10.97   
  2.342     0.9272E-2   8.165     0.2092E-1   10.97   
  2.362     0.9356E-2   8.167     0.2112E-1   10.98   
  2.382     0.9440E-2   8.168     0.2132E-1   10.98   
  2.402     0.9524E-2   8.170     0.2151E-1   10.99   
  2.422     0.9608E-2   8.172     0.2171E-1   10.99   
  2.442     0.9692E-2   8.174     0.2190E-1   11.00   
  2.462     0.9777E-2   8.176     0.2210E-1   11.00   
  2.482     0.9862E-2   8.178     0.2230E-1   11.00   
  2.503     0.9946E-2   8.180     0.2250E-1   11.01   
  2.523     0.1003E-1   8.182     0.2270E-1   11.01   
  2.543     0.1012E-1   8.184     0.2290E-1   11.02   
  2.563     0.1020E-1   8.186     0.2310E-1   11.02   
  2.583     0.1029E-1   8.188     0.2330E-1   11.03   
  2.603     0.1037E-1   8.190     0.2350E-1   11.03   
  2.623     0.1046E-1   8.192     0.2370E-1   11.04   
  2.643     0.1054E-1   8.194     0.2390E-1   11.04   
  2.663     0.1063E-1   8.197     0.2410E-1   11.05   
  2.683     0.1072E-1   8.199     0.2430E-1   11.05   
  2.703     0.1080E-1   8.201     0.2451E-1   11.06   
  2.723     0.1089E-1   8.203     0.2471E-1   11.06   
  2.743     0.1097E-1   8.205     0.2492E-1   11.07   
  2.763     0.1106E-1   8.207     0.2512E-1   11.07   
   2.78278    0.01115    8.20971    0.02533   11.07542
   2.80280    0.01123    8.21186    0.02553   11.08053
   2.82282    0.01132    8.21409    0.02574   11.08557
   2.84284    0.01141    8.21646    0.02594   11.09083
   2.86286    0.01150    8.21876    0.02615   11.09594
   2.88288    0.01158    8.22098    0.02636   11.10121
   2.90290    0.01167    8.22328    0.02657   11.10654
   2.92292    0.01176    8.22565    0.02678   11.11180
   2.94294    0.01185    8.22810    0.02699   11.11736
   2.96296    0.01193    8.23047    0.02720   11.12270
   2.98298    0.01202    8.23284    0.02741   11.12811
   3.00300    0.01211    8.23528    0.02762   11.13367
   3.02302    0.01220    8.23766    0.02783   11.13915
   3.04304    0.01229    8.24010    0.02805   11.14486
   3.06306    0.01238    8.24262    0.02826   11.15042
   3.08308    0.01247    8.24507    0.02847   11.15605
   3.10310    0.01256    8.24759    0.02869   11.16190
   3.12312    0.01265    8.25003    0.02890   11.16754
   3.14314    0.01273    8.25270    0.02912   11.17339
   3.16316    0.01282    8.25522    0.02933   11.17925
   3.18318    0.01291    8.25781    0.02955   11.18518
   3.20320    0.01300    8.26048    0.02977   11.19118
   3.22322    0.01309    8.26293    0.02999   11.19711
   3.24324    0.01319    8.26560    0.03021   11.20311
   3.26326    0.01328    8.26834    0.03043   11.20919
   3.28328    0.01337    8.27101    0.03065   11.21534
   3.30330    0.01346    8.27360    0.03087   11.22142
   3.32332    0.01355    8.27642    0.03109   11.22772
   3.34334    0.01364    8.27901    0.03131   11.23394
   3.36336    0.01373    8.28183    0.03153   11.24017
   3.38338    0.01382    8.28457    0.03176   11.24647
   3.40340    0.01392    8.28738    0.03198   11.25284
   3.42342    0.01401    8.29013    0.03221   11.25929
   3.44344    0.01410    8.29294    0.03243   11.26581
   3.46346    0.01419    8.29569    0.03266   11.27226
   3.48348    0.01429    8.29865    0.03289   11.27893
   3.50350    0.01438    8.30154    0.03312   11.28545
   3.52352    0.01447    8.30436    0.03334   11.29219
   3.54354    0.01456    8.30725    0.03357   11.29886
   3.56356    0.01466    8.31021    0.03380   11.30553
   3.58358    0.01475    8.31310    0.03403   11.31243
   3.60360    0.01485    8.31614    0.03427   11.31924
   3.62362    0.01494    8.31911    0.03450   11.32606
   3.64364    0.01503    8.32200    0.03473   11.33288
   3.66366    0.01513    8.32511    0.03497   11.33992
   3.68368    0.01522    8.32815    0.03520   11.34704
   3.70370    0.01532    8.33126    0.03544   11.35400
   3.72372    0.01541    8.33430    0.03567   11.36112
   3.74374    0.01551    8.33741    0.03591   11.36831
   3.76376    0.01560    8.34045    0.03615   11.37557
   3.78378    0.01570    8.34364    0.03639   11.38283
   3.80380    0.01580    8.34675    0.03663   11.39010
   3.82382    0.01589    8.34994    0.03687   11.39751
   3.84384    0.01599    8.35320    0.03711   11.40477
   3.86386    0.01609    8.35638    0.03735   11.41240
   3.88388    0.01618    8.35964    0.03760   11.41982
   3.90390    0.01628    8.36283    0.03784   11.42737
   3.92392    0.01638    8.36602    0.03809   11.43493
   3.94394    0.01648    8.36943    0.03833   11.44264
   3.96396    0.01657    8.37261    0.03858   11.45035
   3.98398    0.01667    8.37602    0.03883   11.45806
   4.00400    0.01677    8.37936    0.03908   11.46591
   4.02402    0.01687    8.38269    0.03932   11.47362
   4.04404    0.01697    8.38610    0.03958   11.48162
   4.06406    0.01707    8.38959    0.03983   11.48948
   4.08408    0.01717    8.39292    0.04008   11.49748
   4.10410    0.01727    8.39648    0.04033   11.50564
   4.12412    0.01737    8.39981    0.04059   11.51364
   4.14414    0.01747    8.40330    0.04084   11.52179
   4.16416    0.01757    8.40685    0.04110   11.53009
   4.18418    0.01767    8.41034    0.04136   11.53825
   4.20420    0.01777    8.41389    0.04161   11.54655
   4.22422    0.01787    8.41753    0.04187   11.55500
   4.24424    0.01797    8.42101    0.04213   11.56337
   4.26426    0.01807    8.42472    0.04239   11.57182
   4.28428    0.01817    8.42835    0.04266   11.58027
   4.30430    0.01828    8.43198    0.04292   11.58887
   4.32432    0.01838    8.43568    0.04318   11.59746
   4.34434    0.01848    8.43931    0.04345   11.60613
   4.36436    0.01858    8.44310    0.04372   11.61488
   4.38438    0.01869    8.44673    0.04398   11.62362
   4.40440    0.01879    8.45058    0.04425   11.63252
   4.42442    0.01889    8.45421    0.04452   11.64134
   4.44444    0.01900    8.45799    0.04479   11.65038
   4.46446    0.01910    8.46185    0.04506   11.65927
   4.48448    0.01921    8.46577    0.04534   11.66846
   4.50450    0.01931    8.46955    0.04561   11.67743
   4.52452    0.01942    8.47348    0.04589   11.68662
   4.54454    0.01952    8.47733    0.04616   11.69588
   4.56456    0.01963    8.48126    0.04644   11.70507
   4.58458    0.01973    8.48519    0.04672   11.71441
   4.60460    0.01984    8.48919    0.04700   11.72382
   4.62462    0.01995    8.49312    0.04728   11.73331
   4.64464    0.02005    8.49720    0.04756   11.74272
   4.66466    0.02016    8.50113    0.04784   11.75236
   4.68468    0.02027    8.50527    0.04813   11.76192
   4.70470    0.02038    8.50935    0.04841   11.77155
   4.72472    0.02049    8.51343    0.04870   11.78126
   4.74474    0.02059    8.51750    0.04899   11.79104
   4.76476    0.02070    8.52165    0.04928   11.80090
   4.78478    0.02081    8.52588    0.04957   11.81083
   4.80480    0.02092    8.52995    0.04986   11.82069
   4.82482    0.02103    8.53418    0.05016   11.83077
   4.84484    0.02114    8.53840    0.05045   11.84077
   4.86486    0.02125    8.54270    0.05075   11.85093
   4.88488    0.02136    8.54693    0.05104   11.86115
   4.90490    0.02147    8.55115    0.05134   11.87131
   4.92492    0.02158    8.55552    0.05164   11.88161
   4.94494    0.02170    8.55975    0.05194   11.89213
   4.96496    0.02181    8.56419    0.05224   11.90243
   4.98498    0.02192    8.56857    0.05255   11.91288
   5.00500    0.02203    8.57294    0.05285   11.92348
   5.02502    0.02215    8.57731    0.05316   11.93408
   5.04504    0.02226    8.58183    0.05347   11.94475
   5.06506    0.02237    8.58621    0.05378   11.95550
   5.08508    0.02249    8.59080    0.05409   11.96625
   5.10510    0.02260    8.59532    0.05440   11.97714
   5.12512    0.02272    8.59984    0.05472   11.98803
   5.14514    0.02283    8.60436    0.05503   11.99908
   5.16516    0.02295    8.60903    0.05535   12.01012
   5.18518    0.02306    8.61355    0.05567   12.02124
   5.20520    0.02318    8.61822    0.05599   12.03243
   5.22522    0.02330    8.62289    0.05631   12.04362
   5.24524    0.02341    8.62763    0.05663   12.05496
   5.26526    0.02353    8.63230    0.05695   12.06630
   5.28528    0.02365    8.63697    0.05728   12.07778
   5.30531    0.02377    8.64164    0.05761   12.08920
   5.32533    0.02389    8.64646    0.05794   12.10083
   5.34535    0.02400    8.65128    0.05827   12.11247
   5.36537    0.02412    8.65609    0.05860   12.12410
   5.38539    0.02424    8.66091    0.05893   12.13589
   5.40541    0.02436    8.66573    0.05927   12.14767
   5.42543    0.02448    8.67069    0.05960   12.15960
   5.44545    0.02461    8.67559    0.05994   12.17161
   5.46547    0.02473    8.68055    0.06028   12.18354
   5.48549    0.02485    8.68552    0.06063   12.19577
   5.50551    0.02497    8.69048    0.06097   12.20785
   5.52553    0.02509    8.69545    0.06132   12.22015
   5.54555    0.02522    8.70056    0.06166   12.23238
   5.56557    0.02534    8.70553    0.06201   12.24476
   5.58559    0.02546    8.71064    0.06236   12.25721
   5.60561    0.02559    8.71575    0.06271   12.26973
   5.62563    0.02571    8.72087    0.06307   12.28241
   5.64565    0.02584    8.72613    0.06342   12.29501
   5.66567    0.02596    8.73124    0.06378   12.30783
   5.68569    0.02609    8.73651    0.06414   12.32058
   5.70571    0.02621    8.74177    0.06450   12.33340
   5.72573    0.02634    8.74703    0.06487   12.34629
   5.74575    0.02647    8.75229    0.06523   12.35941
   5.76577    0.02659    8.75755    0.06560   12.37245
   5.78579    0.02672    8.76296    0.06597   12.38572
   5.80581    0.02685    8.76823    0.06634   12.39891
   5.82583    0.02698    8.77363    0.06671   12.41225
   5.84585    0.02711    8.77905    0.06709   12.42567
   5.86587    0.02724    8.78446    0.06747   12.43901
   5.88589    0.02737    8.79001    0.06784   12.45264
   5.90591    0.02750    8.79543    0.06823   12.46621
   5.92593    0.02763    8.80091    0.06861   12.47999
   5.94595    0.02776    8.80647    0.06899   12.49363
   5.96597    0.02790    8.81203    0.06938   12.50756
   5.98599    0.02803    8.81758    0.06977   12.52149
   6.00601    0.02816    8.82329    0.07016   12.53543
   6.02603    0.02829    8.82900    0.07055   12.54958
   6.04605    0.02843    8.83456    0.07095   12.56366
   6.06607    0.02856    8.84041    0.07135   12.57789
   6.08609    0.02870    8.84612    0.07175   12.59227
   6.10611    0.02883    8.85182    0.07215   12.60665
   6.12613    0.02897    8.85760    0.07255   12.62118
   6.14615    0.02911    8.86346    0.07296   12.63570
   6.16617    0.02924    8.86917    0.07337   12.65038
   6.18619    0.02938    8.87517    0.07378   12.66498
   6.20621    0.02952    8.88102    0.07419   12.67980
   6.22623    0.02966    8.88703    0.07461   12.69477
   6.24625    0.02980    8.89288    0.07503   12.70974
   6.26627    0.02994    8.89881    0.07545   12.72486
   6.28629    0.03008    8.90481    0.07587   12.73990
   6.30631    0.03022    8.91096    0.07630   12.75517
   6.32633    0.03036    8.91697    0.07672   12.77044
   6.34635    0.03050    8.92312    0.07715   12.78585
   6.36637    0.03064    8.92927    0.07759   12.80134
   6.38639    0.03079    8.93535    0.07802   12.81691
   6.40641    0.03093    8.94150    0.07846   12.83254
   6.42643    0.03107    8.94765    0.07890   12.84840
   6.44645    0.03122    8.95395    0.07934   12.86419
   6.46647    0.03136    8.96018    0.07979   12.88020
   6.48649    0.03151    8.96648    0.08024   12.89613
   6.50651    0.03165    8.97278    0.08069   12.91229
   6.52653    0.03180    8.97922    0.08114   12.92837
   6.54655    0.03195    8.98545    0.08160   12.94468
   6.56657    0.03210    8.99190    0.08205   12.96105
   6.58659    0.03225    8.99834    0.08252   12.97758
   6.60661    0.03239    9.00494    0.08298   12.99411
   6.62663    0.03254    9.01131    0.08345   13.01086
   6.64665    0.03270    9.01791    0.08392   13.02753
   6.66667    0.03285    9.02451    0.08439   13.04436
   6.68669    0.03300    9.03103    0.08486   13.06133
   6.70671    0.03315    9.03762    0.08534   13.07830
   6.72673    0.03330    9.04437    0.08582   13.09542
   6.74675    0.03346    9.05104    0.08631   13.11269
   6.76677    0.03361    9.05763    0.08679   13.12996
   6.78679    0.03376    9.06453    0.08728   13.14737
   6.80681    0.03392    9.07120    0.08778   13.16494
   6.82683    0.03408    9.07809    0.08827   13.18250
   6.84685    0.03423    9.08483    0.08877   13.20036
   6.86687    0.03439    9.09165    0.08927   13.21808
   6.88689    0.03455    9.09869    0.08978   13.23601
   6.90691    0.03471    9.10558    0.09029   13.25402
   6.92693    0.03487    9.11255    0.09080   13.27218
   6.94695    0.03503    9.11959    0.09131   13.29041
   6.96697    0.03519    9.12656    0.09183   13.30871
   6.98699    0.03535    9.13360    0.09235   13.32717
   7.00701    0.03551    9.14079    0.09288   13.34570
   7.02703    0.03567    9.14775    0.09341   13.36430
   7.04705    0.03584    9.15494    0.09394   13.38312
   7.06707    0.03600    9.16221    0.09447   13.40187
   7.08709    0.03616    9.16940    0.09501   13.42085
   7.10711    0.03633    9.17666    0.09555   13.43997
   7.12713    0.03650    9.18400    0.09610   13.45916
   7.14715    0.03666    9.19126    0.09665   13.47843
   7.16717    0.03683    9.19860    0.09720   13.49785
   7.18719    0.03700    9.20601    0.09776   13.51727
   7.20721    0.03717    9.21349    0.09832   13.53691
   7.22723    0.03734    9.22090    0.09888   13.55677
   7.24725    0.03751    9.22839    0.09945   13.57648
   7.26727    0.03768    9.23595    0.10002   13.59649
   7.28729    0.03785    9.24343    0.10059   13.61665
   7.30731    0.03803    9.25099    0.10117   13.63681
   7.32733    0.03820    9.25877    0.10175   13.65704
   7.34735    0.03837    9.26633    0.10234   13.67750
   7.36737    0.03855    9.27412    0.10293   13.69795
   7.38739    0.03872    9.28182    0.10352   13.71870
   7.40741    0.03890    9.28953    0.10412   13.73946
   7.42743    0.03908    9.29731    0.10472   13.76028
   7.44745    0.03926    9.30517    0.10533   13.78133
   7.46747    0.03944    9.31310    0.10594   13.80245
   7.48749    0.03962    9.32095    0.10655   13.82380
   7.50751    0.03980    9.32896    0.10717   13.84507
   7.52753    0.03998    9.33689    0.10780   13.86671
   7.54755    0.04016    9.34489    0.10842   13.88827
   7.56757    0.04035    9.35297    0.10906   13.91006
   7.58759    0.04053    9.36112    0.10969   13.93193
   7.60761    0.04071    9.36928    0.11033   13.95394
   7.62763    0.04090    9.37743    0.11098   13.97610
   7.64765    0.04109    9.38566    0.11163   13.99840
   7.66767    0.04127    9.39381    0.11228   14.02071
   7.68769    0.04146    9.40211    0.11294   14.04332
   7.70771    0.04165    9.41048    0.11360   14.06592
   7.72773    0.04184    9.41878    0.11427   14.08882
   7.74775    0.04203    9.42723    0.11494   14.11172
   7.76777    0.04223    9.43553    0.11562   14.13477
   7.78779    0.04242    9.44406    0.11630   14.15812
   7.80781    0.04261    9.45265    0.11699   14.18139
   7.82783    0.04281    9.46110    0.11768   14.20488
   7.84785    0.04300    9.46970    0.11838   14.22852
   7.86787    0.04320    9.47837    0.11908   14.25224
   7.88789    0.04340    9.48711    0.11979   14.27618
   7.90791    0.04360    9.49571    0.12050   14.30019
   7.92793    0.04380    9.50446    0.12122   14.32435
   7.94795    0.04400    9.51320    0.12195   14.34873
   7.96797    0.04420    9.52210    0.12267   14.37319
   7.98799    0.04440    9.53106    0.12341   14.39779
   8.00801    0.04461    9.53996    0.12415   14.42255
   8.02803    0.04481    9.54885    0.12489   14.44745
   8.04805    0.04502    9.55789    0.12564   14.47250
   8.06807    0.04522    9.56679    0.12640   14.49785
   8.08809    0.04543    9.57598    0.12716   14.52319
   8.10811    0.04564    9.58502    0.12793   14.54869
   8.12813    0.04585    9.59421    0.12870   14.57433
   8.14815    0.04606    9.60340    0.12948   14.60020
   8.16817    0.04627    9.61259    0.13027   14.62614
   8.18819    0.04648    9.62192    0.13106   14.65230
   8.20821    0.04670    9.63134    0.13186   14.67868
   8.22823    0.04691    9.64068    0.13266   14.70514
   8.24825    0.04713    9.65001    0.13347   14.73182
   8.26827    0.04735    9.65950    0.13428   14.75857
   8.28829    0.04757    9.66899    0.13511   14.78548
   8.30831    0.04779    9.67855    0.13593   14.81253
   8.32833    0.04801    9.68803    0.13677   14.83988
   8.34835    0.04823    9.69767    0.13761   14.86737
   8.36837    0.04845    9.70745    0.13846   14.89501
   8.38839    0.04867    9.71708    0.13931   14.92281
   8.40841    0.04890    9.72687    0.14018   14.95075
   8.42843    0.04913    9.73665    0.14104   14.97884
   8.44845    0.04935    9.74658    0.14192   15.00715
   8.46847    0.04958    9.75651    0.14280   15.03568
   8.48849    0.04981    9.76644    0.14369   15.06429
   8.50851    0.05004    9.77637    0.14459   15.09326
   8.52853    0.05028    9.78638    0.14549   15.12217
   8.54855    0.05051    9.79646    0.14640   15.15137
   8.56857    0.05075    9.80669    0.14732   15.18072
   8.58859    0.05098    9.81691    0.14825   15.21036
   8.60861    0.05122    9.82714    0.14918   15.24016
   8.62863    0.05146    9.83730    0.15012   15.27010
   8.64865    0.05170    9.84767    0.15107   15.30019
   8.66867    0.05194    9.85805    0.15203   15.33057
   8.68869    0.05218    9.86842    0.15299   15.36103
   8.70871    0.05243    9.87887    0.15396   15.39172
   8.72873    0.05267    9.88940    0.15494   15.42262
   8.74875    0.05292    9.90007    0.15593   15.45375
   8.76877    0.05317    9.91074    0.15693   15.48510
   8.78879    0.05342    9.92134    0.15793   15.51659
   8.80881    0.05367    9.93201    0.15895   15.54824
   8.82883    0.05392    9.94283    0.15997   15.58018
   8.84885    0.05417    9.95358    0.16100   15.61227
   8.86887    0.05443    9.96455    0.16204   15.64466
   8.88889    0.05468    9.97544    0.16309   15.67720
   8.90891    0.05494    9.98641    0.16415   15.70995
   8.92893    0.05520    9.99738    0.16522   15.74293
   8.94895    0.05546   10.00842    0.16629   15.77599
   8.96897    0.05572   10.01969    0.16738   15.80941
   8.98899    0.05599   10.03073    0.16847   15.84306
   9.00901    0.05625   10.04199    0.16958   15.87685
   9.02903    0.05652   10.05333    0.17069   15.91095
   9.04905    0.05679   10.06460    0.17181   15.94519
   9.06907    0.05706   10.07609    0.17295   15.97972
   9.08909    0.05733   10.08750    0.17409   16.01441
   9.10911    0.05760   10.09899    0.17525   16.04931
   9.12913    0.05788   10.11055    0.17641   16.08459
   9.14915    0.05815   10.12218    0.17758   16.11994
   9.16917    0.05843   10.13382    0.17877   16.15559
   9.18919    0.05871   10.14553    0.17996   16.19146
   9.20921    0.05899   10.15731    0.18117   16.22770
   9.22923    0.05927   10.16917    0.18239   16.26394
   9.24925    0.05956   10.18110    0.18362   16.30055
   9.26927    0.05984   10.19303    0.18486   16.33739
   9.28929    0.06013   10.20504    0.18611   16.37467
   9.30931    0.06042   10.21712    0.18737   16.41187
   9.32933    0.06071   10.22920    0.18864   16.44952
   9.34935    0.06101   10.24128    0.18993   16.48746
   9.36937    0.06130   10.25358    0.19123   16.52563
   9.38939    0.06160   10.26596    0.19254   16.56395
   9.40941    0.06189   10.27834    0.19386   16.60264
   9.42943    0.06219   10.29071    0.19519   16.64147
   9.44945    0.06250   10.30309    0.19654   16.68068
   9.46947    0.06280   10.31569    0.19790   16.72025
   9.48949    0.06311   10.32836    0.19927   16.75990
   9.50951    0.06341   10.34104    0.20066   16.79985
   9.52953    0.06372   10.35371    0.20205   16.84024
   9.54955    0.06403   10.36653    0.20347   16.88078
   9.56957    0.06435   10.37935    0.20489   16.92161
   9.58959    0.06466   10.39217    0.20633   16.96282
   9.60961    0.06498   10.40514    0.20778   17.00425
   9.62963    0.06530   10.41826    0.20925   17.04590
   9.64965    0.06562   10.43138    0.21073   17.08800
   9.66967    0.06594   10.44450    0.21223   17.13024
   9.68969    0.06627   10.45776    0.21374   17.17293
   9.70971    0.06659   10.47103    0.21526   17.21577
   9.72973    0.06692   10.48444    0.21680   17.25898
   9.74975    0.06725   10.49786    0.21836   17.30248
   9.76977    0.06759   10.51127    0.21993   17.34650
   9.78979    0.06792   10.52484    0.22152   17.39060
   9.80981    0.06826   10.53855    0.22312   17.43507
   9.82983    0.06860   10.55218    0.22474   17.47990
   9.84985    0.06894   10.56589    0.22637   17.52504
   9.86987    0.06928   10.57975    0.22802   17.57039
   9.88989    0.06963   10.59376    0.22969   17.61620
   9.90991    0.06998   10.60769    0.23138   17.66229
   9.92993    0.07033   10.62170    0.23308   17.70884
   9.94995    0.07068   10.63586    0.23480   17.75560
   9.96997    0.07104   10.65001    0.23654   17.80274
   9.98999    0.07140   10.66424    0.23829   17.85024
  10.01001    0.07176   10.67854    0.24007   17.89804
  10.03003    0.07212   10.69292    0.24186   17.94629
  10.05005    0.07248   10.70752    0.24367   17.99491
  10.07007    0.07285   10.72197    0.24550   18.04375
  10.09009    0.07322   10.73665    0.24735   18.09311
  10.11011    0.07359   10.75140    0.24922   18.14276
  10.13013    0.07397   10.76607    0.25111   18.19286
  10.15015    0.07435   10.78097    0.25302   18.24326
  10.17017    0.07473   10.79579    0.25495   18.29403
  10.19019    0.07511   10.81083    0.25690   18.34524
  10.21021    0.07549   10.82595    0.25887   18.39689
  10.23023    0.07588   10.84107    0.26086   18.44885
  10.25025    0.07627   10.85627    0.26287   18.50117
  10.27027    0.07666   10.87153    0.26491   18.55401
  10.29029    0.07706   10.88695    0.26697   18.60723
  10.31031    0.07746   10.90244    0.26905   18.66088
  10.33033    0.07786   10.91800    0.27115   18.71491
  10.35035    0.07826   10.93356    0.27328   18.76938
  10.37037    0.07867   10.94928    0.27543   18.82423
  10.39039    0.07908   10.96506    0.27761   18.87951
  10.41041    0.07949   10.98092    0.27981   18.93532
  10.43043    0.07991   10.99693    0.28203   18.99150
  10.45045    0.08033   11.01294    0.28428   19.04812
  10.47047    0.08075   11.02909    0.28655   19.10519
  10.49049    0.08117   11.04525    0.28886   19.16285
  10.51051    0.08160   11.06156    0.29118   19.22087
  10.53053    0.08203   11.07786    0.29354   19.27935
  10.55055    0.08247   11.09431    0.29592   19.33827
  10.57057    0.08290   11.11092    0.29833   19.39786
  10.59059    0.08334   11.12752    0.30076   19.45774
  10.61061    0.08379   11.14427    0.30323   19.51821
  10.63063    0.08423   11.16116    0.30572   19.57913
  10.65065    0.08468   11.17806    0.30824   19.64042
  10.67067    0.08513   11.19496    0.31080   19.70246
  10.69069    0.08559   11.21208    0.31338   19.76471
  10.71071    0.08605   11.22927    0.31599   19.82778
  10.73073    0.08651   11.24647    0.31864   19.89122
  10.75075    0.08698   11.26396    0.32132   19.95518
  10.77077    0.08745   11.28137    0.32403   20.01981
  10.79079    0.08792   11.29886    0.32677   20.08488
  10.81081    0.08840   11.31650    0.32954   20.15047
  10.83083    0.08888   11.33422    0.33235   20.21672
  10.85085    0.08936   11.35215    0.33520   20.28342
  10.87087    0.08985   11.37001    0.33808   20.35086
  10.89089    0.09034   11.38809    0.34099   20.41868
  10.91091    0.09084   11.40625    0.34394   20.48723
  10.93093    0.09134   11.42448    0.34693   20.55630
  10.95095    0.09184   11.44279    0.34996   20.62597
  10.97097    0.09235   11.46124    0.35302   20.69623
  10.99099    0.09286   11.47977    0.35612   20.76715
  11.01101    0.09337   11.49837    0.35927   20.83867
  11.03103    0.09389   11.51712    0.36245   20.91093
  11.05105    0.09441   11.53588    0.36567   20.98371
  11.07107    0.09494   11.55500    0.36893   21.05716
  11.09109    0.09547   11.57389    0.37224   21.13142
  11.11111    0.09601   11.59309    0.37559   21.20612
  11.13113    0.09655   11.61243    0.37898   21.28164
  11.15115    0.09709   11.63178    0.38242   21.35760
  11.17117    0.09764   11.65127    0.38590   21.43453
  11.19119    0.09819   11.67091    0.38943   21.51213
  11.21121    0.09875   11.69055    0.39301   21.59025
  11.23123    0.09931   11.71034    0.39663   21.66925
  11.25125    0.09987   11.73027    0.40030   21.74899
  11.27127    0.10045   11.75028    0.40403   21.82941
  11.29129    0.10102   11.77051    0.40780   21.91048
  11.31131    0.10160   11.79075    0.41162   21.99245
  11.33133    0.10218   11.81113    0.41550   22.07524
  11.35135    0.10277   11.83158    0.41943   22.15861
  11.37137    0.10337   11.85226    0.42341   22.24295
  11.39139    0.10397   11.87301    0.42745   22.32803
  11.41141    0.10457   11.89384    0.43154   22.41393
  11.43143    0.10518   11.91496    0.43570   22.50057
  11.45145    0.10579   11.93601    0.43991   22.58817
  11.47147    0.10641   11.95720    0.44418   22.67658
  11.49149    0.10704   11.97862    0.44851   22.76589
  11.51151    0.10767   12.00011    0.45290   22.85601
  11.53153    0.10830   12.02161    0.45736   22.94694
  11.55155    0.10894   12.04347    0.46188   23.03877
  11.57157    0.10959   12.06526    0.46646   23.13156
  11.59159    0.11024   12.08735    0.47111   23.22538
  11.61161    0.11090   12.10943    0.47584   23.32003
  11.63163    0.11156   12.13166    0.48063   23.41563
  11.65165    0.11223   12.15405    0.48549   23.51220
  11.67167    0.11291   12.17658    0.49042   23.60981
  11.69169    0.11359   12.19925    0.49543   23.70838
  11.71171    0.11427   12.22208    0.50051   23.80791
  11.73173    0.11497   12.24506    0.50567   23.90855
  11.75175    0.11567   12.26796    0.51090   24.01023
  11.77177    0.11637   12.29123    0.51622   24.11303
  11.79179    0.11708   12.31465    0.52162   24.21678
  11.81181    0.11780   12.33814    0.52710   24.32150
  11.83183    0.11852   12.36171    0.53266   24.42748
  11.85185    0.11925   12.38557    0.53832   24.53443
  11.87187    0.11999   12.40951    0.54406   24.64271
  11.89189    0.12073   12.43360    0.54989   24.75202
  11.91191    0.12149   12.45776    0.55581   24.86253
  11.93193    0.12224   12.48214    0.56183   24.97429
  11.95195    0.12301   12.50667    0.56795   25.08716
  11.97197    0.12378   12.53143    0.57416   25.20137
  11.99199    0.12456   12.55625    0.58047   25.31676
  12.01201    0.12534   12.58123    0.58689   25.43341
  12.03203    0.12614   12.60650    0.59341   25.55147
  12.05205    0.12694   12.63177    0.60004   25.67072
  12.07207    0.12775   12.65734    0.60678   25.79130
  12.09209    0.12856   12.68284    0.61363   25.91322
  12.11211    0.12939   12.70870    0.62059   26.03654
  12.13213    0.13022   12.73472    0.62767   26.16127
  12.15215    0.13106   12.76088    0.63487   26.28756
  12.17217    0.13191   12.78711    0.64220   26.41510
  12.19219    0.13276   12.81357    0.64965   26.54413
  12.21221    0.13363   12.84025    0.65723   26.67502
  12.23223    0.13450   12.86715    0.66493   26.80701
  12.25225    0.13538   12.89413    0.67278   26.94063
  12.27227    0.13627   12.92126    0.68076   27.07596
  12.29229    0.13717   12.94853    0.68888   27.21285
  12.31231    0.13807   12.97617    0.69715   27.35137
  12.33233    0.13899   13.00389    0.70556   27.49144
  12.35235    0.13992   13.03176    0.71412   27.63329
  12.37237    0.14085   13.05985    0.72284   27.77684
  12.39239    0.14180   13.08816    0.73172   27.92218
  12.41241    0.14275   13.11662    0.74076   28.06936
  12.43243    0.14371   13.14522    0.74997   28.21826
  12.45245    0.14469   13.17405    0.75934   28.36908
  12.47247    0.14567   13.20311    0.76889   28.52175
  12.49249    0.14666   13.23238    0.77863   28.67642
  12.51251    0.14767   13.26188    0.78854   28.83294
  12.53253    0.14868   13.29145    0.79864   28.99147
  12.55255    0.14971   13.32131    0.80894   29.15207
  12.57257    0.15074   13.35140    0.81943   29.31475
  12.59259    0.15179   13.38172    0.83013   29.47950
  12.61261    0.15284   13.41218    0.84103   29.64633
  12.63263    0.15391   13.44278    0.85215   29.81553
  12.65265    0.15499   13.47376    0.86349   29.98680
  12.67267    0.15608   13.50482    0.87506   30.16052
  12.69269    0.15719   13.53617    0.88685   30.33661
  12.71271    0.15830   13.56774    0.89889   30.51492
  12.73273    0.15943   13.59953    0.91117   30.69568
  12.75275    0.16057   13.63155    0.92370   30.87881
  12.77277    0.16172   13.66371    0.93649   31.06461
  12.79279    0.16289   13.69625    0.94954   31.25293
  12.81281    0.16406   13.72901    0.96286   31.44392
  12.83283    0.16525   13.76191    0.97647   31.63765
  12.85285    0.16646   13.79511    0.99036   31.83405
  12.87287    0.16768   13.82846    1.00455   32.03311
  12.89289    0.16891   13.86219    1.01905   32.23514
  12.91291    0.17015   13.89613    1.03386   32.44014
  12.93293    0.17141   13.93029    1.04899   32.64802
  12.95295    0.17269   13.96468    1.06445   32.85909
  12.97297    0.17397   13.99929    1.08026   33.07320
  12.99299    0.17528   14.03420    1.09641   33.29043
  13.01301    0.17659   14.06940    1.11294   33.51091
  13.03303    0.17793   14.10490    1.12983   33.73488
  13.05305    0.17928   14.14070    1.14711   33.96226
  13.07307    0.18064   14.17664    1.16479   34.19289
  13.09309    0.18202   14.21296    1.18287   34.42709
  13.11311    0.18342   14.24950    1.20138   34.66513
  13.13313    0.18484   14.28626    1.22033   34.90682
  13.15315    0.18627   14.32353    1.23972   35.15228
  13.17317    0.18772   14.36089    1.25958   35.40159
  13.19319    0.18918   14.39854    1.27991   35.65506
  13.21321    0.19067   14.43663    1.30074   35.91245
  13.23323    0.19217   14.47487    1.32208   36.17406
  13.25325    0.19369   14.51348    1.34395   36.44020
  13.27327    0.19523   14.55232    1.36636   36.71056
  13.29329    0.19679   14.59153    1.38934   36.98537
  13.31331    0.19836   14.63103    1.41290   37.26492
  13.33333    0.19996   14.67083    1.43706   37.54907
  13.35335    0.20158   14.71107    1.46184   37.83833
  13.37337    0.20322   14.75146    1.48727   38.13233
  13.39339    0.20488   14.79229    1.51336   38.43160
  13.41341    0.20656   14.83350    1.54014   38.73613
  13.43343    0.20826   14.87493    1.56764   39.04599
  13.45345    0.20999   14.91688    1.59588   39.36134
  13.47347    0.21173   14.95897    1.62489   39.68239
  13.49349    0.21350   15.00151    1.65470   40.00937
  13.51351    0.21530   15.04435    1.68533   40.34236
  13.53353    0.21711   15.08756    1.71681   40.68135
  13.55355    0.21896   15.13128    1.74919   41.02671
  13.57357    0.22082   15.17523    1.78249   41.37867
  13.59359    0.22271   15.21963    1.81674   41.73737
  13.61361    0.22463   15.26432    1.85199   42.10283
  13.63363    0.22657   15.30945    1.88828   42.47546
  13.65365    0.22854   15.35496    1.92563   42.85529
  13.67367    0.23054   15.40083    1.96411   43.24282
  13.69369    0.23257   15.44723    2.00375   43.63806
  13.71371    0.23462   15.49392    2.04461   44.04116
  13.73373    0.23670   15.54105    2.08672   44.45255
  13.75375    0.23881   15.58856    2.13014   44.87233
  13.77377    0.24095   15.63658    2.17494   45.30099
  13.79379    0.24313   15.68498    2.22115   45.73862
  13.81381    0.24533   15.73382    2.26886   46.18538
  13.83383    0.24756   15.78310    2.31812   46.64198
  13.85385    0.24983   15.83283    2.36900   47.10829
  13.87387    0.25213   15.88293    2.42157   47.58498
  13.89389    0.25447   15.93363    2.47591   48.07205
  13.91391    0.25684   15.98476    2.53209   48.57016
  13.93393    0.25924   16.03634    2.59022   49.07968
  13.95395    0.26168   16.08844    2.65036   49.60076
  13.97397    0.26416   16.14106    2.71263   50.13378
  13.99399    0.26668   16.19406    2.77711   50.67947
  14.01401    0.26923   16.24756    2.84392   51.23828
  14.03403    0.27183   16.30174    2.91317   51.81028
  14.05405    0.27446   16.35629    2.98498   52.39628
  14.07407    0.27714   16.41158    3.05947   52.99666
  14.09409    0.27985   16.46716    3.13679   53.61209
  14.11411    0.28261   16.52341    3.21708   54.24286
  14.13413    0.28542   16.58018    3.30049   54.88986
  14.15415    0.28827   16.63754    3.38719   55.55361
  14.17417    0.29116   16.69543    3.47734   56.23470
  14.19419    0.29411   16.75397    3.57115   56.93395
  14.21421    0.29710   16.81312    3.66880   57.65195
  14.23423    0.30014   16.87285    3.77051   58.38966
  14.25425    0.30323   16.93325    3.87652   59.14754
  14.27427    0.30637   16.99417    3.98706   59.92690
  14.29429    0.30957   17.05569    4.10239   60.72828
  14.31431    0.31281   17.11801    4.22280   61.55278
  14.33433    0.31612   17.18086    4.34859   62.40144
  14.35435    0.31948   17.24430    4.48008   63.27507
  14.37437    0.32290   17.30856    4.61764   64.17539
  14.39439    0.32638   17.37340    4.76162   65.10298
  14.41441    0.32992   17.43899    4.91244   66.05925
  14.43443    0.33353   17.50525    5.07055   67.04591
  14.45445    0.33719   17.57225    5.23641   68.06399
  14.47447    0.34093   17.64013    5.41055   69.11542
  14.49449    0.34473   17.70869    5.59351   70.20124
  14.51451    0.34860   17.77791    5.78590   71.32382
  14.53453    0.35254   17.84794    5.98840   72.48471
  14.55455    0.35656   17.91879    6.20171   73.68592
  14.57457    0.36065   17.99046    6.42660   74.92953
  14.59459    0.36482   18.06287    6.66397   76.21797
  14.61461    0.36906   18.13632    6.91471   77.55363
  14.63463    0.37339   18.21043    7.17987   78.93916
  14.65465    0.37780   18.28550    7.46055   80.37708
  14.67467    0.38230   18.36139    7.75799   81.87081
  14.69469    0.38689   18.43832    8.07358   83.42347
  14.71471    0.39157   18.51599    8.40878   85.03838
  14.73473    0.39634   18.59470    8.76525   86.71976
  14.75475    0.40120   18.67437    9.14489   88.47147
  14.77477    0.40617   18.75500    9.54963   90.29774
  14.79480    0.41123   18.83668    9.98184   92.20415
  14.81481    0.41640   18.91939   10.44394   94.19517
  14.83483    0.42168   19.00299   10.93882   96.27683
  14.85485    0.42707   19.08784   11.46966   98.45544
   14.8749     0.4326    19.1737    12.0399   100.7377
   14.8949     0.4382    19.2607    12.6536   103.1311
   14.9149     0.4439    19.3487    13.3154   105.6440
   14.9349     0.4498    19.4380    14.0301   108.2851
   14.9550     0.4558    19.5284    14.8038   111.0645
   14.9750     0.4619    19.6200    15.6429   113.9930
   14.9950     0.4682    19.7129    16.5551   117.0827
   15.0150     0.4746    19.8071    17.5489   120.3470
   15.0350     0.4812    19.9026    18.6344   123.8003
   15.0551     0.4879    19.9993    19.8230   127.4594
   15.0751     0.4947    20.0973    21.1283   131.3428
   15.0951     0.5018    20.1968    22.5657   135.4707
   15.1151     0.5090    20.2977    24.1534   139.8661
   15.1351     0.5163    20.4001    25.9132   144.5550
   15.1552     0.5239    20.5038    27.8702   149.5659
   15.1752     0.5316    20.6092    30.0549   154.9322
   15.1952     0.5395    20.7162    32.5032   160.6896
   15.2152     0.5476    20.8247    35.2586   166.8804
   15.2352     0.5560    20.9347    38.3740   173.5525
   15.2553     0.5645    21.0466    41.9132   180.7580
   15.2753     0.5733    21.1600    45.9551   188.5580
   15.2953     0.5822    21.2753    50.5975   197.0214
   15.3153     0.5915    21.3923    55.9612   206.2235
   15.3353     0.6009    21.5112    62.1997   216.2518
   15.3554     0.6107    21.6320    69.5057   227.1990
   15.3754     0.6206    21.7548    78.1274   239.1670
   15.3954     0.6309    21.8797    88.3854   252.2623
   15.4154     0.6415    22.0066   100.6944   266.5823
   15.4354     0.6523    22.1356   115.6020   282.2072
   15.4555     0.6635    22.2668   133.8324   299.1658
   15.4755     0.6750    22.4002   156.3412   317.3763
   15.4955     0.6868    22.5360   184.3995   336.5525
   15.5155     0.6989    22.6740   219.6725   356.0181
   15.5355     0.7115    22.8146   264.2629   374.3850
   15.5556     0.7244    22.9577   320.6614   389.0312
   15.5756     0.7377    23.1033   391.2822   395.2812
   15.5956     0.7515    23.2516   477.2100   385.4530
   15.6156     0.7656    23.4028   575.3760   348.5139
   15.6356     0.7803    23.5567   674.2108   272.5441
   15.6557     0.7954    23.7136   751.2252   152.7215
   15.6757     0.8110    23.8736   780.1345     2.2433
   15.6957     0.8271    24.0366   748.9291  -147.5220
   15.7157     0.8437    24.2029   670.5151  -265.7127
   15.7357     0.8610    24.3725   571.3483  -339.9466
   15.7558     0.8788    24.5455   473.5312  -375.5603
   15.7758     0.8973    24.7225   388.1918  -384.5539
   15.7958     0.9164    24.9028   318.1788  -377.8406
   15.8158     0.9363    25.0870   262.3086  -362.9693
   15.8358     0.9569    25.2753   218.1357  -344.5113
   15.8559     0.9782    25.4677   183.1945  -325.0313
   15.8759     1.0004    25.6643   155.3883  -305.8749
   15.8959     1.0234    25.8653   133.0765  -287.7018
   15.9159     1.0473    26.0709   115.0008  -270.7877
   15.9359     1.0722    26.2816   100.2124  -255.2044
   15.9560     1.0981    26.4970    87.9991  -240.9236
   15.9760     1.1251    26.7176    77.8190  -227.8642
   15.9960     1.1532    26.9437    69.2593  -215.9247
   16.0160     1.1826    27.1754    62.0049  -205.0022
   16.0360     1.2132    27.4130    55.8099  -194.9942
   16.0561     1.2452    27.6567    50.4822  -185.8065
   16.0761     1.2786    27.9068    45.8712  -177.3547
   16.0961     1.3136    28.1636    41.8559  -169.5614
   16.1161     1.3503    28.4273    38.3404  -162.3594
   16.1361     1.3887    28.6984    35.2461  -155.6880
   16.1562     1.4290    28.9772    32.5092  -149.4935
   16.1762     1.4713    29.2641    30.0780  -143.7303
   16.1962     1.5157    29.5591    27.9090  -138.3561
   16.2162     1.5625    29.8631    25.9664  -133.3338
   16.2362     1.6118    30.1765    24.2203  -128.6317
   16.2563     1.6638    30.4997    22.6452  -124.2202
   16.2763     1.7186    30.8330    21.2202  -120.0744
   16.2963     1.7766    31.1773    19.9268  -116.1709
   16.3163     1.8380    31.5334    18.7496  -112.4890
   16.3363     1.9030    31.9012    17.6755  -109.0112
   16.3564     1.9721    32.2821    16.6929  -105.7204
   16.3764     2.0454    32.6766    15.7918  -102.6018
  16.39639    2.12349   33.08536   14.96384  -99.64265
  16.41641    2.20670   33.50965   14.20142  -96.83038
  16.43644    2.29557   33.95018   13.49795  -94.15389
  16.45646    2.39061   34.40819   12.84780  -91.60384
  16.47648    2.49247   34.88473   12.24583  -89.17058
  16.49650    2.60181   35.38106   11.68769  -86.84657
  16.51652    2.71944   35.89874   11.16939  -84.62379
  16.53654    2.84626   36.43924   10.68740  -82.49528
  16.55655    2.98328   37.00419   10.23871  -80.45512
  16.57657    3.13168   37.59539    9.82051  -78.49722
  16.59660    3.29281   38.21526    9.43033  -76.61596
  16.61662    3.46822   38.86575    9.06603  -74.80702
  16.63664    3.65972   39.54943    8.72560  -73.06523
  16.65666    3.86939   40.26944    8.40734  -71.38659
  16.67668    4.09969   41.02864    8.10966  -69.76723
  16.69670    4.35353   41.83076    7.83114  -68.20303
  16.71671    4.63427   42.67964    7.57058  -66.69099
  16.73673    4.94598   43.57996    7.32686  -65.22756
  16.75676    5.29353   44.53660    7.09897  -63.80965
  16.77678    5.68266   45.55527    6.88609  -62.43472
  16.79680    6.12049   46.64243    6.68744  -61.09951
  16.81682    6.61550   47.80524    6.50238  -59.80180
  16.83684    7.17827   49.05189    6.33037  -58.53923
  16.85686    7.82184   50.39206    6.17093  -57.30896
  16.87688    8.56234   51.83532    6.02375  -56.10894
  16.89689    9.42022   53.39368    5.88856  -54.93692
  16.91692   10.42144   55.07996    5.76520  -53.79041
  16.93694   11.59894   56.90727    5.65368  -52.66790
  16.95695   12.99557   58.88970    5.55405  -51.56659
  16.97698   14.66720   61.04052    5.46655  -50.48455
  16.99700   16.68676   63.36957    5.39157  -49.41971
  17.01702   19.15134   65.87997    5.32965  -48.36983
  17.03704   22.18890   68.55869    5.28160  -47.33256
  17.05706   25.96941   71.36481    5.24842  -46.30581
  17.07708   30.71490   74.20286    5.23147  -45.28676
  17.09710   36.70382   76.87794    5.23248  -44.27320
  17.11712   44.26020   79.02557    5.25365  -43.26217
  17.13714   53.68714   80.00014    5.29784  -42.25053
  17.15716   65.07747   78.75513    5.36865  -41.23563
  17.17718   77.92660   73.82578    5.47074  -40.21378
  17.19720   90.56173   63.72397    5.61008  -39.18154
  17.21722   99.93295   48.06479    5.79443  -38.13537
   17.2372   102.7554    28.9131     6.0339   -37.0714
  17.25726   97.89071   10.47466    6.34187  -35.98671
  17.27728   87.36989   -3.50344    6.73584  -34.87873
  17.29730   74.63477  -11.78949    7.23924  -33.74733
  17.31732   62.35822  -15.26402    7.88303  -32.59696
  17.33734   51.79825  -15.49080    8.70830  -31.43962
  17.35736   43.22553  -13.82002    9.76792  -30.30289
  17.37738   36.45291  -11.16309   11.12719  -29.24071
  17.39740   31.16156   -8.06357   12.85769  -28.35240
  17.41742   27.04175   -4.82249   15.01445  -27.80945
  17.43744   23.83494   -1.59401   17.58082  -27.87734
  17.45746   21.34039    1.54998   20.36359  -28.89564
  17.47748   19.40741    4.58259   22.87636  -31.13428
  17.49750   17.92391    7.50291   24.38274  -34.49779
  17.51752   16.80799   10.32221   24.28382  -38.31591
  17.53754   16.00096   13.05799   22.60586  -41.62991
  17.55756   15.46158   15.73167   19.97603  -43.80837
  17.57758   15.16303   18.36525   17.12212  -44.79258
  17.59760   15.09021   20.98215   14.50691  -44.86610
  17.61762   15.23865   23.60566   12.30671  -44.36584
  17.63764   15.61399   26.25873   10.53062  -43.55075
  17.65766   16.23257   28.96479    9.12063  -42.58566
  17.67768   17.12277   31.74667    8.00526  -41.56632
  17.69770   18.32716   34.62534    7.12028  -40.54417
  17.71772   19.90674   37.61962    6.41350  -39.54499
  17.73774   21.94549   40.74101    5.84495  -38.58049
  17.75776   24.55845   43.98817    5.38424  -37.65438
  17.77778   27.90101   47.33596    5.00860  -36.76637
  17.79780   32.17853   50.71193    4.70103  -35.91393
  17.81782   37.65661   53.96101    4.44866  -35.09380
  17.83784   44.65658   56.78091    4.24184  -34.30214
  17.85786   53.51035   58.62186    4.07330  -33.53537
  17.87788   64.42596   58.55886    3.93758  -32.78951
  17.89790   77.15782   55.21144    3.83064  -32.06128
  17.91792   90.46418   46.95125    3.74957  -31.34713
   17.9379   101.6432    32.7916     3.6924   -30.6437
   17.9580   107.1131    13.8764     3.6579   -29.9477
   17.9780   104.6312    -6.0009     3.6456   -29.2563
  17.99800   95.21401  -22.42416    3.65584  -28.56629
  18.01802   82.22513  -33.10211    3.68944  -27.87423
  18.03804   68.88951  -38.33607    3.74810  -27.17713
  18.05806   57.01561  -39.64963    3.83440  -26.47128
  18.07808   47.17784  -38.57990    3.95190  -25.75343
  18.09810   39.29618  -36.23706    4.10545  -25.01942
  18.11812   33.06300  -33.30888    4.30149  -24.26570
  18.13814   28.14040  -30.18594    4.54859  -23.48796
  18.15816   24.23550  -27.07589    4.85806  -22.68251
  18.17818   21.11613  -24.08190    5.24482  -21.84563
  18.19820   18.60351  -21.24844    5.72878  -20.97526
  18.21822   16.56268  -18.58810    6.33649  -20.07124
  18.23824   14.89251  -16.09867    7.10313  -19.13906
  18.25826   13.51617  -13.76829    8.07539  -18.19338
  18.27828   12.37580  -11.58301    9.31335  -17.26579
  18.29830   11.42698   -9.52728   10.89097  -16.41943
  18.31832   10.63559   -7.58554   12.88868  -15.76902
  18.33834    9.97545   -5.74355   15.36652  -15.51215
  18.35836    9.42609   -3.98783   18.29988  -15.95238
  18.37838    8.97165   -2.30563   21.45924  -17.47360
  18.39840    8.59993   -0.68598   24.28150  -20.36976
  18.41842    8.30146    0.88223   25.93262  -24.50760
  18.43844    8.06921    2.40828   25.75961  -29.10657
  18.45846    7.89806    3.90186   23.82814  -33.09069
  18.47848    7.78462    5.37181   20.86207  -35.77697
  18.49850    7.72709    6.82634   17.67289  -37.12359
  18.51852    7.72512    8.27390   14.76566  -37.45887
  18.53854    7.77989    9.72324   12.32750  -37.15976
  18.55856    7.89419   11.18214   10.36338  -36.51350
  18.57858    8.07260   12.65964    8.80640  -35.70152
  18.59860    8.32181   14.16464    7.57613  -34.82907
  18.61862    8.65103   15.70610    6.60080  -33.95292
  18.63864    9.07270   17.29432    5.82226  -33.10151
  18.65866    9.60323   18.93903    5.19599  -32.28776
  18.67868   10.26442   20.65080    4.68818  -31.51566
  18.69870   11.08512   22.43994    4.27346  -30.78521
  18.71872   12.10329   24.31476    3.93288  -30.09389
  18.73874   13.36963   26.28148    3.65208  -29.43844
  18.75876   14.95174   28.33876    3.42025  -28.81456
  18.77878   16.93915   30.47245    3.22927  -28.21900
  18.79880   19.45061   32.64380    3.07300  -27.64759
  18.81882   22.63820   34.76823    2.94695  -27.09694
  18.83884   26.68776   36.68077    2.84786  -26.56377
  18.85886   31.79739   38.08045    2.77357  -26.04484
  18.87888   38.10363   38.45568    2.72291  -25.53702
  18.89890   45.51015   37.02858    2.69558  -25.03780
  18.91892   53.37818   32.84731    2.69223  -24.54406
  18.93894   60.22707   25.25035    2.71452  -24.05359
  18.95896   63.97416   14.72122    2.76530  -23.56356
  18.97898   63.13867    3.33231    2.84890  -23.07190
  18.99900   58.08786   -6.28235    2.97149  -22.57698
  19.01902   50.70268  -12.59509    3.14171  -22.07820
  19.03904   42.93887  -15.63695    3.37129  -21.57661
  19.05906   35.95538  -16.25979    3.67607  -21.07650
  19.07908   30.15331  -15.38127    4.07675  -20.58825
  19.09910   25.51736  -13.68069    4.59885  -20.13320
  19.11912   21.87504  -11.58405    5.27048  -19.75048
  19.13914   19.02898   -9.33415    6.11335  -19.50813
  19.15916   16.80600   -7.06112    7.12026  -19.51154
  19.17918   15.06708   -4.82842    8.21386  -19.89530
  19.19920   13.70650   -2.66315    9.20021  -20.76627
  19.21922   12.64463   -0.57230    9.78631  -22.08531
  19.23924   11.82238    1.44778    9.73480  -23.58535
  19.25926   11.19634    3.40576    9.05720  -24.88513
  19.27928   10.73457    5.31311    8.00338  -25.73461
  19.29930   10.41410    7.18319    6.86188  -26.11124
  19.31932   10.21905    9.02829    5.81625  -26.12799
  19.33934   10.13908   10.86234    4.93598  -25.91840
  19.35936   10.16867   12.69825    4.22443  -25.58549
  19.37938   10.30662   14.54943    3.65843  -25.19418
  19.39940   10.55591   16.42973    3.20951  -24.78256
  19.41942   10.92375   18.35287    2.85211  -24.37109
  19.43944   11.42225   20.33323    2.56550  -23.96999
  19.45946   12.06916   22.38562    2.33367  -23.58357
  19.47948   12.88906   24.52494    2.14459  -23.21375
  19.49950   13.91555   26.76625    1.98916  -22.86009
  19.51952   15.19385   29.12369    1.86055  -22.52184
  19.53954   16.78424   31.60741    1.75365  -22.19767
  19.55956   18.76792   34.22231    1.66455  -21.88610
  19.57958   21.25281   36.95810    1.59034  -21.58580
  19.59960   24.38274   39.78066    1.52880  -21.29528
  19.61962   28.34594   42.60678    1.47828  -21.01306
  19.63964   33.37784   45.26801    1.43761  -20.73825
  19.65966   39.75006   47.44676    1.40596  -20.46937
  19.67968   47.70958   48.58417    1.38285  -20.20538
  19.69970   57.30993   47.77909    1.36812  -19.94525
  19.71972   68.07323   43.79006    1.36189  -19.68778
  19.73974   78.51279   35.40381    1.36462  -19.43209
  19.75976   86.01397   22.42149    1.37714  -19.17715
  19.77978   87.89585    6.74140    1.40074  -18.92191
  19.79980   83.40792   -8.06134    1.43724  -18.66548
  19.81982   74.40866  -18.97616    1.48923  -18.40727
  19.83984   63.77735  -25.13904    1.56023  -18.14669
  19.85986   53.66157  -27.36656    1.65502  -17.88419
  19.87988   45.03487  -26.96724    1.78004  -17.62094
  19.89990   38.08302  -25.04047    1.94372  -17.36080
  19.91992   32.63694  -22.31862    2.15676  -17.11090
  19.93994   28.43120  -19.23407    2.43154  -16.88560
  19.95996   25.21360  -16.02323    2.77941  -16.70995
  19.97998   22.77673  -12.80468    3.20339  -16.62502
  20.00000   20.96246   -9.63000    3.68270  -16.68712
# 
# 03/01/2017 at 15:53 YAMBO @ anomaly [start]
# 03/01/2017 at 15:53                 [end]
#  
# Timing   [Min/Max/Average]: 01s/01s/01s
#
# .-Input file : yambo.in
# | optics                       # [R OPT] Optics
# | bse                          # [R BSE] Bethe Salpeter Equation.
# | bsk                          # [R BSK] Bethe Salpeter Equation kernel
# | bss                          # [R BSS] Bethe Salpeter Equation solver
# | BoseTemp= 0.000000     eV    # Bosonic Temperature
# | FFTGvecs=  9939        RL    # [FFT] Plane-waves
# | X_Threads= 1                 # [OPENMP/X] Number of threads for response functions
# | DIP_Threads= 1               # [OPENMP/X] Number of threads for dipoles
# | NonPDirs= "XYZ"              # [X/BSS] Non periodic chartesian directions (X,Y,Z,XY...)
# | BSEmod= "retarded"           # [BSE] resonant/retarded/coupling
# | BSKmod= "Hartree"            # [BSE] IP/Hartree/HF/ALDA/SEX/BSfxc
# | BSSmod= "d"                  # [BSS] (h)aydock/(d)iagonalization/(i)nversion/(t)ddft`
# | BSENGexx=  9045        RL    # [BSK] Exchange components
# | % KfnQP_E
# |  7.600000 | 1.000000 | 1.000000 |        # [EXTQP BSK BSS] E parameters  (c/v) eV|adim|adim
# | %
# | % BEnRange
# |   0.00000 | 20.00000 | eV    # [BSS] Energy range
# | %
# | % BDmRange
# |   0.10000 |  0.10000 | eV    # [BSS] Damping range
# | %
# | BEnSteps= 1000               # [BSS] Energy steps
# | % BLongDir
# | 0.1000E-4 | 0.000    | 0.000    |        # [BSS] [cc] Electric Field
# | %
# | % BSEBands
# |    1 | 200 |                 # [BSK] Bands range
# | %
