#                                                           
#                                                           
# Y88b    /   e           e    e      888~~\    ,88~-_      
#  Y88b  /   d8b         d8b  d8b     888   |  d888   \     
#   Y88b/   /Y88b       d888bdY88b    888 _/  88888    |    
#    Y8Y   /  Y88b     / Y88Y Y888b   888  \  88888    |    
#     Y   /____Y88b   /   YY   Y888b  888   |  Y888   /     
#    /   /      Y88b /          Y888b 888__/    `88_-~      
#                                                           
#                                                           
#       Version 4.2.0 Revision 14319 Hash 8432f48           
#                  MPI+SLK+OpenMP Build                     
#               http://www.yambo-code.org                   
#
# EELS @ Q(1)  [q->0 direction]:0.1000E-4  0.000     0.000   
#
#
# - Energies      are Teter 93(XC)
# - Wavefunctions are Teter 93(XC)
#
# - The Green`s function is Retarded -
# - Using the Length Gauge -
# - [r,Vnl] *is* included -
#
#   BSK|Identifier              :5287
#      |Dimension               :69
#      |Bands                   :1 - 70
#      |Exchange           [res]: yes
#      |Correlation        [res]: no
#      |Kernel`s coupling       : no
#      |Exchange           [cpl]: no
#      |Correlation        [cpl]: no
#      |W interaction is bare   : no
#      |ALDA kernel in R-space  : no
#      |RL vectors    [exchange]:123
#      |E/h energy range    [ev]:-1.000000 - -1.000000
#      |Coupling range     [o/o]: 100.0000 -  100.0000
#
#  E/ev[1]    EEL-Im[2]  EEL-Re[3]  EELo-Im[4] EELo-Re[5]
#
  0.000000  -0.000000  -0.986226  -0.000000  -0.983570
 0.7538E-1  0.2196E-5  -.9862     0.3703E-5  -.9836   
 0.1508     0.4395E-5  -.9862     0.7410E-5  -.9836   
 0.2261     0.6596E-5  -.9862     0.1112E-4  -.9836   
 0.3015     0.8802E-5  -.9862     0.1485E-4  -.9835   
 0.3769     0.1101E-4  -.9862     0.1859E-4  -.9835   
 0.4523     0.1324E-4  -.9862     0.2235E-4  -.9835   
 0.5276     0.1547E-4  -.9862     0.2614E-4  -.9835   
 0.6030     0.1771E-4  -.9862     0.2995E-4  -.9835   
 0.6784     0.1996E-4  -.9862     0.3379E-4  -.9835   
 0.7538     0.2224E-4  -.9861     0.3767E-4  -.9834   
 0.8291     0.2452E-4  -.9861     0.4159E-4  -.9834   
 0.9045     0.2683E-4  -.9861     0.4555E-4  -.9834   
 0.9799     0.2915E-4  -.9861     0.4956E-4  -.9833   
  1.055     0.3150E-4  -.9861     0.5362E-4  -.9833   
  1.131     0.3388E-4  -.9860     0.5775E-4  -.9832   
  1.206     0.3627E-4  -.9860     0.6193E-4  -.9832   
  1.281     0.3870E-4  -.9860     0.6619E-4  -.9832   
  1.357     0.4116E-4  -.9860     0.7051E-4  -.9831   
  1.432     0.4365E-4  -.9859     0.7492E-4  -.9831   
  1.508     0.4617E-4  -.9859     0.7941E-4  -.9830   
  1.583     0.4873E-4  -.9859     0.8399E-4  -.9829   
  1.658     0.5133E-4  -.9858     0.8867E-4  -.9829   
  1.734     0.5397E-4  -.9858     0.9346E-4  -.9828   
  1.809     0.5666E-4  -.9857     0.9835E-4  -.9827   
  1.884     0.5939E-4  -.9857     0.1034E-3  -.9826   
  1.960     0.6218E-4  -.9856     0.1085E-3  -.9826   
  2.035     0.6501E-4  -.9856     0.1138E-3  -.9825   
  2.111     0.6790E-4  -.9855     0.1192E-3  -.9824   
  2.186     0.7085E-4  -.9855     0.1247E-3  -.9823   
  2.261     0.7386E-4  -.9854     0.1305E-3  -.9822   
  2.337     0.7693E-4  -.9854     0.1364E-3  -.9821   
  2.412     0.8007E-4  -.9853     0.1424E-3  -.9820   
  2.487     0.8329E-4  -.9853     0.1487E-3  -.9819   
  2.563     0.8658E-4  -.9852     0.1552E-3  -.9818   
  2.638     0.8995E-4  -.9851     0.1619E-3  -.9817   
  2.714     0.9341E-4  -.9851     0.1688E-3  -.9815   
  2.789     0.9695E-4  -.9850     0.1760E-3  -.9814   
  2.864     0.1006E-3  -.9849     0.1834E-3  -.9813   
  2.940     0.1043E-3  -.9848     0.1911E-3  -.9811   
  3.015     0.1082E-3  -.9848     0.1991E-3  -.9810   
  3.090     0.1121E-3  -.9847     0.2074E-3  -.9808   
  3.166     0.1162E-3  -.9846     0.2161E-3  -.9807   
  3.241     0.1204E-3  -.9845     0.2251E-3  -.9805   
  3.317     0.1247E-3  -.9844     0.2345E-3  -.9803   
  3.392     0.1291E-3  -.9843     0.2443E-3  -.9802   
  3.467     0.1337E-3  -.9842     0.2545E-3  -.9800   
  3.543     0.1385E-3  -.9841     0.2652E-3  -.9798   
  3.618     0.1434E-3  -.9840     0.2764E-3  -.9796   
  3.693     0.1484E-3  -.9839     0.2882E-3  -.9794   
  3.769     0.1537E-3  -.9838     0.3005E-3  -.9791   
  3.844     0.1591E-3  -.9837     0.3134E-3  -.9789   
  3.920     0.1647E-3  -.9835     0.3270E-3  -.9787   
  3.995     0.1706E-3  -.9834     0.3413E-3  -.9784   
  4.070     0.1766E-3  -.9833     0.3564E-3  -.9781   
  4.146     0.1829E-3  -.9831     0.3723E-3  -.9779   
  4.221     0.1894E-3  -.9830     0.3891E-3  -.9776   
  4.296     0.1962E-3  -.9829     0.4068E-3  -.9773   
  4.372     0.2033E-3  -.9827     0.4256E-3  -.9770   
  4.447     0.2107E-3  -.9826     0.4455E-3  -.9766   
  4.523     0.2184E-3  -.9824     0.4667E-3  -.9763   
  4.598     0.2264E-3  -.9822     0.4892E-3  -.9759   
  4.673     0.2348E-3  -.9821     0.5132E-3  -.9756   
  4.749     0.2436E-3  -.9819     0.5387E-3  -.9752   
  4.824     0.2528E-3  -.9817     0.5660E-3  -.9748   
  4.899     0.2624E-3  -.9815     0.5952E-3  -.9743   
  4.975     0.2725E-3  -.9813     0.6265E-3  -.9739   
  5.050     0.2830E-3  -.9811     0.6601E-3  -.9734   
  5.126     0.2942E-3  -.9809     0.6963E-3  -.9729   
  5.201     0.3058E-3  -.9806     0.7353E-3  -.9723   
  5.276     0.3181E-3  -.9804     0.7774E-3  -.9718   
  5.352     0.3311E-3  -.9802     0.8230E-3  -.9712   
  5.427     0.3448E-3  -.9799     0.8724E-3  -.9705   
  5.503     0.3592E-3  -.9796     0.9262E-3  -.9698   
  5.578     0.3745E-3  -.9794     0.9849E-3  -.9691   
  5.653     0.3907E-3  -.9791     0.1049E-2  -.9684   
  5.729     0.4078E-3  -.9788     0.1119E-2  -.9675   
  5.804     0.4260E-3  -.9785     0.1197E-2  -.9667   
  5.879     0.4454E-3  -.9781     0.1282E-2  -.9657   
  5.955     0.4660E-3  -.9778     0.1377E-2  -.9648   
  6.030     0.4879E-3  -.9774     0.1482E-2  -.9637   
  6.106     0.5114E-3  -.9771     0.1599E-2  -.9625   
  6.181     0.5365E-3  -.9767     0.1730E-2  -.9613   
  6.256     0.5634E-3  -.9762     0.1878E-2  -.9599   
  6.332     0.5922E-3  -.9758     0.2045E-2  -.9585   
  6.407     0.6233E-3  -.9754     0.2235E-2  -.9569   
  6.482     0.6568E-3  -.9749     0.2453E-2  -.9551   
  6.558     0.6929E-3  -.9744     0.2703E-2  -.9532   
  6.633     0.7320E-3  -.9738     0.2993E-2  -.9511   
  6.709     0.7745E-3  -.9733     0.3332E-2  -.9487   
  6.784     0.8207E-3  -.9727     0.3731E-2  -.9461   
  6.859     0.8710E-3  -.9720     0.4206E-2  -.9431   
  6.935     0.9261E-3  -.9714     0.4777E-2  -.9398   
  7.010     0.9865E-3  -.9706     0.5472E-2  -.9360   
  7.085     0.1053E-2  -.9699     0.6329E-2  -.9317   
  7.161     0.1126E-2  -.9691     0.7402E-2  -.9266   
  7.236     0.1208E-2  -.9682     0.8772E-2  -.9207   
  7.312     0.1298E-2  -.9672     0.1056E-1  -.9137   
  7.387     0.1399E-2  -.9662     0.1295E-1  -.9052   
  7.462     0.1513E-2  -.9651     0.1623E-1  -.8948   
  7.538     0.1641E-2  -.9640     0.2094E-1  -.8817   
  7.613     0.1786E-2  -.9627     0.2799E-1  -.8648   
  7.688     0.1952E-2  -.9613     0.3921E-1  -.8425   
  7.764     0.2142E-2  -.9598     0.5849E-1  -.8120   
  7.839     0.2362E-2  -.9581     0.9520E-1  -.7694   
  7.915     0.2618E-2  -.9562     0.1747     -.7135   
  7.990     0.2920E-2  -.9542     0.3622     -.6854   
  8.065     0.3278E-2  -.9519     0.6191     -.9330   
  8.141     0.3708E-2  -.9493     0.4372     -1.280   
  8.216     0.4232E-2  -.9463     0.2094     -1.289   
  8.291     0.4877E-2  -.9430     0.1101     -1.232   
  8.367     0.5687E-2  -.9391     0.6583E-1  -1.185   
  8.442     0.6723E-2  -.9345     0.4329E-1  -1.152   
  8.518     0.8078E-2  -.9292     0.3049E-1  -1.128   
    8.5930     0.0099    -0.9227     0.0226    -1.1097
   8.66834    0.01243   -0.91471    0.01742   -1.09572
   8.74372    0.01610   -0.90472    0.01384   -1.08460
   8.81910    0.02170   -0.89182    0.01128   -1.07555
    8.8945     0.0308    -0.8747     0.0094    -1.0680
  8.970     0.4704E-1  -.8511     0.7958E-2  -1.062   
  9.045     0.7943E-1  -.8186     0.6860E-2  -1.056   
  9.121     0.1531     -.7811     0.6008E-2  -1.052   
  9.196     0.3156     -.8057     0.5346E-2  -1.047   
  9.271     0.3916     -1.057     0.4839E-2  -1.044   
  9.347     0.2134     -1.176     0.4471E-2  -1.040   
  9.422     0.1061     -1.148     0.4241E-2  -1.037   
  9.497     0.6114E-1  -1.110     0.4175E-2  -1.034   
  9.573     0.4074E-1  -1.081     0.4346E-2  -1.031   
  9.648     0.3103E-1  -1.058     0.4946E-2  -1.028   
  9.724     0.2723E-1  -1.038     0.6491E-2  -1.024   
   9.79900    0.02840   -1.02054    0.01041   -1.02111
   9.87437    0.03690   -1.00244    0.01805   -1.02306
   9.94975    0.06151   -0.98704    0.01687   -1.03302
  10.03     0.1088     -1.006     0.9276E-2  -1.034   
  10.10     0.9690E-1  -1.072     0.5603E-2  -1.031   
  10.18     0.5028E-1  -1.079     0.4023E-2  -1.028   
  10.25     0.2821E-1  -1.065     0.3289E-2  -1.026   
  10.33     0.1865E-1  -1.052     0.2966E-2  -1.023   
  10.40     0.1411E-1  -1.042     0.2917E-2  -1.021   
  10.48     0.1194E-1  -1.033     0.3147E-2  -1.019   
  10.55     0.1123E-1  -1.025     0.3805E-2  -1.017   
  10.63     0.1178E-1  -1.017     0.5350E-2  -1.014   
  10.70     0.1402E-1  -1.008     0.9099E-2  -1.012   
  10.77890    0.01940   -0.99853    0.01726   -1.01266
  10.85427    0.03221   -0.98729    0.01951   -1.02456
  10.93     0.6278E-1  -.9834     0.1069E-1  -1.029   
  11.01     0.9396E-1  -1.026     0.5786E-2  -1.026   
  11.08     0.5972E-1  -1.065     0.3710E-2  -1.024   
  11.16     0.3044E-1  -1.061     0.2750E-2  -1.022   
  11.23     0.1817E-1  -1.050     0.2294E-2  -1.020   
  11.31     0.1297E-1  -1.041     0.2140E-2  -1.019   
  11.38     0.1098E-1  -1.033     0.2279E-2  -1.017   
  11.46     0.1121E-1  -1.026     0.2905E-2  -1.016   
  11.53     0.1433E-1  -1.019     0.4651E-2  -1.014   
  11.61     0.2360E-1  -1.013     0.7623E-2  -1.016   
  11.68     0.4127E-1  -1.020     0.6211E-2  -1.019   
  11.76     0.3638E-1  -1.044     0.3383E-2  -1.019   
  11.83     0.1897E-1  -1.047     0.2094E-2  -1.018   
  11.91     0.1075E-1  -1.041     0.1521E-2  -1.017   
  11.98     0.7176E-2  -1.036     0.1241E-2  -1.016   
  12.06     0.5471E-2  -1.032     0.1106E-2  -1.015   
  12.14     0.4684E-2  -1.029     0.1072E-2  -1.014   
  12.21     0.4541E-2  -1.025     0.1152E-2  -1.014   
  12.29     0.5174E-2  -1.022     0.1444E-2  -1.013   
  12.36     0.7358E-2  -1.019     0.2235E-2  -1.012   
  12.44     0.1267E-1  -1.019     0.3549E-2  -1.013   
  12.51     0.1503E-1  -1.026     0.2882E-2  -1.014   
  12.59     0.8769E-2  -1.029     0.1639E-2  -1.014   
  12.66     0.4984E-2  -1.027     0.1075E-2  -1.013   
  12.74     0.3349E-2  -1.025     0.8234E-3  -1.013   
  12.81     0.2568E-2  -1.023     0.6990E-3  -1.012   
  12.89     0.2162E-2  -1.021     0.6366E-3  -1.012   
  12.96     0.1957E-2  -1.020     0.6136E-3  -1.011   
  13.04     0.1895E-2  -1.018     0.6264E-3  -1.011   
  13.12     0.1977E-2  -1.017     0.6871E-3  -1.011   
  13.19     0.2235E-2  -1.016     0.8158E-3  -1.010   
  13.27     0.2701E-2  -1.014     0.1035E-2  -1.010   
  13.34     0.3762E-2  -1.012     0.1559E-2  -1.009   
  13.42     0.6340E-2  -1.010     0.2856E-2  -1.009   
  13.49     0.1228E-1  -1.010     0.4488E-2  -1.010   
  13.57     0.1596E-1  -1.019     0.3105E-2  -1.012   
  13.64     0.9195E-2  -1.024     0.1620E-2  -1.012   
  13.72     0.4758E-2  -1.023     0.9738E-3  -1.011   
  13.79     0.2867E-2  -1.021     0.6790E-3  -1.011   
  13.87     0.1984E-2  -1.019     0.5259E-3  -1.010   
  13.94     0.1536E-2  -1.018     0.4398E-3  -1.010   
  14.02     0.1326E-2  -1.017     0.3926E-3  -1.010   
  14.10     0.1140E-2  -1.017     0.3516E-3  -1.010   
  14.17     0.9169E-3  -1.016     0.3079E-3  -1.009   
  14.25     0.7721E-3  -1.015     0.2776E-3  -1.009   
  14.32     0.6764E-3  -1.015     0.2558E-3  -1.009   
  14.40     0.6066E-3  -1.014     0.2388E-3  -1.009   
  14.47     0.5523E-3  -1.014     0.2249E-3  -1.009   
  14.55     0.5083E-3  -1.014     0.2131E-3  -1.008   
  14.62     0.4717E-3  -1.013     0.2029E-3  -1.008   
  14.70     0.4406E-3  -1.013     0.1939E-3  -1.008   
  14.77     0.4136E-3  -1.013     0.1858E-3  -1.008   
  14.85     0.3900E-3  -1.012     0.1786E-3  -1.008   
  14.92     0.3690E-3  -1.012     0.1720E-3  -1.008   
  15.00     0.3502E-3  -1.012     0.1659E-3  -1.008   
# 
# 03/01/2017 at 15:53 YAMBO @ anomaly [start]
# 03/01/2017 at 15:53                 [end]
#
# .-Input file : yambo.in
# | optics                       # [R OPT] Optics
# | bse                          # [R BSE] Bethe Salpeter Equation.
# | bsk                          # [R BSK] Bethe Salpeter Equation kernel
# | bss                          # [R BSS] Bethe Salpeter Equation solver
# | BoseTemp= 0.000000     eV    # Bosonic Temperature
# | FFTGvecs=  9939        RL    # [FFT] Plane-waves
# | X_Threads= 1                 # [OPENMP/X] Number of threads for response functions
# | DIP_Threads= 1               # [OPENMP/X] Number of threads for dipoles
# | NonPDirs= "XYZ"              # [X/BSS] Non periodic chartesian directions (X,Y,Z,XY...)
# | BSEmod= "retarded"           # [BSE] resonant/retarded/coupling
# | BSKmod= "Hartree"            # [BSE] IP/Hartree/HF/ALDA/SEX/BSfxc
# | BSSmod= "d"                  # [BSS] (h)aydock/(d)iagonalization/(i)nversion/(t)ddft`
# | BSENGexx= 123          RL    # [BSK] Exchange components
# | % BEnRange
# |   0.00000 | 15.00000 | eV    # [BSS] Energy range
# | %
# | % BDmRange
# |   0.10000 |  0.10000 | eV    # [BSS] Damping range
# | %
# | BEnSteps= 200                # [BSS] Energy steps
# | % BLongDir
# | 0.1000E-4 | 0.000    | 0.000    |        # [BSS] [cc] Electric Field
# | %
# | % BSEBands
# |    1 |  70 |                 # [BSK] Bands range
# | %
