#  __      __   ______   __       __  _______    ______     
# |  \    /  \ /      \ |  \     /  \|       \  /      \    
#  \$$\  /  $$|  $$$$$$\| $$\   /  $$| $$$$$$$\|  $$$$$$\   
#   \$$\/  $$ | $$__| $$| $$$\ /  $$$| $$__/ $$| $$  | $$   
#    \$$  $$  | $$    $$| $$$$\  $$$$| $$    $$| $$  | $$   
#     \$$$$   | $$$$$$$$| $$\$$ $$ $$| $$$$$$$\| $$  | $$   
#     | $$    | $$  | $$| $$ \$$$| $$| $$__/ $$| $$__/ $$   
#     | $$    | $$  | $$| $$  \$ | $$| $$    $$ \$$    $$   
#      \$$     \$$   \$$ \$$      \$$ \$$$$$$$   \$$$$$$    
#                                                           
#        Version 4.3.0 Revision 15624 Hash 7ed12fb          
#                      MPI+SLK Build                        
#                http://www.yambo-code.org                  
#
# Absorption @ Q(1) [q->0 direction] : 1.000000  0.000000  0.000000
#
#
#
# - The Green`s function is Retarded -
# - Using the Velocity Gauge -
# - [r,Vnl] *is* included -
#
#
#    Diamagnetic term
#    A [nel]
#    -8.620838
#
#    E/ev[1]      EPS-Im[2]    EPS-Re[3]
#
    0.000        0.000        1730.   
   0.2005E-1     177.6        1713.   
   0.4010E-1     349.5        1671.   
   0.6015E-1     511.6        1605.   
   0.8020E-1     660.1        1518.   
   0.1003        791.6        1412.   
   0.1203        903.4        1292.   
   0.1404        993.7        1162.   
   0.1604        1062.        1025.   
   0.1805        1107.        886.1   
   0.2005        1132.        749.8   
   0.2206        1137.        619.3   
   0.2406        1126.        497.4   
   0.2607        1101.        386.0   
   0.2807        1066.        286.2   
   0.3008        1023.        198.4   
   0.3208        974.1        122.6   
   0.3409        922.5        58.05   
   0.3609        869.5        3.954   
   0.3810        816.7       -40.75   
   0.4010        765.0       -77.16   
   0.4211        715.3       -106.4   
   0.4411        668.0       -129.4   
   0.4612        623.5       -147.2   
   0.4812        581.9       -160.7   
   0.5013        543.3       -170.6   
      0.5213     507.6010    -177.4967
      0.5414     474.6848    -182.0527
      0.5614     444.4345    -184.7189
      0.5815     416.6824    -185.9069
      0.6015     391.2377    -185.9564
      0.6216     367.9019    -185.1483
      0.6416     346.4738    -183.7108
      0.6617     326.7611    -181.8278
      0.6817     308.5687    -179.6346
      0.7018     291.7305    -177.2425
      0.7218     276.0758    -174.7139
      0.7419     261.4489    -172.0807
      0.7619     247.7415    -169.3775
      0.7820     234.8435    -166.6022
      0.8020     222.6676    -163.7448
      0.8221     211.1640    -160.8093
      0.8421     200.2681    -157.7681
      0.8622     189.9615    -154.6328
      0.8822     180.2152    -151.3984
      0.9023     171.0106    -148.0713
      0.9223     162.3311    -144.6623
      0.9424     154.1671    -141.1941
      0.9624     146.4928    -137.6728
      0.9825     139.2964    -134.1255
      1.0025     132.5594    -130.5735
      1.0226     126.2569    -127.0306
      1.0426     120.3708    -123.5204
      1.0627     114.8760    -120.0572
      1.0827     109.7505    -116.6577
      1.1028     104.9685    -113.3319
      1.1228     100.5052    -110.0887
      1.1429      96.3377    -106.9383
      1.1629      92.4435    -103.8883
      1.1830      88.8004    -100.9435
     1.20301     85.38235    -98.09931
     1.22306     82.17354    -95.36363
     1.24311     79.15221    -92.73022
     1.26316     76.30177    -90.19704
     1.28321     73.60674    -87.75924
     1.30326     71.05451    -85.41385
     1.32331     68.63203    -83.15228
     1.34336     66.33167    -80.97478
     1.36341     64.14262    -78.87234
     1.38346     62.05887    -76.84544
     1.40351     60.07216    -74.88853
     1.42356     58.17524    -72.99861
     1.44361     56.36227    -71.17541
     1.46366     54.62543    -69.41362
     1.48371     52.95825    -67.70963
     1.50376     51.35430    -66.05923
     1.52381     49.80833    -64.45712
     1.54386     48.31744    -62.90209
     1.56391     46.87654    -61.38483
     1.58396     45.48385    -59.90062
     1.60401     44.13855    -58.44480
     1.62406     42.84098    -57.01393
     1.64411     41.59249    -55.60570
     1.66416     40.39331    -54.21459
     1.68421     39.24612    -52.84167
     1.70426     38.15252    -51.48658
     1.72431     37.11419    -50.14952
     1.74436     36.13192    -48.83155
     1.76441     35.20709    -47.53551
     1.78446     34.33928    -46.26220
     1.80451     33.52854    -45.01605
     1.82456     32.77341    -43.79843
     1.84461     32.07329    -42.61490
     1.86466     31.42522    -41.46595
     1.88471     30.82675    -40.35668
     1.90476     30.27440    -39.28907
     1.92481     29.76399    -38.26628
     1.94486     29.29034    -37.28910
     1.96491     28.84922    -36.36258
     1.98496     28.43369    -35.48437
     2.00501     28.03757    -34.65540
     2.02506     27.65497    -33.87635
     2.04511     27.27857    -33.14239
     2.06516     26.90269    -32.45137
     2.08521     26.52148    -31.79776
     2.10526     26.13109    -31.17762
     2.12531     25.72754    -30.58183
     2.14536     25.30996    -30.00615
     2.16541     24.87768    -29.44270
     2.18546     24.43142    -28.88346
     2.20551     23.97416    -28.32458
     2.22556     23.50946    -27.76158
     2.24561     23.04042    -27.18844
     2.26566     22.57195    -26.60381
     2.28571     22.10836    -26.00625
     2.30576     21.65403    -25.39566
     2.32581     21.21250    -24.77079
     2.34586     20.78749    -24.13407
     2.36591     20.38137    -23.48488
     2.38597     19.99711    -22.82644
     2.40602     19.63642    -22.15958
     2.42607     19.30096    -21.48666
     2.44612     18.99180    -20.80909
     2.46617     18.70968    -20.12808
     2.48622     18.45566    -19.44629
     2.50627     18.23014    -18.76473
     2.52632     18.03362    -18.08609
     2.54637     17.86597    -17.40960
     2.56642     17.72799    -16.73888
     2.58647     17.61941    -16.07329
     2.60652     17.54054    -15.41499
     2.62657     17.49174    -14.76595
     2.64662     17.47313    -14.12716
     2.66667     17.48491    -13.50032
     2.68672     17.52725    -12.88741
     2.70677     17.60009    -12.28940
     2.72682     17.70354    -11.70895
     2.74687     17.83740    -11.14755
     2.76692     18.00108    -10.60717
     2.78697     18.19452    -10.09179
     2.80702     18.41656     -9.60243
     2.82707     18.66601     -9.14283
     2.84712     18.94130     -8.71552
     2.86717     19.23991     -8.32198
     2.88722     19.55959     -7.96691
     2.90727     19.89717     -7.65133
     2.92732     20.24832     -7.37661
     2.94737     20.60982     -7.14612
     2.96742     20.97651     -6.95877
     2.98747     21.34419     -6.81510
     3.00752     21.70800     -6.71339
     3.02757     22.06411     -6.65298
     3.04762     22.40863     -6.63130
     3.06767     22.73812     -6.64466
     3.08772     23.05068     -6.69019
     3.10777     23.34474     -6.76411
     3.12782     23.61932     -6.86399
     3.14787     23.87452     -6.98629
     3.16792     24.11057     -7.12867
     3.18797     24.32788     -7.28905
     3.20802     24.52719     -7.46629
     3.22807     24.70888     -7.65925
     3.24812     24.87319     -7.86748
     3.26817     25.02021     -8.09102
     3.28822     25.14921     -8.32878
     3.30827     25.25969     -8.57988
     3.32832     25.35072     -8.84456
     3.34837     25.42138     -9.12125
     3.36842     25.47071     -9.40897
     3.38847     25.49766     -9.70570
     3.40852     25.50189    -10.01012
     3.42857     25.48280    -10.31995
     3.44862     25.44045    -10.63312
     3.46867     25.37530    -10.94729
     3.48872     25.28825    -11.26150
     3.50877     25.18000    -11.57373
     3.52882     25.05169    -11.88264
     3.54887     24.90449    -12.18828
     3.56892     24.73905    -12.48951
     3.58897     24.55608    -12.78671
     3.60902     24.35559    -13.07915
     3.62907     24.13734    -13.36697
     3.64912     23.90097    -13.64941
     3.66917     23.64573    -13.92525
     3.68922     23.37106    -14.19364
     3.70927     23.07651    -14.45183
     3.72932     22.76208    -14.69823
     3.74937     22.42824    -14.92986
     3.76942     22.07600    -15.14395
     3.78947     21.70719    -15.33795
     3.80952     21.32420    -15.50949
     3.82957     20.92981    -15.65671
     3.84962     20.52749    -15.77811
     3.86967     20.12075    -15.87312
     3.88972     19.71327    -15.94169
     3.90977     19.30859    -15.98440
     3.92982     18.91019    -16.00288
     3.94987     18.52089    -15.99907
     3.96993     18.14316    -15.97486
     3.98997     17.77903    -15.93358
     4.01003     17.42973    -15.87805
     4.03008     17.09589    -15.81100
     4.05013     16.77783    -15.73535
     4.07018     16.47503    -15.65384
     4.09023     16.18665    -15.56902
     4.11028     15.91161    -15.48312
     4.13033     15.64839    -15.39745
     4.15038     15.39536    -15.31346
     4.17043     15.15074    -15.23223
     4.19048     14.91305    -15.15450
     4.21053     14.68052    -15.08004
     4.23058     14.45159    -15.00889
     4.25063     14.22496    -14.94079
     4.27068     13.99935    -14.87520
     4.29073     13.77389    -14.81142
     4.31078     13.54764    -14.74887
     4.33083     13.31986    -14.68661
     4.35088     13.09002    -14.62337
     4.37093     12.85782    -14.55830
     4.39098     12.62300    -14.49058
     4.41103     12.38569    -14.41872
     4.43108     12.14614    -14.34175
     4.45113     11.90485    -14.25858
     4.47118     11.66250    -14.16826
     4.49123     11.42000    -14.06995
     4.51128     11.17846    -13.96313
     4.53133     10.93907    -13.84722
     4.55138     10.70305    -13.72199
     4.57143     10.47169    -13.58774
     4.59148     10.24626    -13.44470
     4.61153     10.02785    -13.29339
     4.63158      9.81752    -13.13438
     4.65163      9.61613    -12.96864
     4.67168      9.42438    -12.79703
     4.69173      9.24290    -12.62076
     4.71178      9.07197    -12.44063
     4.73183      8.91181    -12.25789
     4.75188      8.76250    -12.07348
     4.77193      8.62399    -11.88854
     4.79198      8.49607    -11.70382
     4.81203      8.37847    -11.52044
     4.83208      8.27074    -11.33871
     4.85213      8.17253    -11.15999
     4.87218      8.08343    -10.98464
     4.89223      8.00279    -10.81310
     4.91228      7.93018    -10.64578
     4.93233      7.86512    -10.48332
     4.95238      7.80711    -10.32613
     4.97243      7.75567    -10.17453
     4.99248      7.71031    -10.02874
    5.012532     7.670533    -9.888949
    5.032581     7.635884    -9.755967
    5.052632     7.605806    -9.629751
    5.072682     7.579700    -9.510875
    5.092732     7.556907    -9.399663
    5.112782     7.536629    -9.296430
    5.132832     7.518024    -9.201389
    5.152883     7.500051    -9.114586
    5.172932     7.481811    -9.036471
    5.192983     7.462009    -8.966401
    5.213033     7.439471    -8.904247
    5.233083     7.413180    -8.849457
    5.253133     7.381856    -8.801281
    5.273183     7.344655    -8.758555
    5.293233     7.300770    -8.720293
    5.313283     7.249640    -8.685120
    5.333333     7.190907    -8.651433
    5.353384     7.124550    -8.617609
    5.373434     7.050941    -8.582603
    5.393484     6.970558    -8.544869
    5.413534     6.884109    -8.502991
    5.433584     6.792639    -8.456266
    5.453634     6.697177    -8.403530
    5.473684     6.598978    -8.344539
    5.493734     6.499228    -8.278771
    5.513785     6.399075    -8.206206
    5.533835     6.299694    -8.126868
    5.553885     6.202157    -8.041109
    5.573935     6.107332    -7.949133
    5.593985     6.016135    -7.851551
    5.614036     5.929203    -7.748965
    5.634085     5.847080    -7.641964
    5.654136     5.770319    -7.531162
    5.674186     5.699266    -7.417316
    5.694236     5.634119    -7.301066
    5.714286     5.575096    -7.183158
    5.734336     5.522209    -7.064079
    5.754386     5.475533    -6.944524
    5.774436     5.434998    -6.825144
    5.794487     5.400508    -6.706492
    5.814537     5.371863    -6.588804
    5.834587     5.348916    -6.472994
    5.854637     5.331371    -6.359162
    5.874687     5.318996    -6.247865
    5.894737     5.311452    -6.139390
    5.914787     5.308486    -6.034149
    5.934837     5.309721    -5.932258
    5.954887     5.314849    -5.833808
    5.974937     5.323529    -5.739238
    5.994987     5.335459    -5.648618
    6.015038     5.350329    -5.561926
    6.035088     5.367895    -5.479312
    6.055138     5.387824    -5.400774
    6.075188     5.409950    -5.326294
    6.095238     5.434095    -5.256003
    6.115288     5.460004    -5.189929
    6.135339     5.487563    -5.128169
    6.155388     5.516597    -5.070649
    6.175439     5.546934    -5.017630
    6.195489     5.578386    -4.969236
    6.215539     5.610787    -4.925528
    6.235589     5.643826    -4.886763
    6.255640     5.677301    -4.853022
    6.275690     5.710841    -4.824518
    6.295739     5.744035    -4.801311
    6.315790     5.776444    -4.783650
    6.335840     5.807592    -4.771498
    6.355890     5.836922    -4.764768
    6.375940     5.863905    -4.763651
    6.395990     5.887932    -4.767806
    6.416040     5.908452    -4.776998
    6.436090     5.924870    -4.790982
    6.456141     5.936650    -4.809330
    6.476191     5.943301    -4.831366
    6.496241     5.944412    -4.856826
    6.516291     5.939609    -4.884753
    6.536341     5.928713    -4.914617
    6.556391     5.911529    -4.945644
    6.576441     5.888046    -4.977166
    6.596491     5.858338    -5.008290
    6.616541     5.822614    -5.038502
    6.636592     5.781096    -5.067124
    6.656642     5.734167    -5.093501
    6.676692     5.682181    -5.117195
    6.696742     5.625596    -5.137814
    6.716792     5.564848    -5.154955
    6.736842     5.500411    -5.168330
    6.756892     5.432715    -5.177795
    6.776943     5.362203    -5.183143
    6.796993     5.289317    -5.184238
    6.817043     5.214410    -5.180944
    6.837093     5.137932    -5.173318
    6.857143     5.060235    -5.161153
    6.877193     4.981741    -5.144483
    6.897243     4.902786    -5.123463
    6.917294     4.823760    -5.097854
    6.937343     4.745009    -5.067799
    6.957394     4.666912    -5.033508
    6.977444     4.589842    -4.995056
    6.997494     4.514102    -4.952457
    7.017544     4.440000    -4.905979
    7.037594     4.367867    -4.855801
    7.057645     4.297960    -4.802153
    7.077694     4.230509    -4.745193
    7.097744     4.165749    -4.685283
    7.117795     4.103868    -4.622631
    7.137845     4.045011    -4.557524
    7.157895     3.989298    -4.490222
    7.177945     3.936872    -4.421176
    7.197996     3.887723    -4.350403
    7.218045     3.841935    -4.278359
    7.238095     3.799515    -4.205305
    7.258145     3.760415    -4.131388
    7.278196     3.724630    -4.057042
    7.298246     3.692083    -3.982312
    7.318296     3.662665    -3.907529
    7.338346     3.636323    -3.832891
    7.358397     3.612898    -3.758592
    7.378446     3.592265    -3.684672
    7.398496     3.574327    -3.611278
    7.418547     3.558926    -3.538537
    7.438597     3.545966    -3.466571
    7.458647     3.535294    -3.395459
    7.478697     3.526812    -3.325078
    7.498747     3.520434    -3.255557
    7.518797     3.516093    -3.186910
    7.538847     3.513715    -3.119165
    7.558897     3.513259    -3.052225
    7.578948     3.514724    -2.986264
    7.598998     3.518104    -2.921141
    7.619048     3.523394    -2.856928
    7.639098     3.530621    -2.793604
    7.659149     3.539833    -2.731452
    7.679198     3.551010    -2.670358
    7.699248     3.564213    -2.610528
    7.719298     3.579403    -2.552125
    7.739348     3.596564    -2.495185
    7.759399     3.615673    -2.439895
    7.779449     3.636645    -2.386454
    7.799500     3.659363    -2.335026
    7.819549     3.683718    -2.285806
    7.839599     3.709531    -2.238916
    7.859649     3.736629    -2.194488
    7.879699     3.764761    -2.152623
    7.899750     3.793699    -2.113333
    7.919800     3.823168    -2.076756
    7.939850     3.852929    -2.042805
    7.959899     3.882710    -2.011539
    7.979950     3.912267    -1.982696
    8.000000     3.941377    -1.956326
# 
# 07/24/2018 at 15:52 YAMBO_RT @ NewLaptop [start]
# 07/24/2018 at 15:52                      [end]
#  
# Timing   [Min/Max/Average]: 02s/02s/02s
#
# .-Input file : yambo.in
# | optics                         # [R OPT] Optics
# | bse                            # [R BSE] Bethe Salpeter Equation.
# | BoseTemp= 0.000000     eV      # Bosonic Temperature
# | FFTGvecs= 1865         RL      # [FFT] Plane-waves
# | BSEmod= "retarded"             # [BSE] resonant/retarded/coupling
# | BSKmod= "IP"                   # [BSE] IP/Hartree/HF/ALDA/SEX/BSfxc
# | Gauge= "velocity"              # [BSE] Gauge (length|velocity)
# | EvalKerr                       # [BSE] Compute the Kerr effect
# | #AnHall                        # [BSE] Add the anomalous Hall effect to eps if using length gauge
# | % BEnRange
# |  0.000000 | 8.000000 | eV      # [BSS] Energy range
# | %
# | % BDmRange
# |  0.300000 | 0.500000 | eV      # [BSS] Damping range
# | %
# | BEnSteps=  400                 # [BSS] Energy steps
# | % BLongDir
# |  1.000000 | 0.000000 | 0.000000 |        # [BSS] [cc] Electric Field
# | %
# | % BSEBands
# |   1 | 26 |                     # [BSK] Bands range
# | %
