#                                                           
#  __  __   ________   ___ __ __    _______   ______        
# /_/\/_/\ /_______/\ /__//_//_/\ /_______/\ /_____/\       
# \ \ \ \ \\::: _  \ \\::\| \| \ \\::: _  \ \\:::_ \ \      
#  \:\_\ \ \\::(_)  \ \\:.      \ \\::(_)  \/_\:\ \ \ \     
#   \::::_\/ \:: __  \ \\:.\-/\  \ \\::  _  \ \\:\ \ \ \    
#     \::\ \  \:.\ \  \ \\. \  \  \ \\::(_)  \ \\:\_\ \ \   
#      \__\/   \__\/\__\/ \__\/ \__\/ \_______\/ \_____\/   
#                                                           
#                                                           
#        Version 4.3.0 Revision 15624 Hash 7ed12fb          
#                      MPI+SLK Build                        
#                http://www.yambo-code.org                  
#
# Off-diagonal Absorption @ Q(1) [q->0 direction] :0.1000E-4  0.000     0.000   
#
#
#
# - The Green`s function is Retarded -
# - Using the Length Gauge -
# - [r,Vnl] *is* included -
#
#
#    Anomalous Hall effect sH
#    sH                        
#      [fs]^-1    [Ohm*cm]^-1  [e^2/hbar]
#     34.8        0.387E+05    0.159E+11
#
#    E/ev[1]      off-Im[2]    off-Re[3]
#
      0.0000       0.0000    -738.9839
   0.2005E-1    -27.61       -738.0   
   0.4010E-1    -55.55       -736.2   
   0.6015E-1    -84.08       -733.4   
   0.8020E-1    -113.4       -729.2   
   0.1003       -143.3       -723.2   
   0.1203       -173.8       -714.8   
   0.1404       -204.3       -703.7   
   0.1604       -234.3       -689.6   
   0.1805       -263.3       -672.6   
   0.2005       -290.7       -652.8   
   0.2206       -315.8       -630.4   
   0.2406       -338.3       -605.8   
   0.2607       -357.8       -579.7   
   0.2807       -374.3       -552.6   
   0.3008       -387.7       -525.0   
   0.3208       -398.1       -497.4   
   0.3409       -405.8       -470.2   
   0.3609       -411.0       -443.8   
   0.3810       -414.0       -418.3   
   0.4010       -415.1       -394.1   
      0.4211    -414.5703    -371.0621
      0.4411    -412.6721    -349.3963
      0.4612    -409.6590    -329.0741
      0.4812    -405.7508    -310.0777
      0.5013    -401.1346    -292.3622
      0.5213    -395.9722    -275.8720
      0.5414    -390.3994    -260.5358
      0.5614    -384.5335    -246.2812
      0.5815    -378.4658    -233.0304
      0.6015    -372.2756    -220.7061
      0.6216    -366.0206    -209.2322
      0.6416    -359.7484    -198.5383
      0.6617    -353.4934    -188.5576
      0.6817    -347.2802    -179.2298
      0.7018    -341.1266    -170.4998
      0.7218    -335.0437    -162.3214
      0.7419    -329.0399    -154.6524
      0.7619    -323.1196    -147.4591
      0.7820    -317.2910    -140.7109
      0.8020    -311.5569    -134.3822
      0.8221    -305.9268    -128.4489
      0.8421    -300.4044    -122.8874
      0.8622    -294.9993    -117.6765
      0.8822    -289.7163    -112.7930
      0.9023    -284.5616    -108.2157
      0.9223    -279.5383    -103.9229
      0.9424    -274.6493     -99.8926
      0.9624    -269.8951     -96.1060
      0.9825    -265.2750     -92.5435
      1.0025    -260.7885     -89.1878
      1.0226    -256.4315     -86.0226
      1.0426    -252.2013     -83.0336
      1.0627    -248.0944     -80.2084
      1.0827    -244.1057     -77.5345
      1.1028    -240.2317     -75.0022
      1.1228    -236.4690     -72.6010
      1.1429    -232.8149     -70.3229
      1.1629    -229.2647     -68.1600
      1.1830    -225.8157     -66.1050
      1.2030    -222.4660     -64.1508
      1.2231    -219.2106     -62.2905
      1.2431    -216.0482     -60.5180
      1.2632    -212.9758     -58.8283
      1.2832    -209.9906     -57.2145
      1.3033    -207.0889     -55.6721
      1.3233    -204.2692     -54.1961
      1.3434    -201.5274     -52.7815
      1.3634    -198.8610     -51.4242
      1.3835    -196.2675     -50.1201
      1.4035    -193.7431     -48.8656
      1.4236    -191.2869     -47.6572
      1.4436    -188.8927     -46.4916
      1.4637    -186.5613     -45.3659
      1.4837    -184.2882     -44.2773
      1.5038    -182.0702     -43.2233
      1.5238    -179.9053     -42.2021
      1.5439    -177.7904     -41.2117
      1.5639    -175.7221     -40.2505
      1.5840    -173.6991     -39.3173
      1.6040    -171.7180     -38.4114
      1.6241    -169.7770     -37.5322
      1.6441    -167.8748     -36.6790
      1.6642    -166.0090     -35.8515
      1.6842    -164.1791     -35.0492
      1.7043    -162.3827     -34.2718
      1.7243    -160.6192     -33.5191
      1.7444    -158.8888     -32.7903
      1.7644    -157.1901     -32.0854
      1.7845    -155.5220     -31.4037
      1.8045    -153.8853     -30.7446
      1.8246    -152.2782     -30.1076
      1.8446    -150.6998     -29.4917
      1.8647    -149.1510     -28.8969
      1.8847    -147.6308     -28.3220
      1.9048    -146.1387     -27.7667
      1.9248    -144.6736     -27.2300
      1.9449    -143.2359     -26.7114
      1.9649    -141.8250     -26.2103
      1.9850    -140.4402     -25.7261
      2.0050    -139.0820     -25.2577
      2.0251    -137.7484     -24.8048
      2.0451    -136.4406     -24.3665
      2.0652    -135.1575     -23.9420
      2.0852    -133.8985     -23.5304
      2.1053    -132.6635     -23.1310
      2.1253    -131.4516     -22.7430
      2.1454    -130.2628     -22.3655
      2.1654    -129.0951     -21.9979
      2.1855    -127.9487     -21.6395
      2.2055    -126.8220     -21.2900
      2.2256    -125.7148     -20.9488
      2.2456    -124.6259     -20.6157
      2.2657    -123.5552     -20.2905
      2.2857    -122.5010     -19.9730
      2.3058    -121.4639     -19.6634
      2.3258    -120.4426     -19.3613
      2.3459    -119.4364     -19.0671
      2.3659    -118.4452     -18.7803
      2.3860    -117.4693     -18.5013
      2.4060    -116.5069     -18.2300
      2.4261    -115.5591     -17.9662
      2.4461    -114.6251     -17.7100
      2.4662    -113.7047     -17.4614
      2.4862    -112.7979     -17.2202
      2.5063    -111.9049     -16.9863
      2.5263    -111.0242     -16.7597
      2.5464    -110.1569     -16.5403
      2.5664    -109.3027     -16.3281
      2.5865    -108.4610     -16.1228
      2.6065    -107.6320     -15.9245
      2.6266    -106.8155     -15.7331
      2.6466    -106.0111     -15.5483
      2.6667    -105.2198     -15.3703
      2.6867    -104.4408     -15.1988
      2.7068    -103.6743     -15.0338
      2.7268    -102.9203     -14.8751
      2.7469    -102.1785     -14.7224
      2.7669    -101.4500     -14.5758
      2.7870    -100.7341     -14.4348
      2.8070    -100.0314     -14.2992
     2.82707    -99.34171    -14.16873
     2.84712    -98.66535    -14.04282
     2.86717    -98.00274    -13.92105
     2.88722    -97.35400    -13.80272
     2.90727    -96.71826    -13.68722
     2.92732    -96.09651    -13.57381
     2.94737    -95.48800    -13.46165
     2.96742    -94.89236    -13.35001
     2.98747    -94.30950    -13.23804
     3.00752    -93.73864    -13.12490
     3.02757    -93.17916    -13.01011
     3.04762    -92.62963    -12.89295
     3.06767    -92.08974    -12.77333
     3.08772    -91.55818    -12.65098
     3.10777    -91.03413    -12.52603
     3.12782    -90.51647    -12.39866
     3.14787    -90.00471    -12.26934
     3.16792    -89.49857    -12.13842
     3.18797    -88.99731    -12.00639
     3.20802    -88.50095    -11.87380
     3.22807    -88.00935    -11.74093
     3.24812    -87.52211    -11.60806
     3.26817    -87.04002    -11.47539
     3.28822    -86.56297    -11.34294
     3.30827    -86.09091    -11.21062
     3.32832    -85.62376    -11.07818
     3.34837    -85.16177    -10.94548
     3.36842    -84.70427    -10.81213
     3.38847    -84.25117    -10.67794
     3.40852    -83.80190    -10.54262
     3.42857    -83.35608    -10.40607
     3.44862    -82.91304    -10.26830
     3.46867    -82.47218    -10.12943
     3.48872    -82.03261     -9.98972
     3.50877    -81.59434     -9.84960
     3.52882    -81.15630     -9.70959
     3.54887    -80.71830     -9.57045
     3.56892    -80.28027     -9.43277
     3.58897    -79.84196     -9.29734
     3.60902    -79.40371     -9.16488
     3.62907    -78.96569     -9.03609
     3.64912    -78.52847     -8.91146
     3.66917    -78.09206     -8.79152
     3.68922    -77.65781     -8.67662
     3.70927    -77.22567     -8.56689
     3.72932    -76.79659     -8.46241
     3.74937    -76.37105     -8.36303
     3.76942    -75.94952     -8.26861
     3.78947    -75.53291     -8.17875
     3.80952    -75.12151     -8.09315
     3.82957    -74.71490     -8.01135
     3.84962    -74.31380     -7.93284
     3.86967    -73.91804     -7.85723
     3.88972    -73.52795     -7.78409
     3.90977    -73.14336     -7.71301
     3.92982    -72.76385     -7.64368
     3.94987    -72.38951     -7.57585
     3.96993    -72.02006     -7.50921
     3.98997    -71.65531     -7.44355
     4.01003    -71.29499     -7.37878
     4.03008    -70.93907     -7.31473
     4.05013    -70.58732     -7.25139
     4.07018    -70.23930     -7.18856
     4.09023    -69.89510     -7.12631
     4.11028    -69.55450     -7.06448
     4.13033    -69.21697     -7.00311
     4.15038    -68.88273     -6.94229
     4.17043    -68.55126     -6.88199
     4.19048    -68.22285     -6.82233
     4.21053    -67.89696     -6.76338
     4.23058    -67.57355     -6.70527
     4.25063    -67.25284     -6.64817
     4.27068    -66.93426     -6.59229
     4.29073    -66.61823     -6.53772
     4.31078    -66.30484     -6.48466
     4.33083    -65.99420     -6.43318
     4.35088    -65.68621     -6.38331
     4.37093    -65.38136     -6.33506
     4.39098    -65.08022     -6.28834
     4.41103    -64.78204     -6.24299
     4.43108    -64.48753     -6.19887
     4.45113    -64.19628     -6.15579
     4.47118    -63.90870     -6.11345
     4.49123    -63.62471     -6.07169
     4.51128    -63.34361     -6.03025
     4.53133    -63.06641     -5.98903
     4.55138    -62.79208     -5.94785
     4.57143    -62.52038     -5.90666
     4.59148    -62.25147     -5.86545
     4.61153    -61.98490     -5.82417
     4.63158    -61.72091     -5.78290
     4.65163    -61.45885     -5.74169
     4.67168    -61.19881     -5.70060
     4.69173    -60.94096     -5.65971
     4.71178    -60.68520     -5.61911
     4.73183    -60.43097     -5.57888
     4.75188    -60.17897     -5.53907
     4.77193    -59.92868     -5.49974
     4.79198    -59.68015     -5.46098
     4.81203    -59.43363     -5.42279
     4.83208    -59.18888     -5.38518
     4.85213    -58.94622     -5.34823
     4.87218    -58.70535     -5.31189
     4.89223    -58.46673     -5.27620
     4.91228    -58.22977     -5.24116
     4.93233    -57.99493     -5.20675
     4.95238    -57.76170     -5.17298
     4.97243    -57.53080     -5.13981
     4.99248    -57.30209     -5.10722
     5.01253    -57.07532     -5.07522
     5.03258    -56.85044     -5.04376
     5.05263    -56.62778     -5.01282
     5.07268    -56.40718     -4.98233
     5.09273    -56.18842     -4.95229
     5.11278    -55.97205     -4.92262
     5.13283    -55.75790     -4.89328
     5.15288    -55.54553     -4.86420
     5.17293    -55.33517     -4.83532
     5.19298    -55.12714     -4.80654
     5.21303    -54.92103     -4.77781
     5.23308    -54.71681     -4.74903
     5.25313    -54.51468     -4.72016
     5.27318    -54.31427     -4.69111
     5.29323    -54.11566     -4.66186
     5.31328    -53.91874     -4.63234
     5.33333    -53.72322     -4.60253
     5.35338    -53.52925     -4.57243
     5.37343    -53.33690     -4.54204
     5.39348    -53.14535     -4.51140
     5.41353    -52.95510     -4.48053
     5.43358    -52.76583     -4.44954
     5.45363    -52.57769     -4.41843
     5.47368    -52.39051     -4.38729
     5.49373    -52.20420     -4.35619
     5.51378    -52.01880     -4.32520
     5.53383    -51.83421     -4.29437
     5.55388    -51.65034     -4.26378
     5.57394    -51.46738     -4.23346
     5.59399    -51.28566     -4.20347
     5.61404    -51.10423     -4.17387
     5.63409    -50.92416     -4.14465
     5.65414    -50.74486     -4.11587
     5.67419    -50.56641     -4.08751
     5.69424    -50.38936     -4.05964
     5.71429    -50.21308     -4.03224
     5.73434    -50.03797     -4.00531
     5.75439    -49.86338     -3.97889
     5.77444    -49.69044     -3.95293
     5.79449    -49.51861     -3.92746
     5.81454    -49.34763     -3.90246
     5.83459    -49.17786     -3.87792
     5.85464    -49.00924     -3.85388
     5.87469    -48.84143     -3.83027
     5.89474    -48.67532     -3.80710
     5.91479    -48.51022     -3.78436
     5.93484    -48.34623     -3.76203
     5.95489    -48.18344     -3.74008
     5.97494    -48.02203     -3.71850
     5.99499    -47.86174     -3.69725
     6.01504    -47.70265     -3.67634
     6.03509    -47.54487     -3.65566
     6.05514    -47.38826     -3.63523
     6.07519    -47.23308     -3.61503
     6.09524    -47.07879     -3.59495
     6.11529    -46.92596     -3.57500
     6.13534    -46.77439     -3.55513
     6.15539    -46.62372     -3.53532
     6.17544    -46.47428     -3.51549
     6.19549    -46.32610     -3.49563
     6.21554    -46.17889     -3.47570
     6.23559    -46.03275     -3.45567
     6.25564    -45.88734     -3.43556
     6.27569    -45.74298     -3.41530
     6.29574    -45.59941     -3.39492
     6.31579    -45.45660     -3.37441
     6.33584    -45.31467     -3.35381
     6.35589    -45.17319     -3.33314
     6.37594    -45.03226     -3.31244
     6.39599    -44.89215     -3.29173
     6.41604    -44.75220     -3.27111
     6.43609    -44.61291     -3.25061
     6.45614    -44.47396     -3.23030
     6.47619    -44.33567     -3.21026
     6.49624    -44.19767     -3.19054
     6.51629    -44.06011     -3.17122
     6.53634    -43.92327     -3.15232
     6.55639    -43.78702     -3.13390
     6.57644    -43.65137     -3.11599
     6.59649    -43.51641     -3.09861
     6.61654    -43.38218     -3.08172
     6.63659    -43.24869     -3.06537
     6.65664    -43.11621     -3.04950
     6.67669    -42.98450     -3.03411
     6.69674    -42.85373     -3.01914
     6.71679    -42.72415     -3.00454
     6.73684    -42.59523     -2.99028
     6.75689    -42.46756     -2.97632
     6.77694    -42.34076     -2.96260
     6.79699    -42.21502     -2.94908
     6.81704    -42.09023     -2.93573
     6.83709    -41.96630     -2.92250
     6.85714    -41.84336     -2.90938
     6.87719    -41.72145     -2.89632
     6.89724    -41.60028     -2.88331
     6.91729    -41.48011     -2.87033
     6.93734    -41.36060     -2.85737
     6.95739    -41.24195     -2.84442
     6.97744    -41.12409     -2.83147
     6.99749    -41.00693     -2.81851
     7.01754    -40.89062     -2.80554
     7.03759    -40.77499     -2.79256
     7.05764    -40.66014     -2.77955
     7.07769    -40.54584     -2.76653
     7.09774    -40.43223     -2.75349
     7.11779    -40.31941     -2.74044
     7.13785    -40.20696     -2.72737
     7.15790    -40.09511     -2.71429
     7.17795    -39.98405     -2.70123
     7.19800    -39.87347     -2.68818
     7.21804    -39.76357     -2.67512
     7.23810    -39.65389     -2.66210
     7.25815    -39.54506     -2.64910
     7.27820    -39.43665     -2.63615
     7.29825    -39.32876     -2.62326
     7.31830    -39.22128     -2.61041
     7.33835    -39.11438     -2.59764
     7.35840    -39.00797     -2.58494
     7.37845    -38.90214     -2.57233
     7.39850    -38.79659     -2.55982
     7.41855    -38.69164     -2.54740
     7.43860    -38.58713     -2.53510
     7.45865    -38.48318     -2.52291
     7.47870    -38.37969     -2.51083
     7.49875    -38.27668     -2.49891
     7.51880    -38.17427     -2.48710
     7.53885    -38.07218     -2.47544
     7.55890    -37.97065     -2.46392
     7.57895    -37.86969     -2.45254
     7.59900    -37.76920     -2.44131
     7.61905    -37.66909     -2.43022
     7.63910    -37.56949     -2.41927
     7.65915    -37.47054     -2.40845
     7.67920    -37.37209     -2.39778
     7.69925    -37.27412     -2.38722
     7.71930    -37.17677     -2.37679
     7.73935    -37.07981     -2.36647
     7.75940    -36.98341     -2.35625
     7.77945    -36.88758     -2.34613
     7.79950    -36.79226     -2.33611
     7.81955    -36.69743     -2.32619
     7.83960    -36.60295     -2.31633
     7.85965    -36.50914     -2.30655
     7.87970    -36.41570     -2.29686
     7.89975    -36.32286     -2.28724
     7.91980    -36.23049     -2.27769
     7.93985    -36.13844     -2.26821
     7.95990    -36.04696     -2.25878
     7.97995    -35.95612     -2.24942
     8.00000    -35.86560     -2.24012
# 
# 07/24/2018 at 15:52 YAMBO_RT @ NewLaptop [start]
# 07/24/2018 at 15:52                      [end]
#  
# Timing   [Min/Max/Average]: 02s/02s/02s
#
# .-Input file : yambo.in
# | optics                         # [R OPT] Optics
# | bse                            # [R BSE] Bethe Salpeter Equation.
# | BoseTemp= 0.000000     eV      # Bosonic Temperature
# | FFTGvecs= 1865         RL      # [FFT] Plane-waves
# | BSEmod= "retarded"             # [BSE] resonant/retarded/coupling
# | BSKmod= "IP"                   # [BSE] IP/Hartree/HF/ALDA/SEX/BSfxc
# | EvalKerr                       # [BSE] Compute the Kerr effect
# | #AnHall                        # [BSE] Add the anomalous Hall effect to eps if using length gauge
# | % BEnRange
# |  0.000000 | 8.000000 | eV      # [BSS] Energy range
# | %
# | % BDmRange
# |  0.300000 | 0.500000 | eV      # [BSS] Damping range
# | %
# | BEnSteps=  400                 # [BSS] Energy steps
# | % BLongDir
# | 0.1000E-4 | 0.000    | 0.000    |        # [BSS] [cc] Electric Field
# | %
# | % BSEBands
# |   1 | 26 |                     # [BSK] Bands range
# | %
