#                                                                     
#  __  __   ________   ___ __ __    _______   ______                  
# /_/\/_/\ /_______/\ /__//_//_/\ /_______/\ /_____/\                 
# \ \ \ \ \\::: _  \ \\::\| \| \ \\::: _  \ \\:::_ \ \                
#  \:\_\ \ \\::(_)  \ \\:.      \ \\::(_)  \/_\:\ \ \ \               
#   \::::_\/ \:: __  \ \\:.\-/\  \ \\::  _  \ \\:\ \ \ \              
#     \::\ \  \:.\ \  \ \\. \  \  \ \\::(_)  \ \\:\_\ \ \             
#      \__\/   \__\/\__\/ \__\/ \__\/ \_______\/ \_____\/             
#                                                                     
#                                                                     
# Version 5.2.0 Revision 22884 Hash (prev commit) 74e12b5c7b          
#                   Branch is bug-fixes                               
#         MPI+OpenMP+SLK+SLEPC+HDF5_MPI_IO Build                      
#                http://www.yambo-code.org                            
#
# Joint Density of states @ Q(1):   1.00000000      0.00000000      0.00000000    [q->0 direction]
#
# [GEN] GF Energies                               : Teter 93(XC)
# [GEN] Green`s Function                          : Retarded
#
# [GEN] Gauge                                     : Length
# [GEN] [r,Vnl] included                          : yes
#
# DIP band range                                  :   1  13
# DIP band range limits                           :  10   7
# DIP e/h energy range                            :  -1.00000000     -1.00000000    [eV]
# RL vectors in the sum                           :  1721
# [r,Vnl] included                                : yes
# Bands ordered                                   : yes
# Direct v evaluation                             : no
# Approach used                                   : Shifted grids
# Dipoles computed                                : R V P
# Wavefunctions                                   : Teter 93(XC)
#
#
#    E[1] [eV]          Im(jdos)           Re(jdos)
#
        0.200000           4.069326           52.60188
        0.219549           4.197644           52.31212
        0.239098           4.288706           52.05120
        0.258647           4.350373           51.82088
        0.278196           4.390909           51.62602
        0.297744           4.417870           51.46587
        0.317293           4.438248           51.33917
        0.336842           4.458116           51.24527
        0.356391           4.482492           51.17947
        0.375940           4.515440           51.14083
        0.395489           4.560230           51.12410
        0.415038           4.619258           51.12696
        0.434586           4.694293           51.14534
        0.454135           4.786743           51.17614
        0.473684           4.897343           51.21577
        0.493233           5.026572           51.26201
        0.512782           5.174499           51.31131
        0.532331           5.340776           51.35938
        0.551880           5.524875           51.40600
        0.571429           5.725735           51.44595
        0.590977           5.941973           51.47839
        0.610526           6.171888           51.49982
        0.630075           6.413231           51.50792
        0.649624           6.663491           51.50244
        0.669173           6.919979           51.48182
        0.688722           7.179789           51.44464
        0.708271           7.440259           51.39381
        0.727820           7.698751           51.32739
        0.747368           7.953349           51.24805
        0.766917           8.202423           51.15644
        0.786466           8.445035           51.05441
        0.806015           8.680720           50.94451
        0.825564           8.909474           50.82655
        0.845113           9.131397           50.70192
        0.864662           9.346711           50.57086
        0.884210           9.555192           50.43446
        0.903759           9.756603           50.29249
        0.923308           9.950082           50.14331
        0.942857           10.13462           49.98969
        0.962406           10.30927           49.82978
        0.981955           10.47244           49.66641
        1.001504           10.62341           49.50018
        1.021053           10.76138           49.33361
        1.040601           10.88608           49.16937
        1.060150           10.99795           49.00892
        1.079699           11.09808           48.85405
        1.099248           11.18804           48.70606
        1.118797           11.26971           48.56815
        1.138346           11.34521           48.43969
        1.157895           11.41662           48.32185
        1.177444           11.48580           48.21324
        1.196992           11.55426           48.11228
        1.216541           11.62325           48.01972
        1.236090           11.69324           47.93469
        1.255639           11.76512           47.85513
        1.275188           11.83927           47.78073
        1.294737           11.91604           47.71095
        1.314286           11.99568           47.64434
        1.333835           12.07847           47.58016
        1.353383           12.16454           47.51627
        1.372932           12.25343           47.45293
        1.392481           12.34412           47.38831
        1.412030           12.43551           47.31993
        1.431579           12.52580           47.24891
        1.451128           12.61248           47.17303
        1.470677           12.69292           47.09525
        1.490225           12.76491           47.01498
        1.509774           12.82631           46.93602
        1.529323           12.87604           46.86101
        1.548872           12.91341           46.79404
        1.568421           12.93961           46.73916
        1.587970           12.95647           46.70007
        1.607519           12.96758           46.68009
        1.627068           12.97629           46.68108
        1.646616           12.98781           46.70472
        1.666165           13.00685           46.75126
        1.685714           13.03831           46.82049
        1.705263           13.08628           46.90866
        1.724812           13.15542           47.01432
        1.744361           13.24926           47.13392
        1.763910           13.37033           47.26266
        1.783459           13.52060           47.39577
        1.803007           13.70157           47.52802
        1.822556           13.91350           47.65550
        1.842105           14.15586           47.77146
        1.861654           14.42722           47.87045
        1.881203           14.72545           47.94778
        1.900752           15.04697           47.99805
        1.920301           15.38766           48.01651
        1.939849           15.74191           47.99914
        1.959398           16.10377           47.94229
        1.978947           16.46568           47.84486
        1.998496           16.82010           47.70539
        2.018045           17.15848           47.52495
        2.037594           17.47312           47.30679
        2.057143           17.75627           47.05458
        2.076692           18.00106           46.77509
        2.096241           18.20281           46.47570
        2.115789           18.35726           46.16500
        2.135338           18.46357           45.85246
        2.154887           18.52186           45.54754
        2.174436           18.53499           45.25829
        2.193985           18.50705           44.99264
        2.213534           18.44342           44.75803
        2.233083           18.35039           44.55795
        2.252631           18.23478           44.39565
        2.272180           18.10281           44.27255
        2.291729           17.96068           44.19095
        2.311278           17.81375           44.14937
        2.330827           17.66690           44.14765
        2.350376           17.52458           44.18330
        2.369925           17.39057           44.25658
        2.389474           17.26818           44.36576
        2.409023           17.16062           44.50875
        2.428571           17.07107           44.68425
        2.448120           17.00219           44.89158
        2.467669           16.95709           45.12810
        2.487218           16.93835           45.39226
        2.506767           16.94892           45.68206
        2.526316           16.99121           45.99464
        2.545865           17.06758           46.32833
        2.565413           17.18023           46.68005
        2.584962           17.33180           47.04762
        2.604511           17.52364           47.42683
        2.624060           17.75760           47.81520
        2.643609           18.03524           48.20979
        2.663158           18.35792           48.60691
        2.682707           18.72711           49.00213
        2.702255           19.14325           49.39333
        2.721804           19.60765           49.77477
        2.741353           20.12065           50.14332
        2.760902           20.68240           50.49310
        2.780451           21.29289           50.82081
        2.800000           21.95171           51.12133
        2.819549           22.65723           51.38868
        2.839097           23.40778           51.61694
        2.858647           24.20079           51.80214
        2.878196           25.03287           51.93774
        2.897744           25.89966           52.01888
        2.917293           26.79617           52.04007
        2.936842           27.71573           51.99930
        2.956391           28.65229           51.89118
        2.975940           29.59794           51.71515
        2.995489           30.54521           51.46915
        3.015038           31.48626           51.15465
        3.034586           32.41384           50.77204
        3.054135           33.32012           50.32512
        3.073684           34.19921           49.81659
        3.093233           35.04570           49.25172
        3.112782           35.85564           48.63576
        3.132331           36.62460           47.97324
        3.151880           37.35148           47.26917
        3.171428           38.03415           46.52987
        3.190977           38.67139           45.75940
        3.210526           39.26322           44.96188
        3.230075           39.80959           44.14191
        3.249624           40.31078           43.30251
        3.269173           40.76751           42.44845
        3.288722           41.18040           41.58143
        3.308270           41.55001           40.70503
        3.327819           41.87829           39.82184
        3.347368           42.16614           38.93488
        3.366917           42.41426           38.04501
        3.386466           42.62433           37.15538
        3.406015           42.79940           36.26723
        3.425564           42.93995           35.38208
        3.445113           43.04815           34.50016
        3.464662           43.12532           33.62236
        3.484210           43.17332           32.74773
        3.503760           43.19294           31.87691
        3.523308           43.18518           31.00815
        3.542857           43.15004           30.14078
        3.562406           43.08693           29.27397
        3.581955           42.99398           28.40561
        3.601504           42.86904           27.53591
        3.621053           42.70935           26.66512
        3.640601           42.51076           25.79453
        3.660150           42.27036           24.92613
        3.679699           41.98436           24.06403
        3.699248           41.65099           23.21356
        3.718797           41.26782           22.38016
        3.738346           40.83418           21.56989
        3.757895           40.35201           20.79064
        3.777443           39.82376           20.04883
        3.796992           39.25313           19.35079
        3.816541           38.64565           18.70220
        3.836090           38.00780           18.10713
        3.855639           37.34697           17.56934
        3.875188           36.67083           17.09053
        3.894737           35.98689           16.67078
        3.914286           35.30294           16.30902
        3.933834           34.62514           16.00262
        3.953383           33.96033           15.74863
        3.972932           33.31403           15.54253
        3.992481           32.68998           15.37964
        4.012030           32.09156           15.25452
        4.031579           31.52115           15.16201
        4.051127           30.97974           15.09689
        4.070677           30.46805           15.05394
        4.090225           29.98526           15.02881
        4.109774           29.53125           15.01685
        4.129323           29.10368           15.01422
        4.148872           28.70096           15.01790
        4.168421           28.32085           15.02453
        4.187970           27.96094           15.03231
        4.207519           27.61860           15.03948
        4.227067           27.29094           15.04467
        4.246616           26.97534           15.04773
        4.266165           26.66930           15.04806
        4.285714           26.37073           15.04636
        4.305263           26.07720           15.04346
        4.324812           25.78712           15.04060
        4.344361           25.49920           15.03905
        4.363910           25.21299           15.04094
        4.383459           24.92754           15.04782
        4.403008           24.64383           15.06114
        4.422556           24.36217           15.08302
        4.442105           24.08372           15.11469
        4.461654           23.80970           15.15691
        4.481203           23.54223           15.21053
        4.500752           23.28323           15.27613
        4.520300           23.03437           15.35261
        4.539850           22.79782           15.43986
        4.559398           22.57549           15.53676
        4.578947           22.36854           15.64110
        4.598496           22.17859           15.75200
        4.618045           22.00653           15.86680
        4.637594           21.85285           15.98301
        4.657143           21.71762           16.09854
        4.676692           21.60029           16.21087
        4.696240           21.50048           16.31782
        4.715789           21.41713           16.41707
        4.735338           21.34876           16.50689
        4.754887           21.29362           16.58535
        4.774436           21.25012           16.65124
        4.793985           21.21582           16.70319
        4.813534           21.18854           16.74029
        4.833083           21.16623           16.76261
        4.852631           21.14657           16.76946
        4.872180           21.12715           16.76105
        4.891729           21.10563           16.73806
        4.911278           21.08021           16.70176
        4.930827           21.04920           16.65290
        4.950376           21.01059           16.59291
        4.969925           20.96317           16.52349
        4.989473           20.90650           16.44593
        5.009023           20.83947           16.36200
        5.028571           20.76166           16.27330
        5.048120           20.67304           16.18143
        5.067669           20.57347           16.08760
        5.087218           20.46326           15.99321
        5.106767           20.34246           15.89902
        5.126316           20.21086           15.80607
        5.145864           20.06916           15.71489
        5.165413           19.91661           15.62677
        5.184962           19.75375           15.54265
        5.204511           19.58005           15.46320
        5.224060           19.39554           15.38994
        5.243609           19.20051           15.32374
        5.263158           18.99494           15.26640
        5.282707           18.77905           15.21920
        5.302256           18.55355           15.18390
        5.321805           18.31930           15.16230
        5.341353           18.07781           15.15573
        5.360902           17.83013           15.16605
        5.380451           17.57845           15.19401
        5.400000           17.32458           15.24097
        5.419549           17.07097           15.30749
        5.439097           16.81976           15.39363
        5.458646           16.57324           15.49998
        5.478195           16.33412           15.62519
        5.497744           16.10405           15.76929
        5.517293           15.88536           15.93094
        5.536842           15.67992           16.10898
        5.556391           15.48912           16.30231
        5.575940           15.31471           16.50864
        5.595489           15.15752           16.72666
        5.615037           15.01869           16.95445
        5.634586           14.89877           17.19048
        5.654135           14.79825           17.43236
        5.673684           14.71741           17.67906
        5.693233           14.65639           17.92840
        5.712782           14.61498           18.17843
        5.732330           14.59326           18.42764
        5.751880           14.59057           18.67482
        5.771429           14.60654           18.91801
        5.790977           14.64027           19.15550
        5.810526           14.69116           19.38711
        5.830075           14.75829           19.61040
        5.849624           14.84096           19.82502
        5.869173           14.93747           20.02982
        5.888722           15.04744           20.22366
        5.908270           15.16942           20.40644
        5.927819           15.30244           20.57723
        5.947368           15.44526           20.73612
        5.966917           15.59695           20.88249
        5.986466           15.75632           21.01586
        6.006015           15.92288           21.13663
        6.025564           16.09525           21.24440
        6.045113           16.27296           21.33942
        6.064662           16.45546           21.42139
        6.084210           16.64162           21.49040
        6.103759           16.83081           21.54626
        6.123308           17.02272           21.58906
        6.142857           17.21625           21.61828
        6.162406           17.41094           21.63448
        6.181955           17.60577           21.63670
        6.201503           17.79949           21.62522
        6.221053           17.99144           21.60003
        6.240601           18.18042           21.56177
        6.260150           18.36524           21.51032
        6.279699           18.54470           21.44607
        6.299248           18.71800           21.36953
        6.318797           18.88369           21.28212
        6.338346           19.04131           21.18436
        6.357895           19.19010           21.07704
        6.377443           19.32921           20.96200
        6.396993           19.45836           20.84022
        6.416541           19.57744           20.71250
        6.436090           19.68674           20.58070
        6.455639           19.78585           20.44535
        6.475188           19.87545           20.30812
        6.494737           19.95617           20.16925
        6.514286           20.02817           20.02990
        6.533834           20.09244           19.89067
        6.553383           20.14953           19.75232
        6.572932           20.20008           19.61475
        6.592481           20.24508           19.47824
        6.612030           20.28497           19.34327
        6.631579           20.32023           19.20938
        6.651128           20.35179           19.07611
        6.670677           20.37983           18.94375
        6.690226           20.40424           18.81183
        6.709774           20.42582           18.68003
        6.729323           20.44409           18.54751
        6.748872           20.45895           18.41483
        6.768421           20.47060           18.28166
        6.787970           20.47861           18.14750
        6.807518           20.48249           18.01220
        6.827068           20.48233           17.87672
        6.846617           20.47789           17.74083
        6.866165           20.46877           17.60445
        6.885714           20.45548           17.46801
        6.905263           20.43740           17.33217
        6.924812           20.41503           17.19667
        6.944361           20.38845           17.06195
        6.963910           20.35772           16.92793
        6.983459           20.32306           16.79517
        7.003008           20.28450           16.66275
        7.022557           20.24239           16.53117
        7.042106           20.19660           16.40041
        7.061654           20.14698           16.27031
        7.081203           20.09369           16.14047
        7.100752           20.03651           16.01068
        7.120301           19.97487           15.88104
        7.139850           19.90830           15.75153
        7.159399           19.83702           15.62235
        7.178947           19.76006           15.49350
        7.198497           19.67724           15.36506
        7.218046           19.58798           15.23773
        7.237594           19.49179           15.11200
        7.257143           19.38859           14.98849
        7.276692           19.27779           14.86733
        7.296241           19.15911           14.75008
        7.315789           19.03280           14.63707
        7.335339           18.89868           14.52940
        7.354887           18.75695           14.42801
        7.374436           18.60774           14.33390
        7.393985           18.45197           14.24758
        7.413534           18.28968           14.17015
        7.433083           18.12162           14.10267
        7.452632           17.94878           14.04555
        7.472181           17.77187           13.99979
        7.491729           17.59206           13.96560
        7.511278           17.41026           13.94373
        7.530828           17.22751           13.93444
        7.550376           17.04559           13.93804
        7.569925           16.86519           13.95451
        7.589474           16.68769           13.98362
        7.609023           16.51503           14.02543
        7.628572           16.34761           14.07899
        7.648120           16.18711           14.14436
        7.667669           16.03456           14.22017
        7.687218           15.89121           14.30598
        7.706768           15.75776           14.40050
        7.726316           15.63503           14.50237
        7.745865           15.52377           14.61093
        7.765414           15.42444           14.72436
        7.784963           15.33713           14.84167
        7.804512           15.26212           14.96102
        7.824060           15.19928           15.08161
        7.843609           15.14827           15.20175
        7.863158           15.10884           15.32026
        7.882707           15.08046           15.43572
        7.902256           15.06236           15.54728
        7.921804           15.05381           15.65400
        7.941354           15.05367           15.75488
        7.960903           15.06092           15.84921
        7.980451           15.07461           15.93639
        8.000000           15.09357           16.01628
# 
# 02/11/2024 at 11:41 yambo @ unimi-XPS-8930 [start]
# 02/11/2024 at 11:41                        [end]
#
# .-Input file  yambo.in
# | optics                           # [R] Linear Response optical properties
# | bse                              # [R][BSE] Bethe Salpeter Equation.
# | BoseTemp= 0.000000         eV    # Bosonic Temperature
# | FFTGvecs= 1721             RL    # [FFT] Plane-waves
# | BS_nCPU_LinAlg_INV= 1            # [PARALLEL] CPUs for Linear Algebra (if -1 it is automatically set)
# | BS_nCPU_LinAlg_DIAGO= 1          # [PARALLEL] CPUs for Linear Algebra (if -1 it is automatically set)
# | X_Threads= 1                     # [OPENMP/X] Number of threads for response functions
# | DIP_Threads= 1                   # [OPENMP/X] Number of threads for dipoles
# | K_Threads= 1                     # [OPENMP/BSK] Number of threads for response functions
# | BSKmod= "IP"                     # [BSE] IP/Hartree/HF/ALDA/SEX/BSfxc
# | BSEmod= "retarded"               # [BSE] resonant/retarded/coupling
# | DipApproach= "Shifted grids"     # [DIP] [G-space v/R-space x/Covariant/Shifted grids]
# | DipComputed= "R V P"             # [DIP] [default R P V; extra P2 Spin Orb]
# | ShiftedPaths= "SHIFTED_grids/shift_1 SHIFTED_grids/shift_2 SHIFTED_grids/shift_3" # [DIP] Shifted grids paths (separated by a space)
# | BSENGexx= 10833            RL    # [BSK] Exchange components
# | DrudeWBS= ( 4.800000 , 5.650000 )  eV    # [BSE] Drude plasmon
# | % BSEQptR
# |  1 | 1 |                             # [BSK] Transferred momenta range
# | %
# | % BSEBands
# |   1 | 13 |                           # [BSK] Bands range
# | %
# | % BEnRange
# |  0.200000 | 8.000000 |         eV    # [BSS] Energy range
# | %
# | % BDmRange
# |  0.300000 | 0.500000 |         eV    # [BSS] Damping range
# | %
# | BEnSteps=  400                   # [BSS] Energy steps
# | % BLongDir
# |  0.100000E-4 |  0.00000    |  0.00000    # [BSS] [cc] Electric Field
# | %
# | BSEprop= "abs jdos"              # [BSS] Can be any among abs/jdos/kerr/magn/dich/photolum/esrt
# | BSEdips= "none"                  # [BSS] Can be "trace/none" or "xy/xz/yz" to define off-diagonal rotation plane
