#                                                           
#  ____  ____     _       ____    ____  ______      ___     
# |_  _||_  _|   / \     |_   \  /   _||_   _ \   ."   `.   
#   \ \  / /    / _ \      |   \/   |    | |_) | /  .-.  \  
#    \ \/ /    / ___ \     | |\  /| |    |  __". | |   | |  
#    _|  |_  _/ /   \ \_  _| |_\/_| |_  _| |__) |\  `-"  /  
#   |______||____| |____||_____||_____||_______/  `.___."   
#                                                           
#                                                           
#                                                           
#        Version 4.3.0 Revision 15624 Hash 7ed12fb          
#                      MPI+SLK Build                        
#                http://www.yambo-code.org                  
#
# Off-diagonal Absorption @ Q(1) [q->0 direction] :0.1000E-4  0.000     0.000   
#
#
#
# - The Green`s function is Retarded -
# - Using the Length Gauge -
# - [r,Vnl] *is* included -
#
#
#    Anomalous Hall effect sH
#    sH                        
#      [fs]^-1    [Ohm*cm]^-1  [e^2/hbar]
#    0.4353E-8    0.4843E-5     1.990   
#
#    E/ev[1]      off-Im[2]    off-Re[3]
#
   0.2000       -.1102E-3    0.8553E-4
   0.2195       -.9201E-4    0.9665E-4
   0.2391       -.7628E-4    0.1050E-3
   0.2586       -.6205E-4    0.1103E-3
   0.2782       -.4984E-4    0.1143E-3
   0.2977       -.3860E-4    0.1170E-3
   0.3173       -.2849E-4    0.1192E-3
   0.3368       -.1930E-4    0.1211E-3
   0.3564       -.1047E-4    0.1219E-3
   0.3759       -.2035E-5    0.1224E-3
   0.3955       0.6033E-5    0.1226E-3
   0.4150       0.1402E-4    0.1235E-3
   0.4346       0.2146E-4    0.1225E-3
   0.4541       0.2903E-4    0.1218E-3
   0.4737       0.3735E-4    0.1216E-3
   0.4932       0.4468E-4    0.1200E-3
   0.5128       0.5268E-4    0.1182E-3
   0.5323       0.6107E-4    0.1160E-3
   0.5519       0.6904E-4    0.1134E-3
   0.5714       0.7636E-4    0.1087E-3
   0.5910       0.8435E-4    0.1043E-3
   0.6105       0.9195E-4    0.9904E-4
   0.6301       0.9818E-4    0.9265E-4
   0.6496       0.1051E-3    0.8546E-4
   0.6692       0.1115E-3    0.7801E-4
   0.6887       0.1159E-3    0.6864E-4
   0.7083       0.1203E-3    0.5934E-4
   0.7278       0.1226E-3    0.4944E-4
   0.7474       0.1241E-3    0.3954E-4
   0.7669       0.1242E-3    0.2937E-4
   0.7865       0.1238E-3    0.1964E-4
   0.8060       0.1217E-3    0.1036E-4
   0.8256       0.1185E-3    0.1768E-5
   0.8451       0.1146E-3    -.5854E-5
   0.8647       0.1100E-3    -.1278E-4
   0.8842       0.1046E-3    -.1900E-4
   0.9038       0.9860E-4    -.2382E-4
   0.9233       0.9372E-4    -.2838E-4
   0.9429       0.8850E-4    -.3154E-4
   0.9624       0.8268E-4    -.3451E-4
   0.9820       0.7746E-4    -.3679E-4
    1.002       0.7207E-4    -.3837E-4
    1.021       0.6807E-4    -.3925E-4
    1.041       0.6286E-4    -.4047E-4
    1.060       0.5905E-4    -.4082E-4
    1.080       0.5565E-4    -.4100E-4
    1.099       0.5127E-4    -.4100E-4
    1.119       0.4774E-4    -.4048E-4
    1.138       0.4451E-4    -.4030E-4
    1.158       0.4160E-4    -.3978E-4
    1.177       0.3913E-4    -.3891E-4
    1.197       0.3659E-4    -.3860E-4
    1.217       0.3424E-4    -.3759E-4
    1.236       0.3186E-4    -.3697E-4
    1.256       0.3014E-4    -.3593E-4
    1.275       0.2831E-4    -.3518E-4
    1.295       0.2659E-4    -.3422E-4
    1.314       0.2462E-4    -.3339E-4
    1.334       0.2346E-4    -.3277E-4
    1.353       0.2228E-4    -.3203E-4
    1.373       0.2117E-4    -.3116E-4
    1.392       0.1995E-4    -.3050E-4
    1.412       0.1881E-4    -.2958E-4
    1.432       0.1770E-4    -.2887E-4
    1.451       0.1686E-4    -.2796E-4
    1.471       0.1608E-4    -.2730E-4
    1.490       0.1536E-4    -.2664E-4
    1.510       0.1461E-4    -.2594E-4
    1.529       0.1379E-4    -.2538E-4
    1.549       0.1326E-4    -.2481E-4
    1.568       0.1264E-4    -.2433E-4
    1.588       0.1196E-4    -.2372E-4
    1.608       0.1138E-4    -.2301E-4
    1.627       0.1088E-4    -.2249E-4
    1.647       0.1059E-4    -.2197E-4
    1.666       0.1003E-4    -.2140E-4
    1.686       0.9603E-5    -.2118E-4
    1.705       0.9222E-5    -.2065E-4
    1.725       0.9043E-5    -.2017E-4
    1.744       0.8506E-5    -.1970E-4
    1.764       0.8225E-5    -.1943E-4
    1.783       0.7874E-5    -.1873E-4
    1.803       0.7591E-5    -.1865E-4
    1.823       0.7311E-5    -.1821E-4
    1.842       0.6905E-5    -.1768E-4
    1.862       0.6693E-5    -.1738E-4
    1.881       0.6416E-5    -.1708E-4
    1.901       0.6132E-5    -.1672E-4
    1.920       0.5895E-5    -.1660E-4
    1.940       0.5799E-5    -.1620E-4
    1.959       0.5413E-5    -.1585E-4
    1.979       0.5295E-5    -.1559E-4
    1.998       0.4972E-5    -.1524E-4
    2.018       0.4859E-5    -.1497E-4
    2.038       0.4670E-5    -.1471E-4
    2.057       0.4601E-5    -.1445E-4
    2.077       0.4332E-5    -.1428E-4
    2.096       0.4103E-5    -.1393E-4
    2.116       0.3959E-5    -.1367E-4
    2.135       0.3863E-5    -.1349E-4
    2.155       0.3664E-5    -.1315E-4
    2.174       0.3562E-5    -.1289E-4
    2.194       0.3428E-5    -.1271E-4
    2.214       0.3266E-5    -.1245E-4
    2.233       0.3089E-5    -.1210E-4
    2.253       0.3060E-5    -.1202E-4
    2.272       0.2905E-5    -.1175E-4
    2.292       0.2836E-5    -.1158E-4
    2.311       0.2673E-5    -.1123E-4
    2.331       0.2604E-5    -.1115E-4
    2.350       0.2534E-5    -.1088E-4
    2.370       0.2433E-5    -.1062E-4
    2.389       0.2351E-5    -.1054E-4
    2.409       0.2289E-5    -.1036E-4
    2.429       0.2194E-5    -.1010E-4
    2.448       0.2171E-5    -.1002E-4
    2.468       0.2081E-5    -.9839E-5
    2.487       0.2091E-5    -.9670E-5
    2.507       0.1936E-5    -.9500E-5
    2.526       0.1923E-5    -.9325E-5
    2.546       0.1946E-5    -.9154E-5
    2.565       0.1862E-5    -.9063E-5
    2.585       0.1797E-5    -.8935E-5
    2.605       0.1774E-5    -.8764E-5
    2.624       0.1771E-5    -.8635E-5
    2.644       0.1670E-5    -.8504E-5
    2.663       0.1620E-5    -.8413E-5
    2.683       0.1621E-5    -.8246E-5
    2.702       0.1545E-5    -.8208E-5
    2.722       0.1519E-5    -.8032E-5
    2.741       0.1511E-5    -.7904E-5
    2.761       0.1420E-5    -.7815E-5
    2.780       0.1367E-5    -.7820E-5
    2.800       0.1279E-5    -.7562E-5
    2.820       0.1279E-5    -.7519E-5
    2.839       0.1269E-5    -.7394E-5
    2.859       0.1194E-5    -.7395E-5
    2.878       0.1097E-5    -.7264E-5
    2.898       0.1109E-5    -.7094E-5
    2.917       0.1061E-5    -.7057E-5
    2.937       0.9926E-6    -.6963E-5
    2.956       0.9203E-6    -.6793E-5
    2.976       0.8526E-6    -.6751E-5
    2.995       0.7897E-6    -.6539E-5
    3.015       0.7602E-6    -.6585E-5
    3.035       0.6653E-6    -.6368E-5
    3.054       0.5980E-6    -.6201E-5
    3.074       0.5897E-6    -.6071E-5
    3.093       0.5524E-6    -.6024E-5
    3.113       0.4545E-6    -.5863E-5
    3.132       0.4325E-6    -.5692E-5
    3.152       0.4187E-6    -.5696E-5
    3.171       0.3880E-6    -.5436E-5
    3.191       0.3226E-6    -.5284E-5
    3.211       0.2804E-6    -.5186E-5
    3.230       0.2935E-6    -.4980E-5
    3.250       0.3136E-6    -.4865E-5
    3.269       0.3409E-6    -.4843E-5
    3.289       0.3218E-6    -.4444E-5
    3.308       0.3565E-6    -.4358E-5
    3.328       0.3588E-6    -.4217E-5
    3.347       0.4796E-6    -.4144E-5
    3.367       0.5021E-6    -.3942E-5
    3.386       0.5043E-6    -.3690E-5
    3.406       0.5949E-6    -.3651E-5
    3.426       0.7066E-6    -.3454E-5
    3.445       0.7734E-6    -.3396E-5
    3.465       0.8680E-6    -.3253E-5
    3.484       0.9506E-6    -.3127E-5
    3.504       0.1078E-5    -.3040E-5
    3.523       0.1167E-5    -.2889E-5
    3.543       0.1213E-5    -.2840E-5
    3.562       0.1436E-5    -.2744E-5
    3.582       0.1489E-5    -.2697E-5
    3.602       0.1643E-5    -.2593E-5
    3.621       0.1756E-5    -.2554E-5
    3.641       0.1876E-5    -.2523E-5
    3.660       0.2047E-5    -.2516E-5
    3.680       0.2145E-5    -.2446E-5
    3.699       0.2213E-5    -.2437E-5
    3.719       0.2388E-5    -.2408E-5
    3.738       0.2573E-5    -.2421E-5
    3.758       0.2646E-5    -.2460E-5
    3.777       0.2799E-5    -.2454E-5
    3.797       0.2936E-5    -.2555E-5
    3.817       0.2994E-5    -.2559E-5
    3.836       0.3151E-5    -.2585E-5
    3.856       0.3220E-5    -.2625E-5
    3.875       0.3354E-5    -.2722E-5
    3.895       0.3412E-5    -.2759E-5
    3.914       0.3547E-5    -.2691E-5
    3.934       0.3617E-5    -.2828E-5
    3.953       0.3676E-5    -.2883E-5
    3.973       0.3725E-5    -.2992E-5
    3.992       0.3810E-5    -.3144E-5
    4.012       0.3884E-5    -.3199E-5
    4.032       0.3960E-5    -.3254E-5
    4.051       0.4050E-5    -.3475E-5
    4.071       0.4065E-5    -.3491E-5
    4.090       0.4137E-5    -.3565E-5
    4.110       0.4135E-5    -.3745E-5
    4.129       0.4234E-5    -.3841E-5
    4.149       0.4239E-5    -.3982E-5
    4.168       0.4257E-5    -.4082E-5
    4.188       0.4225E-5    -.4227E-5
    4.208       0.4251E-5    -.4415E-5
    4.227       0.4182E-5    -.4545E-5
    4.247       0.4172E-5    -.4567E-5
    4.266       0.4112E-5    -.4752E-5
    4.286       0.4046E-5    -.4846E-5
    4.305       0.3995E-5    -.5005E-5
    4.325       0.3917E-5    -.5133E-5
    4.344       0.3854E-5    -.5109E-5
    4.364       0.3743E-5    -.5234E-5
    4.383       0.3648E-5    -.5318E-5
    4.403       0.3613E-5    -.5355E-5
    4.423       0.3530E-5    -.5478E-5
    4.442       0.3333E-5    -.5511E-5
    4.462       0.3284E-5    -.5578E-5
    4.481       0.3188E-5    -.5625E-5
    4.501       0.3064E-5    -.5752E-5
    4.520       0.2981E-5    -.5665E-5
    4.540       0.2894E-5    -.5711E-5
    4.559       0.2803E-5    -.5731E-5
    4.579       0.2731E-5    -.5728E-5
    4.598       0.2612E-5    -.5739E-5
    4.618       0.2489E-5    -.5784E-5
    4.638       0.2473E-5    -.5724E-5
    4.657       0.2367E-5    -.5707E-5
    4.677       0.2302E-5    -.5644E-5
    4.696       0.2191E-5    -.5656E-5
    4.716       0.2143E-5    -.5678E-5
    4.735       0.2116E-5    -.5604E-5
    4.755       0.2042E-5    -.5618E-5
    4.774       0.1956E-5    -.5603E-5
    4.794       0.1889E-5    -.5622E-5
    4.814       0.1843E-5    -.5546E-5
    4.833       0.1807E-5    -.5550E-5
    4.853       0.1770E-5    -.5550E-5
    4.872       0.1677E-5    -.5568E-5
    4.892       0.1661E-5    -.5568E-5
    4.911       0.1610E-5    -.5500E-5
    4.931       0.1526E-5    -.5495E-5
    4.950       0.1529E-5    -.5430E-5
    4.970       0.1467E-5    -.5488E-5
    4.989       0.1421E-5    -.5433E-5
    5.009       0.1375E-5    -.5411E-5
    5.029       0.1318E-5    -.5457E-5
    5.048       0.1256E-5    -.5371E-5
    5.068       0.1217E-5    -.5351E-5
    5.087       0.1156E-5    -.5359E-5
    5.107       0.1118E-5    -.5301E-5
    5.126       0.1097E-5    -.5335E-5
    5.146       0.1056E-5    -.5264E-5
    5.165       0.1016E-5    -.5343E-5
    5.185       0.9660E-6    -.5217E-5
    5.205       0.9126E-6    -.5253E-5
    5.224       0.8822E-6    -.5164E-5
    5.244       0.8428E-6    -.5201E-5
    5.263       0.8133E-6    -.5104E-5
    5.283       0.7506E-6    -.5071E-5
    5.302       0.7696E-6    -.5113E-5
    5.322       0.7218E-6    -.5056E-5
    5.341       0.6629E-6    -.4997E-5
    5.361       0.6479E-6    -.5028E-5
    5.380       0.6297E-6    -.4962E-5
    5.400       0.5845E-6    -.4961E-5
    5.420       0.5858E-6    -.4897E-5
    5.439       0.5247E-6    -.4868E-5
    5.459       0.5155E-6    -.4884E-5
    5.478       0.4580E-6    -.4819E-5
    5.498       0.4639E-6    -.4805E-5
    5.517       0.4543E-6    -.4788E-5
    5.537       0.4291E-6    -.4699E-5
    5.556       0.4023E-6    -.4707E-5
    5.576       0.4038E-6    -.4679E-5
    5.595       0.3560E-6    -.4697E-5
    5.615       0.3284E-6    -.4621E-5
    5.635       0.3462E-6    -.4620E-5
    5.654       0.3136E-6    -.4623E-5
    5.674       0.2745E-6    -.4563E-5
    5.693       0.2550E-6    -.4611E-5
    5.713       0.2457E-6    -.4544E-5
    5.732       0.2479E-6    -.4510E-5
    5.752       0.2098E-6    -.4498E-5
    5.771       0.1887E-6    -.4447E-5
    5.791       0.1753E-6    -.4390E-5
    5.811       0.1566E-6    -.4398E-5
    5.830       0.1415E-6    -.4351E-5
    5.850       0.9076E-7    -.4352E-5
    5.869       0.1220E-6    -.4313E-5
    5.889       0.6053E-7    -.4276E-5
    5.908       0.4987E-7    -.4255E-5
    5.928       0.6521E-7    -.4237E-5
    5.947       0.6876E-7    -.4176E-5
    5.967       0.2352E-7    -.4153E-5
    5.986       0.2004E-7    -.4180E-5
    6.006       0.3898E-7    -.4136E-5
    6.026       -.1037E-7    -.4077E-5
    6.045       0.1525E-7    -.4076E-5
    6.065       -.1990E-7    -.4065E-5
    6.084       0.5725E-8    -.3995E-5
    6.10        -.669E-09    -.398E-05
    6.123       -.1511E-7    -.3895E-5
    6.143       0.1445E-7    -.3893E-5
    6.162       -.5976E-8    -.3876E-5
    6.182       -.1203E-7    -.3818E-5
    6.202       0.5197E-8    -.3819E-5
    6.22        0.173E-09    -.380E-05
    6.24        0.974E-09    -.378E-05
    6.260       -.2857E-8    -.3784E-5
    6.280       0.1283E-7    -.3786E-5
    6.299       0.1990E-8    -.3761E-5
    6.319       0.3016E-7    -.3677E-5
    6.338       0.2463E-7    -.3697E-5
    6.358       -.5384E-8    -.3683E-5
    6.377       0.5273E-7    -.3684E-5
    6.397       0.3436E-7    -.3661E-5
    6.42        -.953E-09    -.371E-05
    6.436       0.1471E-7    -.3645E-5
    6.46        -.741E-09    -.364E-05
    6.475       0.2794E-7    -.3648E-5
    6.495       0.9222E-8    -.3629E-5
    6.514       0.3191E-7    -.3610E-5
    6.534       0.4486E-7    -.3570E-5
    6.553       0.1106E-7    -.3613E-5
    6.573       0.2554E-7    -.3595E-5
    6.592       -.3433E-8    -.3531E-5
    6.612       0.1327E-7    -.3507E-5
    6.632       0.9777E-8    -.3508E-5
    6.651       0.1792E-7    -.3508E-5
    6.671       0.3256E-7    -.3557E-5
    6.690       0.2511E-7    -.3537E-5
    6.710       0.1786E-7    -.3514E-5
    6.729       0.3048E-7    -.3517E-5
    6.749       0.2388E-7    -.3483E-5
    6.768       0.2331E-7    -.3460E-5
    6.788       0.5937E-8    -.3412E-5
    6.808       0.1134E-7    -.3456E-5
    6.827       0.2274E-7    -.3491E-5
    6.847       0.3821E-7    -.3439E-5
    6.866       0.3455E-7    -.3440E-5
    6.886       0.2592E-7    -.3424E-5
    6.905       0.2533E-7    -.3425E-5
    6.925       0.2132E-7    -.3425E-5
    6.944       0.5512E-7    -.3387E-5
    6.964       0.1618E-7    -.3388E-5
    6.983       0.1918E-7    -.3381E-5
    7.003       0.2544E-7    -.3392E-5
    7.023       0.4298E-7    -.3382E-5
    7.042       0.3793E-7    -.3355E-5
    7.062       0.4401E-7    -.3318E-5
    7.081       0.4135E-7    -.3321E-5
    7.101       0.4657E-7    -.3318E-5
    7.120       0.3706E-7    -.3321E-5
    7.140       0.2361E-7    -.3309E-5
    7.159       0.4134E-7    -.3323E-5
    7.179       0.2773E-7    -.3325E-5
    7.198       0.2935E-7    -.3325E-5
    7.218       0.5082E-7    -.3318E-5
    7.238       0.4337E-7    -.3360E-5
    7.257       0.2117E-7    -.3317E-5
    7.277       0.2982E-7    -.3287E-5
    7.296       0.3177E-7    -.3329E-5
    7.316       0.7355E-8    -.3286E-5
    7.335       0.2251E-7    -.3301E-5
    7.355       0.1967E-7    -.3302E-5
    7.374       0.1066E-7    -.3321E-5
    7.394       0.2665E-7    -.3306E-5
    7.414       0.1096E-7    -.3296E-5
    7.433       0.1068E-7    -.3285E-5
    7.453       -.7565E-8    -.3292E-5
    7.472       -.6989E-8    -.3310E-5
    7.492       0.3176E-8    -.3300E-5
    7.511       0.4436E-8    -.3252E-5
    7.531       -.9545E-8    -.3290E-5
    7.550       -.2371E-7    -.3314E-5
    7.570       -.2569E-7    -.3250E-5
    7.589       -.1538E-7    -.3259E-5
    7.609       -.3366E-7    -.3273E-5
    7.629       -.3359E-7    -.3242E-5
    7.648       -.4725E-7    -.3262E-5
    7.668       -.4446E-7    -.3255E-5
    7.687       -.4614E-7    -.3256E-5
    7.707       -.4248E-7    -.3233E-5
    7.726       -.5631E-7    -.3269E-5
    7.746       -.6653E-7    -.3217E-5
    7.765       -.6462E-7    -.3250E-5
    7.785       -.8511E-7    -.3239E-5
    7.805       -.7259E-7    -.3260E-5
    7.824       -.9772E-7    -.3241E-5
    7.844       -.8966E-7    -.3187E-5
    7.863       -.1172E-6    -.3188E-5
    7.883       -.1168E-6    -.3190E-5
    7.902       -.1216E-6    -.3200E-5
    7.922       -.1202E-6    -.3182E-5
    7.941       -.1072E-6    -.3181E-5
    7.961       -.1215E-6    -.3204E-5
    7.980       -.1414E-6    -.3172E-5
    8.000       -.1354E-6    -.3165E-5
# 
# 07/24/2018 at 15:52 YAMBO_RT @ NewLaptop [start]
# 07/24/2018 at 15:52                      [end]
#
# .-Input file : yambo.in
# | optics                         # [R OPT] Optics
# | bse                            # [R BSE] Bethe Salpeter Equation.
# | BoseTemp= 0.000000     eV      # Bosonic Temperature
# | FFTGvecs= 1721         RL      # [FFT] Plane-waves
# | BSEmod= "retarded"             # [BSE] resonant/retarded/coupling
# | BSKmod= "IP"                   # [BSE] IP/Hartree/HF/ALDA/SEX/BSfxc
# | MetDamp                        # [BSE] Define \w+=sqrt(\w*(\w+i\eta))
# | EvalKerr                       # [BSE] Compute the Kerr effect
# | AnHall                         # [BSE] Add the anomalous Hall effect to eps if using length gauge
# | % BEnRange
# |  0.200000 | 8.000000 | eV      # [BSS] Energy range
# | %
# | % BDmRange
# |  0.300000 | 0.500000 | eV      # [BSS] Damping range
# | %
# | BEnSteps=  400                 # [BSS] Energy steps
# | % BLongDir
# | 0.1000E-4 | 0.000    | 0.000    |        # [BSS] [cc] Electric Field
# | %
# | % BSEBands
# |   1 | 13 |                     # [BSK] Bands range
# | %
