#                                                           
# :::   :::   :::     ::::    ::::  :::::::::   ::::::::    
# :+:   :+: :+: :+:   +:+:+: :+:+:+ :+:    :+: :+:    :+:   
#  +:+ +:+ +:+   +:+  +:+ +:+:+ +:+ +:+    +:+ +:+    +:+   
#   +#++: +#++:++#++: +#+  +:+  +#+ +#++:++#+  +#+    +:+   
#    +#+  +#+     +#+ +#+       +#+ +#+    +#+ +#+    +#+   
#    #+#  #+#     #+# #+#       #+# #+#    #+# #+#    #+#   
#    ###  ###     ### ###       ### #########   ########    
#                                                           
#                                                           
#        Version 4.3.0 Revision 15642 Hash 4a43e30          
#                      MPI+SLK Build                        
#                http://www.yambo-code.org                  
#
# Off-diagonal Absorption @ Q(1) [q->0 direction] : 1.000000  0.000000  0.000000
#
#
#
# - The Green`s function is Retarded -
# - Using the Velocity Gauge -
# - [r,Vnl] *is* included -
#
#
#    Anomalous Hall effect sH
#    sH                        
#      [fs]^-1    [Ohm*cm]^-1  [e^2/hbar]
#     0.00         0.00         0.00    
#
#    E/ev[1]      off-Im[2]    off-Re[3]
#
      0.2000       0.0114      -0.0020
      0.2195       0.0096      -0.0020
      0.2391       0.0083      -0.0020
      0.2586       0.0072      -0.0019
      0.2782       0.0063      -0.0019
      0.2977       0.0056      -0.0018
      0.3173       0.0050      -0.0018
      0.3368       0.0044      -0.0017
      0.3564       0.0040      -0.0017
      0.3759       0.0036      -0.0016
      0.3955       0.0033      -0.0016
      0.4150       0.0030      -0.0015
      0.4346       0.0027      -0.0015
      0.4541       0.0025      -0.0014
      0.4737       0.0023      -0.0014
      0.4932       0.0021      -0.0013
      0.5128       0.0020      -0.0013
      0.5323       0.0018      -0.0012
      0.5519       0.0017      -0.0012
      0.5714       0.0016      -0.0011
      0.5910       0.0015      -0.0011
      0.6105       0.0014      -0.0011
      0.6301       0.0013      -0.0010
   0.6496       0.1257E-2    -.9939E-3
   0.6692       0.1188E-2    -.9659E-3
   0.6887       0.1125E-2    -.9396E-3
   0.7083       0.1064E-2    -.9137E-3
   0.7278       0.1010E-2    -.8919E-3
   0.7474       0.9564E-3    -.8698E-3
   0.7669       0.9067E-3    -.8499E-3
   0.7865       0.8597E-3    -.8303E-3
   0.8060       0.8151E-3    -.8118E-3
   0.8256       0.7719E-3    -.7926E-3
   0.8451       0.7325E-3    -.7765E-3
   0.8647       0.6936E-3    -.7581E-3
   0.8842       0.6569E-3    -.7409E-3
   0.9038       0.6224E-3    -.7230E-3
   0.9233       0.5901E-3    -.7063E-3
   0.9429       0.5593E-3    -.6893E-3
   0.9624       0.5298E-3    -.6712E-3
   0.9820       0.5021E-3    -.6547E-3
    1.002       0.4760E-3    -.6368E-3
    1.021       0.4521E-3    -.6208E-3
    1.041       0.4292E-3    -.6046E-3
    1.060       0.4079E-3    -.5886E-3
    1.080       0.3880E-3    -.5734E-3
    1.099       0.3692E-3    -.5582E-3
    1.119       0.3513E-3    -.5432E-3
    1.138       0.3350E-3    -.5292E-3
    1.158       0.3195E-3    -.5153E-3
    1.177       0.3047E-3    -.5016E-3
    1.197       0.2910E-3    -.4887E-3
    1.217       0.2782E-3    -.4759E-3
    1.236       0.2659E-3    -.4635E-3
    1.256       0.2546E-3    -.4520E-3
    1.275       0.2435E-3    -.4400E-3
    1.295       0.2335E-3    -.4293E-3
    1.314       0.2237E-3    -.4180E-3
    1.334       0.2146E-3    -.4078E-3
    1.353       0.2064E-3    -.3983E-3
    1.373       0.1982E-3    -.3884E-3
    1.392       0.1904E-3    -.3789E-3
    1.412       0.1830E-3    -.3696E-3
    1.432       0.1762E-3    -.3609E-3
    1.451       0.1696E-3    -.3523E-3
    1.471       0.1633E-3    -.3439E-3
    1.490       0.1575E-3    -.3363E-3
    1.510       0.1518E-3    -.3285E-3
    1.529       0.1465E-3    -.3212E-3
    1.549       0.1414E-3    -.3141E-3
    1.568       0.1364E-3    -.3069E-3
    1.588       0.1319E-3    -.3004E-3
    1.608       0.1274E-3    -.2937E-3
    1.627       0.1231E-3    -.2872E-3
    1.647       0.1192E-3    -.2814E-3
    1.666       0.1152E-3    -.2752E-3
    1.686       0.1116E-3    -.2696E-3
    1.705       0.1079E-3    -.2639E-3
    1.725       0.1045E-3    -.2584E-3
    1.744       0.1014E-3    -.2536E-3
    1.764       0.9822E-4    -.2482E-3
    1.783       0.9526E-4    -.2432E-3
    1.803       0.9237E-4    -.2383E-3
    1.823       0.8971E-4    -.2340E-3
    1.842       0.8706E-4    -.2295E-3
    1.862       0.8449E-4    -.2250E-3
    1.881       0.8202E-4    -.2207E-3
    1.901       0.7949E-4    -.2161E-3
    1.920       0.7739E-4    -.2125E-3
    1.940       0.7521E-4    -.2085E-3
    1.959       0.7305E-4    -.2046E-3
    1.979       0.7104E-4    -.2008E-3
    1.998       0.6905E-4    -.1970E-3
    2.018       0.6719E-4    -.1936E-3
    2.038       0.6543E-4    -.1903E-3
    2.057       0.6360E-4    -.1868E-3
    2.077       0.6196E-4    -.1836E-3
    2.096       0.6038E-4    -.1805E-3
    2.116       0.5862E-4    -.1769E-3
    2.135       0.5720E-4    -.1741E-3
    2.155       0.5575E-4    -.1713E-3
    2.174       0.5435E-4    -.1685E-3
    2.194       0.5297E-4    -.1656E-3
    2.214       0.5172E-4    -.1631E-3
    2.233       0.5036E-4    -.1601E-3
    2.253       0.4910E-4    -.1574E-3
    2.272       0.4788E-4    -.1548E-3
    2.292       0.4677E-4    -.1524E-3
    2.311       0.4567E-4    -.1500E-3
    2.331       0.4449E-4    -.1473E-3
    2.350       0.4356E-4    -.1453E-3
    2.370       0.4252E-4    -.1430E-3
    2.389       0.4155E-4    -.1406E-3
    2.409       0.4059E-4    -.1385E-3
    2.429       0.3967E-4    -.1363E-3
    2.448       0.3888E-4    -.1344E-3
    2.468       0.3796E-4    -.1322E-3
    2.487       0.3713E-4    -.1302E-3
    2.507       0.3635E-4    -.1284E-3
    2.526       0.3558E-4    -.1264E-3
    2.546       0.3480E-4    -.1245E-3
    2.565       0.3409E-4    -.1227E-3
    2.585       0.3335E-4    -.1208E-3
    2.605       0.3271E-4    -.1192E-3
    2.624       0.3197E-4    -.1174E-3
    2.644       0.3132E-4    -.1158E-3
    2.663       0.3071E-4    -.1142E-3
    2.683       0.3012E-4    -.1126E-3
    2.702       0.2946E-4    -.1111E-3
    2.722       0.2891E-4    -.1096E-3
    2.741       0.2835E-4    -.1081E-3
    2.761       0.2780E-4    -.1067E-3
    2.780       0.2721E-4    -.1052E-3
    2.800       0.2667E-4    -.1038E-3
    2.820       0.2616E-4    -.1025E-3
    2.839       0.2556E-4    -.1011E-3
    2.859       0.2510E-4    -.9979E-4
    2.878       0.2453E-4    -.9842E-4
    2.898       0.2413E-4    -.9725E-4
    2.917       0.2361E-4    -.9600E-4
    2.937       0.2318E-4    -.9468E-4
    2.956       0.2267E-4    -.9349E-4
    2.976       0.2231E-4    -.9235E-4
    2.995       0.2177E-4    -.9109E-4
    3.015       0.2134E-4    -.8989E-4
    3.035       0.2097E-4    -.8873E-4
    3.054       0.2053E-4    -.8777E-4
    3.074       0.2012E-4    -.8668E-4
    3.093       0.1966E-4    -.8537E-4
    3.113       0.1939E-4    -.8432E-4
    3.132       0.1895E-4    -.8326E-4
    3.152       0.1858E-4    -.8218E-4
    3.171       0.1819E-4    -.8105E-4
    3.191       0.1790E-4    -.8003E-4
    3.211       0.1754E-4    -.7897E-4
    3.230       0.1729E-4    -.7780E-4
    3.250       0.1700E-4    -.7698E-4
    3.269       0.1670E-4    -.7594E-4
    3.289       0.1638E-4    -.7502E-4
    3.308       0.1623E-4    -.7411E-4
    3.328       0.1589E-4    -.7300E-4
    3.347       0.1583E-4    -.7212E-4
    3.367       0.1557E-4    -.7111E-4
    3.386       0.1541E-4    -.7027E-4
    3.406       0.1526E-4    -.6932E-4
    3.426       0.1514E-4    -.6850E-4
    3.445       0.1499E-4    -.6764E-4
    3.465       0.1484E-4    -.6679E-4
    3.484       0.1473E-4    -.6595E-4
    3.504       0.1464E-4    -.6516E-4
    3.523       0.1453E-4    -.6444E-4
    3.543       0.1442E-4    -.6357E-4
    3.562       0.1439E-4    -.6284E-4
    3.582       0.1430E-4    -.6223E-4
    3.602       0.1435E-4    -.6146E-4
    3.621       0.1419E-4    -.6081E-4
    3.641       0.1420E-4    -.6011E-4
    3.660       0.1413E-4    -.5949E-4
    3.680       0.1415E-4    -.5893E-4
    3.699       0.1404E-4    -.5836E-4
    3.719       0.1401E-4    -.5768E-4
    3.738       0.1400E-4    -.5706E-4
    3.758       0.1404E-4    -.5649E-4
    3.777       0.1399E-4    -.5607E-4
    3.797       0.1391E-4    -.5548E-4
    3.817       0.1390E-4    -.5501E-4
    3.836       0.1388E-4    -.5459E-4
    3.856       0.1384E-4    -.5409E-4
    3.875       0.1379E-4    -.5356E-4
    3.895       0.1377E-4    -.5317E-4
    3.914       0.1372E-4    -.5275E-4
    3.934       0.1368E-4    -.5233E-4
    3.953       0.1362E-4    -.5191E-4
    3.973       0.1359E-4    -.5165E-4
    3.992       0.1352E-4    -.5114E-4
    4.012       0.1354E-4    -.5085E-4
    4.032       0.1344E-4    -.5044E-4
    4.051       0.1340E-4    -.5007E-4
    4.071       0.1333E-4    -.4983E-4
    4.090       0.1324E-4    -.4942E-4
    4.110       0.1326E-4    -.4917E-4
    4.129       0.1318E-4    -.4897E-4
    4.149       0.1307E-4    -.4862E-4
    4.168       0.1294E-4    -.4827E-4
    4.188       0.1287E-4    -.4805E-4
    4.208       0.1271E-4    -.4787E-4
    4.227       0.1262E-4    -.4756E-4
    4.247       0.1249E-4    -.4730E-4
    4.266       0.1229E-4    -.4709E-4
    4.286       0.1215E-4    -.4685E-4
    4.305       0.1200E-4    -.4655E-4
    4.325       0.1184E-4    -.4625E-4
    4.344       0.1167E-4    -.4603E-4
    4.364       0.1146E-4    -.4579E-4
    4.383       0.1129E-4    -.4547E-4
    4.403       0.1113E-4    -.4521E-4
    4.423       0.1093E-4    -.4493E-4
    4.442       0.1071E-4    -.4474E-4
    4.462       0.1052E-4    -.4441E-4
    4.481       0.1032E-4    -.4411E-4
    4.501       0.1013E-4    -.4378E-4
    4.520       0.9922E-5    -.4345E-4
    4.540       0.9755E-5    -.4325E-4
    4.559       0.9581E-5    -.4291E-4
    4.579       0.9433E-5    -.4259E-4
    4.598       0.9248E-5    -.4230E-4
    4.618       0.9072E-5    -.4196E-4
    4.638       0.8953E-5    -.4171E-4
    4.657       0.8767E-5    -.4131E-4
    4.677       0.8650E-5    -.4108E-4
    4.696       0.8510E-5    -.4083E-4
    4.716       0.8346E-5    -.4045E-4
    4.735       0.8251E-5    -.4019E-4
    4.755       0.8078E-5    -.3987E-4
    4.774       0.7975E-5    -.3961E-4
    4.794       0.7834E-5    -.3931E-4
    4.814       0.7724E-5    -.3901E-4
    4.833       0.7610E-5    -.3875E-4
    4.853       0.7486E-5    -.3842E-4
    4.872       0.7416E-5    -.3824E-4
    4.892       0.7292E-5    -.3797E-4
    4.911       0.7152E-5    -.3760E-4
    4.931       0.7045E-5    -.3735E-4
    4.950       0.6955E-5    -.3710E-4
    4.970       0.6857E-5    -.3685E-4
    4.989       0.6751E-5    -.3659E-4
    5.009       0.6633E-5    -.3629E-4
    5.029       0.6548E-5    -.3606E-4
    5.048       0.6416E-5    -.3583E-4
    5.068       0.6333E-5    -.3555E-4
    5.087       0.6262E-5    -.3534E-4
    5.107       0.6150E-5    -.3507E-4
    5.126       0.6045E-5    -.3481E-4
    5.146       0.5977E-5    -.3456E-4
    5.165       0.5866E-5    -.3431E-4
    5.185       0.5770E-5    -.3409E-4
    5.205       0.5664E-5    -.3384E-4
    5.224       0.5602E-5    -.3365E-4
    5.244       0.5518E-5    -.3337E-4
    5.263       0.5458E-5    -.3317E-4
    5.283       0.5333E-5    -.3292E-4
    5.302       0.5258E-5    -.3266E-4
    5.322       0.5199E-5    -.3240E-4
    5.341       0.5119E-5    -.3223E-4
    5.361       0.5061E-5    -.3198E-4
    5.380       0.4974E-5    -.3173E-4
    5.400       0.4912E-5    -.3153E-4
    5.420       0.4864E-5    -.3129E-4
    5.439       0.4796E-5    -.3114E-4
    5.459       0.4722E-5    -.3093E-4
    5.478       0.4678E-5    -.3069E-4
    5.498       0.4580E-5    -.3044E-4
    5.517       0.4565E-5    -.3032E-4
    5.537       0.4491E-5    -.3008E-4
    5.556       0.4439E-5    -.2986E-4
    5.576       0.4372E-5    -.2969E-4
    5.595       0.4321E-5    -.2944E-4
    5.615       0.4266E-5    -.2924E-4
    5.635       0.4206E-5    -.2904E-4
    5.654       0.4160E-5    -.2885E-4
    5.674       0.4111E-5    -.2865E-4
    5.693       0.4066E-5    -.2850E-4
    5.713       0.4002E-5    -.2831E-4
    5.732       0.3958E-5    -.2814E-4
    5.752       0.3899E-5    -.2795E-4
    5.771       0.3870E-5    -.2776E-4
    5.791       0.3803E-5    -.2759E-4
    5.811       0.3771E-5    -.2741E-4
    5.830       0.3730E-5    -.2719E-4
    5.850       0.3684E-5    -.2702E-4
    5.869       0.3640E-5    -.2689E-4
    5.889       0.3601E-5    -.2666E-4
    5.908       0.3566E-5    -.2655E-4
    5.928       0.3522E-5    -.2638E-4
    5.947       0.3473E-5    -.2615E-4
    5.967       0.3437E-5    -.2598E-4
    5.986       0.3410E-5    -.2582E-4
    6.006       0.3357E-5    -.2567E-4
    6.026       0.3347E-5    -.2550E-4
    6.045       0.3316E-5    -.2534E-4
    6.065       0.3298E-5    -.2521E-4
    6.084       0.3264E-5    -.2503E-4
    6.104       0.3234E-5    -.2481E-4
    6.123       0.3210E-5    -.2477E-4
    6.143       0.3182E-5    -.2454E-4
    6.162       0.3148E-5    -.2443E-4
    6.182       0.3151E-5    -.2430E-4
    6.202       0.3123E-5    -.2407E-4
    6.221       0.3100E-5    -.2398E-4
    6.241       0.3073E-5    -.2384E-4
    6.260       0.3075E-5    -.2372E-4
    6.280       0.3035E-5    -.2358E-4
    6.299       0.3029E-5    -.2343E-4
    6.319       0.2999E-5    -.2329E-4
    6.338       0.2963E-5    -.2319E-4
    6.358       0.2935E-5    -.2303E-4
    6.377       0.2933E-5    -.2295E-4
    6.397       0.2901E-5    -.2277E-4
    6.417       0.2875E-5    -.2266E-4
    6.436       0.2861E-5    -.2257E-4
    6.456       0.2823E-5    -.2240E-4
    6.475       0.2816E-5    -.2229E-4
    6.495       0.2789E-5    -.2220E-4
    6.514       0.2758E-5    -.2206E-4
    6.534       0.2750E-5    -.2200E-4
    6.553       0.2724E-5    -.2184E-4
    6.573       0.2694E-5    -.2172E-4
    6.592       0.2644E-5    -.2160E-4
    6.612       0.2649E-5    -.2147E-4
    6.632       0.2626E-5    -.2142E-4
    6.651       0.2586E-5    -.2126E-4
    6.671       0.2565E-5    -.2116E-4
    6.690       0.2545E-5    -.2106E-4
    6.710       0.2516E-5    -.2094E-4
    6.729       0.2516E-5    -.2083E-4
    6.749       0.2475E-5    -.2069E-4
    6.768       0.2476E-5    -.2063E-4
    6.788       0.2422E-5    -.2049E-4
    6.808       0.2415E-5    -.2039E-4
    6.827       0.2391E-5    -.2027E-4
    6.847       0.2382E-5    -.2016E-4
    6.866       0.2376E-5    -.2009E-4
    6.886       0.2348E-5    -.1997E-4
    6.905       0.2326E-5    -.1988E-4
    6.925       0.2307E-5    -.1977E-4
    6.944       0.2289E-5    -.1968E-4
    6.964       0.2256E-5    -.1959E-4
    6.983       0.2249E-5    -.1947E-4
    7.003       0.2233E-5    -.1939E-4
    7.023       0.2224E-5    -.1933E-4
    7.042       0.2205E-5    -.1921E-4
    7.062       0.2182E-5    -.1912E-4
    7.081       0.2184E-5    -.1903E-4
    7.101       0.2165E-5    -.1893E-4
    7.120       0.2138E-5    -.1882E-4
    7.140       0.2124E-5    -.1873E-4
    7.159       0.2110E-5    -.1867E-4
    7.179       0.2104E-5    -.1860E-4
    7.198       0.2092E-5    -.1849E-4
    7.218       0.2058E-5    -.1841E-4
    7.238       0.2053E-5    -.1833E-4
    7.257       0.2043E-5    -.1821E-4
    7.277       0.2021E-5    -.1817E-4
    7.296       0.2006E-5    -.1809E-4
    7.316       0.1998E-5    -.1799E-4
    7.335       0.1975E-5    -.1793E-4
    7.355       0.1956E-5    -.1785E-4
    7.374       0.1937E-5    -.1776E-4
    7.394       0.1921E-5    -.1771E-4
    7.414       0.1927E-5    -.1759E-4
    7.433       0.1911E-5    -.1755E-4
    7.453       0.1890E-5    -.1746E-4
    7.472       0.1868E-5    -.1736E-4
    7.492       0.1852E-5    -.1729E-4
    7.511       0.1831E-5    -.1723E-4
    7.531       0.1816E-5    -.1711E-4
    7.550       0.1794E-5    -.1708E-4
    7.570       0.1771E-5    -.1700E-4
    7.589       0.1736E-5    -.1691E-4
    7.609       0.1749E-5    -.1688E-4
    7.629       0.1741E-5    -.1680E-4
    7.648       0.1720E-5    -.1672E-4
    7.668       0.1696E-5    -.1667E-4
    7.687       0.1676E-5    -.1660E-4
    7.707       0.1666E-5    -.1652E-4
    7.726       0.1637E-5    -.1647E-4
    7.746       0.1615E-5    -.1637E-4
    7.765       0.1602E-5    -.1630E-4
    7.785       0.1590E-5    -.1621E-4
    7.805       0.1560E-5    -.1618E-4
    7.824       0.1557E-5    -.1611E-4
    7.844       0.1529E-5    -.1601E-4
    7.863       0.1508E-5    -.1595E-4
    7.883       0.1482E-5    -.1596E-4
    7.902       0.1485E-5    -.1583E-4
    7.922       0.1469E-5    -.1576E-4
    7.941       0.1451E-5    -.1567E-4
    7.961       0.1431E-5    -.1562E-4
    7.980       0.1401E-5    -.1554E-4
    8.000       0.1411E-5    -.1555E-4
# 
# 07/31/2018 at 12:10 YAMBO_RT @ narro [start]
# 07/31/2018 at 12:10                  [end]
#
# .-Input file : yambo.in
# | optics                         # [R OPT] Optics
# | bse                            # [R BSE] Bethe Salpeter Equation.
# | BoseTemp= 0.000000     eV      # Bosonic Temperature
# | FFTGvecs= 1721         RL      # [FFT] Plane-waves
# | BSEmod= "retarded"             # [BSE] resonant/retarded/coupling
# | BSKmod= "IP"                   # [BSE] IP/Hartree/HF/ALDA/SEX/BSfxc
# | Gauge= "velocity"              # [BSE] Gauge (length|velocity)
# | MetDamp                        # [BSE] Define \w+=sqrt(\w*(\w+i\eta))
# | EvalKerr                       # [BSE] Compute the Kerr effect
# | #AnHall                        # [BSE] Add the anomalous Hall effect to eps if using length gauge
# | % BEnRange
# |  0.200000 | 8.000000 | eV      # [BSS] Energy range
# | %
# | % BDmRange
# |  0.300000 | 0.500000 | eV      # [BSS] Damping range
# | %
# | BEnSteps=  400                 # [BSS] Energy steps
# | % BLongDir
# |  1.000000 | 0.000000 | 0.000000 |        # [BSS] [cc] Electric Field
# | %
# | % BSEBands
# |   1 | 13 |                     # [BSK] Bands range
# | %
