#                                                                     
#   __   __     _        __  __       ____      U  ___  u             
#   \ \ / / U  /"\  U u |" \/ "| u U | __") u    \/"_ \/              
#    \ V /   \/ _ \/   \| |\/| |/   \|  _ \/     | | | |              
#   U_|"|_u  / ___ \    | |  | |     | |_) | .-,_| |_| |              
#     |_|   /_/   \_\   |_|  |_|     |____/   \_)-\___/               
# .-,//|(_   \\    >>  <<,-,,-.     _|| \\_        \\                 
#  \_) (__) (__)  (__)  (./  \.)   (__) (__)      (__)                
#                                                                     
#                                                                     
# Version 5.1.0 Revision 22208 Hash (prev commit) a391fb0cb           
#                Branch is phys/dichroism                             
#         MPI+OpenMP+SLK+SLEPC+HDF5_MPI_IO Build                      
#                http://www.yambo-code.org                            
#
# Dichroism @ Q(1):  0.999999975E-5   0.00000000      0.00000000    [q->0 direction]
#
# [GEN] GF Energies                               : B3LYP(XC)
# [GEN] Green`s Function                          : Retarded
#
# [GEN] Gauge                                     : Length
# [GEN] [r,Vnl] included                          : yes
#
# DIP band range                                  :   1  20
# DIP band range limits                           :  20   1
# DIP e/h energy range                            :  -1.00000000     -1.00000000    [eV]
# RL vectors in the sum                           :   3695
# [r,Vnl] included                                : yes
# Bands ordered                                   : no
# Direct v evaluation                             : no
# Approach used                                   : G-space v
# Dipoles computed                                : R V P
# Wavefunctions                                   : B3LYP(XC)
#
#
#    E[1] [eV]          Im(CD)             Re(CD)
#
        0.000000          -0.211038E-3       -0.314192E-3
        0.010000          -0.211043E-3       -0.314194E-3
        0.020000          -0.211049E-3       -0.314195E-3
        0.030000          -0.211054E-3       -0.314198E-3
        0.040000          -0.211059E-3       -0.314201E-3
        0.050000          -0.211064E-3       -0.314204E-3
        0.060000          -0.211069E-3       -0.314208E-3
        0.070000          -0.211074E-3       -0.314213E-3
        0.080000          -0.211079E-3       -0.314218E-3
        0.090000          -0.211083E-3       -0.314224E-3
        0.100000          -0.211088E-3       -0.314230E-3
        0.110000          -0.211092E-3       -0.314237E-3
        0.120000          -0.211097E-3       -0.314244E-3
        0.130000          -0.211101E-3       -0.314252E-3
        0.140000          -0.211105E-3       -0.314260E-3
        0.150000          -0.211109E-3       -0.314269E-3
        0.160000          -0.211113E-3       -0.314279E-3
        0.170000          -0.211117E-3       -0.314288E-3
        0.180000          -0.211121E-3       -0.314299E-3
        0.190000          -0.211125E-3       -0.314311E-3
        0.200000          -0.211128E-3       -0.314322E-3
        0.210000          -0.211132E-3       -0.314335E-3
        0.220000          -0.211135E-3       -0.314347E-3
        0.230000          -0.211138E-3       -0.314361E-3
        0.240000          -0.211142E-3       -0.314375E-3
        0.250000          -0.211145E-3       -0.314389E-3
        0.260000          -0.211148E-3       -0.314404E-3
        0.270000          -0.211151E-3       -0.314420E-3
        0.280000          -0.211154E-3       -0.314436E-3
        0.290000          -0.211156E-3       -0.314453E-3
        0.300000          -0.211159E-3       -0.314470E-3
        0.310000          -0.211161E-3       -0.314488E-3
        0.320000          -0.211164E-3       -0.314506E-3
        0.330000          -0.211166E-3       -0.314525E-3
        0.340000          -0.211168E-3       -0.314545E-3
        0.350000          -0.211170E-3       -0.314565E-3
        0.360000          -0.211172E-3       -0.314585E-3
        0.370000          -0.211174E-3       -0.314607E-3
        0.380000          -0.211176E-3       -0.314628E-3
        0.390000          -0.211178E-3       -0.314651E-3
        0.400000          -0.211179E-3       -0.314673E-3
        0.410000          -0.211181E-3       -0.314697E-3
        0.420000          -0.211182E-3       -0.314721E-3
        0.430000          -0.211184E-3       -0.314746E-3
        0.440000          -0.211185E-3       -0.314771E-3
        0.450000          -0.211186E-3       -0.314796E-3
        0.460000          -0.211187E-3       -0.314822E-3
        0.470000          -0.211188E-3       -0.314849E-3
        0.480000          -0.211189E-3       -0.314876E-3
        0.490000          -0.211190E-3       -0.314904E-3
        0.500000          -0.211190E-3       -0.314933E-3
        0.510000          -0.211191E-3       -0.314962E-3
        0.520000          -0.211191E-3       -0.314991E-3
        0.530000          -0.211191E-3       -0.315021E-3
        0.540000          -0.211191E-3       -0.315052E-3
        0.550000          -0.211192E-3       -0.315083E-3
        0.560000          -0.211192E-3       -0.315115E-3
        0.570000          -0.211192E-3       -0.315148E-3
        0.580000          -0.211191E-3       -0.315181E-3
        0.590000          -0.211191E-3       -0.315214E-3
        0.600000          -0.211191E-3       -0.315248E-3
        0.610000          -0.211190E-3       -0.315283E-3
        0.620000          -0.211189E-3       -0.315318E-3
        0.630000          -0.211189E-3       -0.315354E-3
        0.640000          -0.211188E-3       -0.315390E-3
        0.650000          -0.211187E-3       -0.315427E-3
        0.660000          -0.211186E-3       -0.315465E-3
        0.670000          -0.211185E-3       -0.315503E-3
        0.680000          -0.211183E-3       -0.315541E-3
        0.690000          -0.211182E-3       -0.315581E-3
        0.700000          -0.211181E-3       -0.315620E-3
        0.710000          -0.211179E-3       -0.315661E-3
        0.720000          -0.211177E-3       -0.315702E-3
        0.730000          -0.211176E-3       -0.315743E-3
        0.740000          -0.211174E-3       -0.315785E-3
        0.750000          -0.211172E-3       -0.315828E-3
        0.760000          -0.211170E-3       -0.315871E-3
        0.770000          -0.211167E-3       -0.315915E-3
        0.780000          -0.211165E-3       -0.315959E-3
        0.790000          -0.211163E-3       -0.316004E-3
        0.800000          -0.211160E-3       -0.316050E-3
        0.810000          -0.211157E-3       -0.316096E-3
        0.820000          -0.211155E-3       -0.316143E-3
        0.830000          -0.211152E-3       -0.316190E-3
        0.840000          -0.211149E-3       -0.316238E-3
        0.850000          -0.211146E-3       -0.316286E-3
        0.860000          -0.211142E-3       -0.316335E-3
        0.870000          -0.211139E-3       -0.316385E-3
        0.880000          -0.211136E-3       -0.316435E-3
        0.890000          -0.211132E-3       -0.316486E-3
        0.900000          -0.211128E-3       -0.316537E-3
        0.910000          -0.211125E-3       -0.316589E-3
        0.920000          -0.211121E-3       -0.316642E-3
        0.930000          -0.211117E-3       -0.316695E-3
        0.940000          -0.211113E-3       -0.316748E-3
        0.950000          -0.211108E-3       -0.316803E-3
        0.960000          -0.211104E-3       -0.316858E-3
        0.970000          -0.211100E-3       -0.316914E-3
        0.980000          -0.211095E-3       -0.316970E-3
        0.990000          -0.211090E-3       -0.317026E-3
        1.000000          -0.211085E-3       -0.317083E-3
        1.010000          -0.211081E-3       -0.317141E-3
        1.020000          -0.211076E-3       -0.317200E-3
        1.030000          -0.211070E-3       -0.317259E-3
        1.040000          -0.211065E-3       -0.317318E-3
        1.050000          -0.211059E-3       -0.317378E-3
        1.060000          -0.211054E-3       -0.317440E-3
        1.070000          -0.211048E-3       -0.317501E-3
        1.080000          -0.211043E-3       -0.317563E-3
        1.090000          -0.211036E-3       -0.317626E-3
        1.100000          -0.211030E-3       -0.317689E-3
        1.110000          -0.211024E-3       -0.317753E-3
        1.120000          -0.211018E-3       -0.317817E-3
        1.130000          -0.211012E-3       -0.317882E-3
        1.140000          -0.211005E-3       -0.317948E-3
        1.150000          -0.210998E-3       -0.318015E-3
        1.160000          -0.210992E-3       -0.318081E-3
        1.170000          -0.210985E-3       -0.318149E-3
        1.180000          -0.210978E-3       -0.318217E-3
        1.190000          -0.210970E-3       -0.318286E-3
        1.200000          -0.210963E-3       -0.318355E-3
        1.210000          -0.210956E-3       -0.318425E-3
        1.220000          -0.210948E-3       -0.318495E-3
        1.230000          -0.210940E-3       -0.318567E-3
        1.240000          -0.210932E-3       -0.318638E-3
        1.250000          -0.210924E-3       -0.318711E-3
        1.260000          -0.210916E-3       -0.318784E-3
        1.270000          -0.210908E-3       -0.318857E-3
        1.280000          -0.210900E-3       -0.318932E-3
        1.290000          -0.210891E-3       -0.319007E-3
        1.300000          -0.210883E-3       -0.319082E-3
        1.310000          -0.210874E-3       -0.319158E-3
        1.320000          -0.210865E-3       -0.319235E-3
        1.330000          -0.210856E-3       -0.319313E-3
        1.340000          -0.210847E-3       -0.319391E-3
        1.350000          -0.210837E-3       -0.319469E-3
        1.360000          -0.210828E-3       -0.319548E-3
        1.370000          -0.210818E-3       -0.319628E-3
        1.380000          -0.210808E-3       -0.319709E-3
        1.390000          -0.210798E-3       -0.319790E-3
        1.400000          -0.210788E-3       -0.319872E-3
        1.410000          -0.210778E-3       -0.319954E-3
        1.420000          -0.210768E-3       -0.320038E-3
        1.430000          -0.210757E-3       -0.320121E-3
        1.440000          -0.210747E-3       -0.320206E-3
        1.450000          -0.210736E-3       -0.320290E-3
        1.460000          -0.210725E-3       -0.320376E-3
        1.470000          -0.210714E-3       -0.320463E-3
        1.480000          -0.210703E-3       -0.320549E-3
        1.490000          -0.210691E-3       -0.320637E-3
        1.500000          -0.210680E-3       -0.320725E-3
        1.510000          -0.210668E-3       -0.320814E-3
        1.520000          -0.210656E-3       -0.320904E-3
        1.530000          -0.210644E-3       -0.320994E-3
        1.540000          -0.210632E-3       -0.321085E-3
        1.550000          -0.210620E-3       -0.321176E-3
        1.560000          -0.210607E-3       -0.321268E-3
        1.570000          -0.210594E-3       -0.321361E-3
        1.580000          -0.210581E-3       -0.321455E-3
        1.590000          -0.210569E-3       -0.321549E-3
        1.600000          -0.210556E-3       -0.321644E-3
        1.610000          -0.210542E-3       -0.321739E-3
        1.620000          -0.210529E-3       -0.321836E-3
        1.630000          -0.210515E-3       -0.321932E-3
        1.640000          -0.210501E-3       -0.322030E-3
        1.650000          -0.210488E-3       -0.322128E-3
        1.660000          -0.210473E-3       -0.322226E-3
        1.670000          -0.210459E-3       -0.322326E-3
        1.680000          -0.210445E-3       -0.322426E-3
        1.690000          -0.210430E-3       -0.322527E-3
        1.700000          -0.210415E-3       -0.322629E-3
        1.710000          -0.210400E-3       -0.322731E-3
        1.720000          -0.210385E-3       -0.322833E-3
        1.730000          -0.210370E-3       -0.322937E-3
        1.740000          -0.210354E-3       -0.323041E-3
        1.750000          -0.210339E-3       -0.323146E-3
        1.760000          -0.210323E-3       -0.323252E-3
        1.770000          -0.210307E-3       -0.323358E-3
        1.780000          -0.210291E-3       -0.323465E-3
        1.790000          -0.210274E-3       -0.323573E-3
        1.800000          -0.210258E-3       -0.323682E-3
        1.810000          -0.210241E-3       -0.323791E-3
        1.820000          -0.210224E-3       -0.323900E-3
        1.830000          -0.210207E-3       -0.324011E-3
        1.840000          -0.210190E-3       -0.324122E-3
        1.850000          -0.210172E-3       -0.324234E-3
        1.860000          -0.210155E-3       -0.324346E-3
        1.870000          -0.210136E-3       -0.324460E-3
        1.880000          -0.210118E-3       -0.324574E-3
        1.890000          -0.210100E-3       -0.324688E-3
        1.900000          -0.210082E-3       -0.324804E-3
        1.910000          -0.210063E-3       -0.324920E-3
        1.920000          -0.210044E-3       -0.325037E-3
        1.930000          -0.210025E-3       -0.325154E-3
        1.940000          -0.210006E-3       -0.325273E-3
        1.950000          -0.209987E-3       -0.325392E-3
        1.960000          -0.209967E-3       -0.325512E-3
        1.970000          -0.209947E-3       -0.325632E-3
        1.980000          -0.209927E-3       -0.325753E-3
        1.990000          -0.209907E-3       -0.325875E-3
        2.000000          -0.209886E-3       -0.325998E-3
        2.010000          -0.209866E-3       -0.326121E-3
        2.020000          -0.209845E-3       -0.326245E-3
        2.030000          -0.209824E-3       -0.326370E-3
        2.040000          -0.209802E-3       -0.326496E-3
        2.050000          -0.209781E-3       -0.326622E-3
        2.060000          -0.209759E-3       -0.326749E-3
        2.070000          -0.209737E-3       -0.326877E-3
        2.080000          -0.209715E-3       -0.327006E-3
        2.090000          -0.209693E-3       -0.327135E-3
        2.100000          -0.209670E-3       -0.327265E-3
        2.110000          -0.209647E-3       -0.327396E-3
        2.120000          -0.209624E-3       -0.327528E-3
        2.130000          -0.209601E-3       -0.327660E-3
        2.140000          -0.209577E-3       -0.327793E-3
        2.150000          -0.209553E-3       -0.327927E-3
        2.160000          -0.209529E-3       -0.328062E-3
        2.170000          -0.209505E-3       -0.328197E-3
        2.180000          -0.209481E-3       -0.328333E-3
        2.190000          -0.209456E-3       -0.328470E-3
        2.200000          -0.209431E-3       -0.328608E-3
        2.210000          -0.209406E-3       -0.328747E-3
        2.220000          -0.209381E-3       -0.328886E-3
        2.230000          -0.209355E-3       -0.329026E-3
        2.240000          -0.209329E-3       -0.329167E-3
        2.250000          -0.209303E-3       -0.329309E-3
        2.260000          -0.209276E-3       -0.329451E-3
        2.270000          -0.209250E-3       -0.329594E-3
        2.280000          -0.209223E-3       -0.329738E-3
        2.290000          -0.209196E-3       -0.329883E-3
        2.300000          -0.209168E-3       -0.330029E-3
        2.310000          -0.209141E-3       -0.330175E-3
        2.320000          -0.209113E-3       -0.330323E-3
        2.330000          -0.209085E-3       -0.330471E-3
        2.340000          -0.209056E-3       -0.330619E-3
        2.350000          -0.209028E-3       -0.330769E-3
        2.360000          -0.208999E-3       -0.330920E-3
        2.370000          -0.208970E-3       -0.331071E-3
        2.380000          -0.208940E-3       -0.331223E-3
        2.390000          -0.208910E-3       -0.331376E-3
        2.400000          -0.208880E-3       -0.331530E-3
        2.410000          -0.208850E-3       -0.331684E-3
        2.420000          -0.208819E-3       -0.331840E-3
        2.430000          -0.208789E-3       -0.331996E-3
        2.440000          -0.208757E-3       -0.332153E-3
        2.450000          -0.208726E-3       -0.332311E-3
        2.460000          -0.208694E-3       -0.332470E-3
        2.470000          -0.208662E-3       -0.332630E-3
        2.480000          -0.208630E-3       -0.332790E-3
        2.490000          -0.208597E-3       -0.332952E-3
        2.500000          -0.208565E-3       -0.333114E-3
        2.510000          -0.208531E-3       -0.333277E-3
        2.520000          -0.208498E-3       -0.333441E-3
        2.530000          -0.208464E-3       -0.333606E-3
        2.540000          -0.208430E-3       -0.333771E-3
        2.550000          -0.208396E-3       -0.333938E-3
        2.560000          -0.208361E-3       -0.334105E-3
        2.570000          -0.208326E-3       -0.334274E-3
        2.580000          -0.208291E-3       -0.334443E-3
        2.590000          -0.208255E-3       -0.334613E-3
        2.600000          -0.208220E-3       -0.334784E-3
        2.610000          -0.208183E-3       -0.334956E-3
        2.620000          -0.208147E-3       -0.335128E-3
        2.630000          -0.208110E-3       -0.335302E-3
        2.640000          -0.208073E-3       -0.335477E-3
        2.650000          -0.208035E-3       -0.335652E-3
        2.660000          -0.207997E-3       -0.335828E-3
        2.670000          -0.207959E-3       -0.336005E-3
        2.680000          -0.207921E-3       -0.336183E-3
        2.690000          -0.207882E-3       -0.336363E-3
        2.700000          -0.207843E-3       -0.336543E-3
        2.710000          -0.207803E-3       -0.336723E-3
        2.720000          -0.207763E-3       -0.336905E-3
        2.730000          -0.207723E-3       -0.337088E-3
        2.740000          -0.207683E-3       -0.337271E-3
        2.750000          -0.207642E-3       -0.337456E-3
        2.760000          -0.207601E-3       -0.337642E-3
        2.770000          -0.207559E-3       -0.337828E-3
        2.780000          -0.207517E-3       -0.338016E-3
        2.790000          -0.207475E-3       -0.338204E-3
        2.800000          -0.207432E-3       -0.338393E-3
        2.810000          -0.207389E-3       -0.338584E-3
        2.820000          -0.207346E-3       -0.338775E-3
        2.830000          -0.207302E-3       -0.338967E-3
        2.840000          -0.207258E-3       -0.339160E-3
        2.850000          -0.207213E-3       -0.339354E-3
        2.860000          -0.207168E-3       -0.339549E-3
        2.870000          -0.207123E-3       -0.339746E-3
        2.880000          -0.207078E-3       -0.339942E-3
        2.890000          -0.207031E-3       -0.340140E-3
        2.900000          -0.206985E-3       -0.340340E-3
        2.910000          -0.206938E-3       -0.340540E-3
        2.920000          -0.206891E-3       -0.340741E-3
        2.930000          -0.206843E-3       -0.340943E-3
        2.940000          -0.206795E-3       -0.341146E-3
        2.950000          -0.206747E-3       -0.341350E-3
        2.960000          -0.206698E-3       -0.341555E-3
        2.970000          -0.206649E-3       -0.341761E-3
        2.980000          -0.206599E-3       -0.341968E-3
        2.990000          -0.206549E-3       -0.342177E-3
        3.000000          -0.206499E-3       -0.342386E-3
        3.010000          -0.206448E-3       -0.342596E-3
        3.020000          -0.206396E-3       -0.342807E-3
        3.030000          -0.206345E-3       -0.343020E-3
        3.040000          -0.206292E-3       -0.343233E-3
        3.050000          -0.206240E-3       -0.343447E-3
        3.060000          -0.206187E-3       -0.343663E-3
        3.070000          -0.206133E-3       -0.343880E-3
        3.080000          -0.206079E-3       -0.344097E-3
        3.090000          -0.206025E-3       -0.344316E-3
        3.100000          -0.205970E-3       -0.344536E-3
        3.110000          -0.205915E-3       -0.344757E-3
        3.120000          -0.205859E-3       -0.344979E-3
        3.130000          -0.205802E-3       -0.345202E-3
        3.140000          -0.205746E-3       -0.345426E-3
        3.150000          -0.205689E-3       -0.345651E-3
        3.160000          -0.205631E-3       -0.345877E-3
        3.170000          -0.205573E-3       -0.346105E-3
        3.180000          -0.205514E-3       -0.346334E-3
        3.190000          -0.205455E-3       -0.346563E-3
        3.200000          -0.205395E-3       -0.346794E-3
        3.210000          -0.205335E-3       -0.347025E-3
        3.220000          -0.205275E-3       -0.347259E-3
        3.230000          -0.205214E-3       -0.347493E-3
        3.240000          -0.205152E-3       -0.347728E-3
        3.250000          -0.205090E-3       -0.347964E-3
        3.260000          -0.205027E-3       -0.348202E-3
        3.270000          -0.204964E-3       -0.348441E-3
        3.280000          -0.204901E-3       -0.348681E-3
        3.290000          -0.204837E-3       -0.348922E-3
        3.300000          -0.204772E-3       -0.349165E-3
        3.310000          -0.204707E-3       -0.349408E-3
        3.320000          -0.204641E-3       -0.349653E-3
        3.330000          -0.204575E-3       -0.349899E-3
        3.340000          -0.204508E-3       -0.350146E-3
        3.350000          -0.204441E-3       -0.350394E-3
        3.360000          -0.204373E-3       -0.350643E-3
        3.370000          -0.204304E-3       -0.350894E-3
        3.380000          -0.204235E-3       -0.351146E-3
        3.390000          -0.204166E-3       -0.351399E-3
        3.400000          -0.204095E-3       -0.351653E-3
        3.410000          -0.204025E-3       -0.351909E-3
        3.420000          -0.203953E-3       -0.352166E-3
        3.430000          -0.203882E-3       -0.352424E-3
        3.440000          -0.203809E-3       -0.352684E-3
        3.450000          -0.203736E-3       -0.352944E-3
        3.460000          -0.203662E-3       -0.353206E-3
        3.470000          -0.203588E-3       -0.353469E-3
        3.480000          -0.203513E-3       -0.353734E-3
        3.490000          -0.203438E-3       -0.353999E-3
        3.500000          -0.203362E-3       -0.354266E-3
        3.510000          -0.203285E-3       -0.354535E-3
        3.520000          -0.203208E-3       -0.354804E-3
        3.530000          -0.203130E-3       -0.355075E-3
        3.540000          -0.203051E-3       -0.355347E-3
        3.550000          -0.202972E-3       -0.355621E-3
        3.560000          -0.202892E-3       -0.355896E-3
        3.570000          -0.202812E-3       -0.356172E-3
        3.580000          -0.202730E-3       -0.356450E-3
        3.590000          -0.202648E-3       -0.356728E-3
        3.600000          -0.202566E-3       -0.357009E-3
        3.610000          -0.202483E-3       -0.357291E-3
        3.620000          -0.202399E-3       -0.357574E-3
        3.630000          -0.202315E-3       -0.357858E-3
        3.640000          -0.202229E-3       -0.358144E-3
        3.650000          -0.202144E-3       -0.358431E-3
        3.660000          -0.202057E-3       -0.358719E-3
        3.670000          -0.201970E-3       -0.359010E-3
        3.680000          -0.201882E-3       -0.359301E-3
        3.690000          -0.201793E-3       -0.359594E-3
        3.700000          -0.201704E-3       -0.359888E-3
        3.710000          -0.201614E-3       -0.360183E-3
        3.720000          -0.201523E-3       -0.360481E-3
        3.730000          -0.201431E-3       -0.360779E-3
        3.740000          -0.201339E-3       -0.361079E-3
        3.750000          -0.201246E-3       -0.361381E-3
        3.760000          -0.201152E-3       -0.361684E-3
        3.770000          -0.201057E-3       -0.361988E-3
        3.780000          -0.200962E-3       -0.362294E-3
        3.790000          -0.200866E-3       -0.362601E-3
        3.800000          -0.200769E-3       -0.362910E-3
        3.810000          -0.200671E-3       -0.363221E-3
        3.820000          -0.200573E-3       -0.363533E-3
        3.830000          -0.200473E-3       -0.363846E-3
        3.840000          -0.200373E-3       -0.364161E-3
        3.850000          -0.200273E-3       -0.364478E-3
        3.860000          -0.200171E-3       -0.364796E-3
        3.870000          -0.200068E-3       -0.365116E-3
        3.880000          -0.199965E-3       -0.365437E-3
        3.890000          -0.199861E-3       -0.365760E-3
        3.900000          -0.199756E-3       -0.366084E-3
        3.910000          -0.199650E-3       -0.366410E-3
        3.920000          -0.199543E-3       -0.366738E-3
        3.930000          -0.199436E-3       -0.367067E-3
        3.940000          -0.199327E-3       -0.367398E-3
        3.950000          -0.199218E-3       -0.367730E-3
        3.960000          -0.199108E-3       -0.368065E-3
        3.970000          -0.198997E-3       -0.368400E-3
        3.980000          -0.198885E-3       -0.368738E-3
        3.990000          -0.198772E-3       -0.369077E-3
        4.000000          -0.198658E-3       -0.369418E-3
        4.010000          -0.198543E-3       -0.369760E-3
        4.020000          -0.198428E-3       -0.370105E-3
        4.030000          -0.198311E-3       -0.370450E-3
        4.040000          -0.198194E-3       -0.370798E-3
        4.050000          -0.198075E-3       -0.371147E-3
        4.060000          -0.197956E-3       -0.371498E-3
        4.070000          -0.197835E-3       -0.371851E-3
        4.080000          -0.197714E-3       -0.372206E-3
        4.090000          -0.197592E-3       -0.372562E-3
        4.100000          -0.197468E-3       -0.372920E-3
        4.110000          -0.197344E-3       -0.373280E-3
        4.120000          -0.197219E-3       -0.373642E-3
        4.130000          -0.197092E-3       -0.374005E-3
        4.140000          -0.196965E-3       -0.374370E-3
        4.150000          -0.196836E-3       -0.374738E-3
        4.160000          -0.196707E-3       -0.375107E-3
        4.170000          -0.196577E-3       -0.375478E-3
        4.180000          -0.196445E-3       -0.375850E-3
        4.190000          -0.196312E-3       -0.376225E-3
        4.200000          -0.196179E-3       -0.376601E-3
        4.210000          -0.196044E-3       -0.376980E-3
        4.220000          -0.195908E-3       -0.377360E-3
        4.230000          -0.195771E-3       -0.377742E-3
        4.240000          -0.195633E-3       -0.378127E-3
        4.250000          -0.195494E-3       -0.378512E-3
        4.260000          -0.195353E-3       -0.378901E-3
        4.270000          -0.195212E-3       -0.379291E-3
        4.280000          -0.195070E-3       -0.379682E-3
        4.290000          -0.194926E-3       -0.380077E-3
        4.300000          -0.194781E-3       -0.380473E-3
        4.310000          -0.194635E-3       -0.380871E-3
        4.320000          -0.194487E-3       -0.381271E-3
        4.330000          -0.194339E-3       -0.381673E-3
        4.340000          -0.194189E-3       -0.382077E-3
        4.350000          -0.194038E-3       -0.382483E-3
        4.360000          -0.193886E-3       -0.382891E-3
        4.370000          -0.193733E-3       -0.383302E-3
        4.380000          -0.193578E-3       -0.383714E-3
        4.390000          -0.193422E-3       -0.384129E-3
        4.400000          -0.193265E-3       -0.384545E-3
        4.410000          -0.193106E-3       -0.384964E-3
        4.420000          -0.192947E-3       -0.385385E-3
        4.430000          -0.192786E-3       -0.385809E-3
        4.440000          -0.192623E-3       -0.386234E-3
        4.450000          -0.192460E-3       -0.386662E-3
        4.460000          -0.192295E-3       -0.387092E-3
        4.470000          -0.192128E-3       -0.387524E-3
        4.480000          -0.191960E-3       -0.387958E-3
        4.490000          -0.191791E-3       -0.388394E-3
        4.500000          -0.191621E-3       -0.388833E-3
        4.510000          -0.191449E-3       -0.389274E-3
        4.520000          -0.191276E-3       -0.389718E-3
        4.530000          -0.191101E-3       -0.390164E-3
        4.540000          -0.190925E-3       -0.390611E-3
        4.550000          -0.190747E-3       -0.391062E-3
        4.560000          -0.190568E-3       -0.391515E-3
        4.570000          -0.190387E-3       -0.391970E-3
        4.580000          -0.190205E-3       -0.392428E-3
        4.590000          -0.190022E-3       -0.392888E-3
        4.600000          -0.189837E-3       -0.393350E-3
        4.610000          -0.189650E-3       -0.393815E-3
        4.620000          -0.189462E-3       -0.394282E-3
        4.630000          -0.189272E-3       -0.394752E-3
        4.640000          -0.189081E-3       -0.395225E-3
        4.650000          -0.188888E-3       -0.395700E-3
        4.660000          -0.188694E-3       -0.396177E-3
        4.670000          -0.188498E-3       -0.396657E-3
        4.680000          -0.188300E-3       -0.397140E-3
        4.690000          -0.188101E-3       -0.397625E-3
        4.700000          -0.187900E-3       -0.398113E-3
        4.710000          -0.187698E-3       -0.398603E-3
        4.720000          -0.187493E-3       -0.399096E-3
        4.730000          -0.187287E-3       -0.399592E-3
        4.740000          -0.187080E-3       -0.400090E-3
        4.750000          -0.186870E-3       -0.400591E-3
        4.760000          -0.186659E-3       -0.401095E-3
        4.770000          -0.186446E-3       -0.401601E-3
        4.780000          -0.186232E-3       -0.402110E-3
        4.790000          -0.186015E-3       -0.402623E-3
        4.800000          -0.185797E-3       -0.403137E-3
        4.810000          -0.185577E-3       -0.403655E-3
        4.820000          -0.185355E-3       -0.404175E-3
        4.830000          -0.185131E-3       -0.404699E-3
        4.840000          -0.184906E-3       -0.405225E-3
        4.850000          -0.184678E-3       -0.405754E-3
        4.860000          -0.184449E-3       -0.406287E-3
        4.870000          -0.184217E-3       -0.406821E-3
        4.880000          -0.183984E-3       -0.407359E-3
        4.890000          -0.183749E-3       -0.407900E-3
        4.900000          -0.183512E-3       -0.408444E-3
        4.910000          -0.183272E-3       -0.408991E-3
        4.920000          -0.183031E-3       -0.409541E-3
        4.930000          -0.182788E-3       -0.410095E-3
        4.940000          -0.182543E-3       -0.410651E-3
        4.950000          -0.182295E-3       -0.411210E-3
        4.960000          -0.182046E-3       -0.411772E-3
        4.970000          -0.181795E-3       -0.412338E-3
        4.980000          -0.181541E-3       -0.412907E-3
        4.990000          -0.181285E-3       -0.413479E-3
        5.000000          -0.181027E-3       -0.414055E-3
        5.010000          -0.180766E-3       -0.414633E-3
        5.020000          -0.180504E-3       -0.415216E-3
        5.030000          -0.180239E-3       -0.415800E-3
        5.040000          -0.179972E-3       -0.416389E-3
        5.050000          -0.179703E-3       -0.416981E-3
        5.060000          -0.179432E-3       -0.417577E-3
        5.070000          -0.179158E-3       -0.418175E-3
        5.080000          -0.178882E-3       -0.418778E-3
        5.090000          -0.178604E-3       -0.419383E-3
        5.100000          -0.178323E-3       -0.419992E-3
        5.110000          -0.178040E-3       -0.420605E-3
        5.120000          -0.177754E-3       -0.421221E-3
        5.130000          -0.177466E-3       -0.421841E-3
        5.140000          -0.177175E-3       -0.422465E-3
        5.150000          -0.176882E-3       -0.423092E-3
        5.160000          -0.176587E-3       -0.423723E-3
        5.170000          -0.176288E-3       -0.424358E-3
        5.180000          -0.175988E-3       -0.424996E-3
        5.190000          -0.175684E-3       -0.425638E-3
        5.200000          -0.175378E-3       -0.426284E-3
        5.210000          -0.175070E-3       -0.426934E-3
        5.220000          -0.174758E-3       -0.427588E-3
        5.230000          -0.174445E-3       -0.428245E-3
        5.240000          -0.174128E-3       -0.428907E-3
        5.250000          -0.173808E-3       -0.429572E-3
        5.260000          -0.173486E-3       -0.430241E-3
        5.270000          -0.173161E-3       -0.430915E-3
        5.280000          -0.172833E-3       -0.431592E-3
        5.290000          -0.172503E-3       -0.432273E-3
        5.300000          -0.172169E-3       -0.432959E-3
        5.310000          -0.171833E-3       -0.433649E-3
        5.320000          -0.171493E-3       -0.434343E-3
        5.330000          -0.171151E-3       -0.435041E-3
        5.340000          -0.170805E-3       -0.435744E-3
        5.350000          -0.170457E-3       -0.436451E-3
        5.360000          -0.170105E-3       -0.437162E-3
        5.370000          -0.169751E-3       -0.437878E-3
        5.380000          -0.169393E-3       -0.438598E-3
        5.390000          -0.169032E-3       -0.439323E-3
        5.400000          -0.168668E-3       -0.440051E-3
        5.410000          -0.168301E-3       -0.440785E-3
        5.420000          -0.167930E-3       -0.441523E-3
        5.430000          -0.167557E-3       -0.442266E-3
        5.440000          -0.167179E-3       -0.443013E-3
        5.450000          -0.166799E-3       -0.443765E-3
        5.460000          -0.166415E-3       -0.444523E-3
        5.470000          -0.166028E-3       -0.445284E-3
        5.480000          -0.165637E-3       -0.446050E-3
        5.490000          -0.165243E-3       -0.446822E-3
        5.500000          -0.164845E-3       -0.447598E-3
        5.510000          -0.164444E-3       -0.448379E-3
        5.520000          -0.164039E-3       -0.449166E-3
        5.530000          -0.163630E-3       -0.449957E-3
        5.540000          -0.163218E-3       -0.450754E-3
        5.550000          -0.162802E-3       -0.451555E-3
        5.560000          -0.162382E-3       -0.452362E-3
        5.570000          -0.161959E-3       -0.453174E-3
        5.580000          -0.161531E-3       -0.453991E-3
        5.590000          -0.161100E-3       -0.454813E-3
        5.600000          -0.160665E-3       -0.455641E-3
        5.610000          -0.160226E-3       -0.456475E-3
        5.620000          -0.159783E-3       -0.457314E-3
        5.630000          -0.159336E-3       -0.458158E-3
        5.640000          -0.158885E-3       -0.459009E-3
        5.650000          -0.158429E-3       -0.459864E-3
        5.660000          -0.157970E-3       -0.460726E-3
        5.670000          -0.157506E-3       -0.461593E-3
        5.680000          -0.157038E-3       -0.462466E-3
        5.690000          -0.156566E-3       -0.463345E-3
        5.700000          -0.156089E-3       -0.464230E-3
        5.710000          -0.155608E-3       -0.465120E-3
        5.720000          -0.155123E-3       -0.466017E-3
        5.730000          -0.154633E-3       -0.466920E-3
        5.740000          -0.154138E-3       -0.467830E-3
        5.750000          -0.153639E-3       -0.468745E-3
        5.760000          -0.153136E-3       -0.469667E-3
        5.770000          -0.152627E-3       -0.470595E-3
        5.780000          -0.152114E-3       -0.471529E-3
        5.790000          -0.151596E-3       -0.472470E-3
        5.800000          -0.151074E-3       -0.473417E-3
        5.810000          -0.150546E-3       -0.474371E-3
        5.820000          -0.150013E-3       -0.475332E-3
        5.830000          -0.149476E-3       -0.476300E-3
        5.840000          -0.148933E-3       -0.477274E-3
        5.850000          -0.148385E-3       -0.478255E-3
        5.860000          -0.147832E-3       -0.479243E-3
        5.870000          -0.147274E-3       -0.480238E-3
        5.880000          -0.146711E-3       -0.481241E-3
        5.890000          -0.146142E-3       -0.482250E-3
        5.900000          -0.145567E-3       -0.483267E-3
        5.910000          -0.144988E-3       -0.484291E-3
        5.920000          -0.144402E-3       -0.485322E-3
        5.930000          -0.143812E-3       -0.486361E-3
        5.940000          -0.143215E-3       -0.487407E-3
        5.950000          -0.142613E-3       -0.488462E-3
        5.960000          -0.142005E-3       -0.489523E-3
        5.970000          -0.141391E-3       -0.490593E-3
        5.980000          -0.140771E-3       -0.491670E-3
        5.990000          -0.140145E-3       -0.492756E-3
        6.000000          -0.139513E-3       -0.493850E-3
        6.010000          -0.138875E-3       -0.494951E-3
        6.020000          -0.138231E-3       -0.496061E-3
        6.030000          -0.137580E-3       -0.497179E-3
        6.040000          -0.136924E-3       -0.498306E-3
        6.050000          -0.136260E-3       -0.499441E-3
        6.060000          -0.135590E-3       -0.500585E-3
        6.070000          -0.134914E-3       -0.501737E-3
        6.080000          -0.134231E-3       -0.502899E-3
        6.090000          -0.133541E-3       -0.504069E-3
        6.100000          -0.132845E-3       -0.505248E-3
        6.110000          -0.132141E-3       -0.506437E-3
        6.120000          -0.131431E-3       -0.507634E-3
        6.130000          -0.130713E-3       -0.508841E-3
        6.140000          -0.129988E-3       -0.510057E-3
        6.150000          -0.129256E-3       -0.511283E-3
        6.160000          -0.128517E-3       -0.512518E-3
        6.170000          -0.127770E-3       -0.513764E-3
        6.180000          -0.127016E-3       -0.515019E-3
        6.190000          -0.126254E-3       -0.516283E-3
        6.200000          -0.125485E-3       -0.517559E-3
        6.210000          -0.124708E-3       -0.518844E-3
        6.220000          -0.123923E-3       -0.520140E-3
        6.230000          -0.123130E-3       -0.521446E-3
        6.240000          -0.122329E-3       -0.522763E-3
        6.250000          -0.121519E-3       -0.524090E-3
        6.260000          -0.120702E-3       -0.525428E-3
        6.270000          -0.119876E-3       -0.526778E-3
        6.280000          -0.119041E-3       -0.528138E-3
        6.290000          -0.118198E-3       -0.529510E-3
        6.300000          -0.117347E-3       -0.530892E-3
        6.310000          -0.116486E-3       -0.532287E-3
        6.320000          -0.115616E-3       -0.533693E-3
        6.330000          -0.114738E-3       -0.535111E-3
        6.340000          -0.113850E-3       -0.536541E-3
        6.350000          -0.112953E-3       -0.537984E-3
        6.360000          -0.112047E-3       -0.539438E-3
        6.370000          -0.111131E-3       -0.540905E-3
        6.380000          -0.110205E-3       -0.542384E-3
        6.390000          -0.109270E-3       -0.543876E-3
        6.400000          -0.108325E-3       -0.545381E-3
        6.410000          -0.107370E-3       -0.546899E-3
        6.420000          -0.106405E-3       -0.548431E-3
        6.430000          -0.105429E-3       -0.549975E-3
        6.440000          -0.104444E-3       -0.551533E-3
        6.450000          -0.103447E-3       -0.553106E-3
        6.460000          -0.102440E-3       -0.554692E-3
        6.470000          -0.101422E-3       -0.556292E-3
        6.480000          -0.100393E-3       -0.557906E-3
        6.490000          -0.993527E-4       -0.559535E-3
        6.500000          -0.983011E-4       -0.561179E-3
        6.510000          -0.972384E-4       -0.562837E-3
        6.520000          -0.961639E-4       -0.564511E-3
        6.530000          -0.950777E-4       -0.566200E-3
        6.540000          -0.939796E-4       -0.567905E-3
        6.550000          -0.928697E-4       -0.569625E-3
        6.560000          -0.917469E-4       -0.571361E-3
        6.570000          -0.906122E-4       -0.573113E-3
        6.580000          -0.894652E-4       -0.574883E-3
        6.590000          -0.883050E-4       -0.576667E-3
        6.600000          -0.871318E-4       -0.578470E-3
        6.610000          -0.859461E-4       -0.580289E-3
        6.620000          -0.847464E-4       -0.582126E-3
        6.630000          -0.835335E-4       -0.583980E-3
        6.640000          -0.823069E-4       -0.585852E-3
        6.650000          -0.810665E-4       -0.587743E-3
        6.660000          -0.798125E-4       -0.589651E-3
        6.670000          -0.785437E-4       -0.591578E-3
        6.680000          -0.772604E-4       -0.593525E-3
        6.690000          -0.759624E-4       -0.595490E-3
        6.700000          -0.746496E-4       -0.597474E-3
        6.710000          -0.733217E-4       -0.599479E-3
        6.720000          -0.719785E-4       -0.601504E-3
        6.730000          -0.706198E-4       -0.603549E-3
        6.740000          -0.692453E-4       -0.605614E-3
        6.750000          -0.678551E-4       -0.607700E-3
        6.760000          -0.664482E-4       -0.609809E-3
        6.770000          -0.650252E-4       -0.611939E-3
        6.780000          -0.635850E-4       -0.614090E-3
        6.790000          -0.621279E-4       -0.616263E-3
        6.800000          -0.606539E-4       -0.618460E-3
        6.810000          -0.591618E-4       -0.620679E-3
        6.820000          -0.576525E-4       -0.622922E-3
        6.830000          -0.561252E-4       -0.625189E-3
        6.840000          -0.545794E-4       -0.627479E-3
        6.850000          -0.530149E-4       -0.629794E-3
        6.860000          -0.514315E-4       -0.632134E-3
        6.870000          -0.498289E-4       -0.634499E-3
        6.880000          -0.482071E-4       -0.636890E-3
        6.890000          -0.465653E-4       -0.639307E-3
        6.900000          -0.449038E-4       -0.641750E-3
        6.910000          -0.432215E-4       -0.644221E-3
        6.920000          -0.415180E-4       -0.646719E-3
        6.930000          -0.397943E-4       -0.649245E-3
        6.940000          -0.380490E-4       -0.651798E-3
        6.950000          -0.362820E-4       -0.654382E-3
        6.960000          -0.344929E-4       -0.656994E-3
        6.970000          -0.326814E-4       -0.659636E-3
        6.980000          -0.308464E-4       -0.662309E-3
        6.990000          -0.289888E-4       -0.665012E-3
        7.000000          -0.271072E-4       -0.667747E-3
        7.010000          -0.252023E-4       -0.670514E-3
        7.020000          -0.232730E-4       -0.673313E-3
        7.030000          -0.213186E-4       -0.676145E-3
        7.039999          -0.193392E-4       -0.679011E-3
        7.050000          -0.173342E-4       -0.681912E-3
        7.059999          -0.153033E-4       -0.684847E-3
        7.070000          -0.132458E-4       -0.687818E-3
        7.079999          -0.111615E-4       -0.690825E-3
        7.090000          -0.904976E-5       -0.693869E-3
        7.099999          -0.691037E-5       -0.696950E-3
        7.110000          -0.474225E-5       -0.700069E-3
        7.119999          -0.254596E-5       -0.703228E-3
        7.130000          -0.319909E-6       -0.706426E-3
        7.140000           0.193601E-5       -0.709665E-3
        7.150000           0.422228E-5       -0.712944E-3
        7.160000           0.653906E-5       -0.716267E-3
        7.170000           0.888759E-5       -0.719631E-3
        7.180000           0.112678E-4       -0.723039E-3
        7.190000           0.136808E-4       -0.726491E-3
        7.200000           0.161269E-4       -0.729990E-3
        7.210000           0.186070E-4       -0.733534E-3
        7.220000           0.211209E-4       -0.737124E-3
        7.230000           0.236700E-4       -0.740764E-3
        7.240000           0.262548E-4       -0.744453E-3
        7.250000           0.288760E-4       -0.748192E-3
        7.260000           0.315339E-4       -0.751982E-3
        7.270000           0.342292E-4       -0.755823E-3
        7.280000           0.369636E-4       -0.759718E-3
        7.290000           0.397366E-4       -0.763667E-3
        7.300000           0.425494E-4       -0.767672E-3
        7.310000           0.454026E-4       -0.771734E-3
        7.320000           0.482973E-4       -0.775854E-3
        7.330000           0.512343E-4       -0.780032E-3
        7.340000           0.542143E-4       -0.784271E-3
        7.350000           0.572383E-4       -0.788571E-3
        7.360000           0.603062E-4       -0.792935E-3
        7.370000           0.634204E-4       -0.797363E-3
        7.380000           0.665802E-4       -0.801857E-3
        7.390000           0.697883E-4       -0.806418E-3
        7.400000           0.730439E-4       -0.811049E-3
        7.410000           0.763493E-4       -0.815750E-3
        7.420000           0.797053E-4       -0.820523E-3
        7.430000           0.831116E-4       -0.825369E-3
        7.440000           0.865707E-4       -0.830291E-3
        7.450000           0.900832E-4       -0.835290E-3
        7.460000           0.936502E-4       -0.840369E-3
        7.470000           0.972733E-4       -0.845528E-3
        7.480000           0.100953E-3       -0.850770E-3
        7.489999           0.104690E-3       -0.856096E-3
        7.500000           0.108488E-3       -0.861511E-3
        7.510000           0.112345E-3       -0.867013E-3
        7.520000           0.116264E-3       -0.872607E-3
        7.530000           0.120247E-3       -0.878295E-3
        7.540000           0.124293E-3       -0.884078E-3
        7.550000           0.128406E-3       -0.889960E-3
        7.560000           0.132587E-3       -0.895943E-3
        7.570000           0.136835E-3       -0.902029E-3
        7.580000           0.141155E-3       -0.908221E-3
        7.590000           0.145546E-3       -0.914522E-3
        7.600000           0.150011E-3       -0.920935E-3
        7.610000           0.154551E-3       -0.927463E-3
        7.620000           0.159168E-3       -0.934108E-3
        7.630000           0.163864E-3       -0.940875E-3
        7.640000           0.168640E-3       -0.947766E-3
        7.650000           0.173499E-3       -0.954784E-3
        7.660000           0.178442E-3       -0.961935E-3
        7.670000           0.183471E-3       -0.969220E-3
        7.680000           0.188589E-3       -0.976644E-3
        7.690000           0.193797E-3       -0.984211E-3
        7.700000           0.199098E-3       -0.991925E-3
        7.710000           0.204493E-3       -0.999791E-3
        7.720000           0.209986E-3       -0.001008
        7.730000           0.215578E-3       -0.001016
        7.740000           0.221273E-3       -0.001024
        7.750000           0.227071E-3       -0.001033
        7.760000           0.232976E-3       -0.001042
        7.770000           0.238991E-3       -0.001050
        7.780000           0.245119E-3       -0.001059
        7.789999           0.251362E-3       -0.001069
        7.800000           0.257723E-3       -0.001078
        7.809999           0.264206E-3       -0.001088
        7.820000           0.270813E-3       -0.001098
        7.829999           0.277548E-3       -0.001108
        7.840000           0.284413E-3       -0.001118
        7.849999           0.291413E-3       -0.001129
        7.860000           0.298551E-3       -0.001139
        7.870000           0.305833E-3       -0.001150
        7.880000           0.313257E-3       -0.001162
        7.890000           0.320832E-3       -0.001173
        7.900000           0.328561E-3       -0.001185
        7.910000           0.336446E-3       -0.001197
        7.920000           0.344494E-3       -0.001210
        7.930000           0.352708E-3       -0.001222
        7.940000           0.361092E-3       -0.001235
        7.950000           0.369653E-3       -0.001249
        7.960000           0.378395E-3       -0.001263
        7.970000           0.387321E-3       -0.001277
        7.980000           0.396439E-3       -0.001291
        7.990000           0.405754E-3       -0.001306
        8.000000           0.415270E-3       -0.001321
        8.010000           0.424996E-3       -0.001337
        8.020000           0.434933E-3       -0.001353
        8.030000           0.445091E-3       -0.001369
        8.040000           0.455475E-3       -0.001386
        8.050000           0.466093E-3       -0.001404
        8.059999           0.476951E-3       -0.001422
        8.070000           0.488054E-3       -0.001441
        8.080000           0.499412E-3       -0.001460
        8.090000           0.511032E-3       -0.001479
        8.099999           0.522920E-3       -0.001500
        8.110000           0.535085E-3       -0.001521
        8.120000           0.547535E-3       -0.001542
        8.130000           0.560278E-3       -0.001564
        8.139999           0.573322E-3       -0.001587
        8.150000           0.586679E-3       -0.001611
        8.160000           0.600353E-3       -0.001636
        8.170000           0.614356E-3       -0.001661
        8.179999           0.628696E-3       -0.001688
        8.190000           0.643382E-3       -0.001715
        8.200000           0.658425E-3       -0.001743
        8.209999           0.673836E-3       -0.001773
        8.219999           0.689621E-3       -0.001803
        8.230000           0.705791E-3       -0.001834
        8.240001           0.722354E-3       -0.001867
        8.250000           0.739322E-3       -0.001901
        8.260000           0.756699E-3       -0.001937
        8.270000           0.774501E-3       -0.001974
        8.280000           0.792729E-3       -0.002012
        8.290000           0.811395E-3       -0.002052
        8.300000           0.830502E-3       -0.002094
        8.310000           0.850057E-3       -0.002137
        8.320000           0.870063E-3       -0.002183
        8.330000           0.890523E-3       -0.002230
        8.340000           0.911435E-3       -0.002280
        8.350000           0.932798E-3       -0.002332
        8.360000           0.954605E-3       -0.002387
        8.370000           0.976843E-3       -0.002444
        8.380000           0.999499E-3       -0.002505
        8.390000           0.001023          -0.002568
        8.400000           0.001046          -0.002635
        8.410000           0.001070          -0.002705
        8.420000           0.001094          -0.002779
        8.430000           0.001118          -0.002858
        8.440000           0.001142          -0.002941
        8.450000           0.001167          -0.003029
        8.460000           0.001191          -0.003122
        8.469999           0.001215          -0.003221
        8.480000           0.001239          -0.003326
        8.490000           0.001262          -0.003438
        8.500000           0.001284          -0.003557
        8.509999           0.001305          -0.003685
        8.520000           0.001325          -0.003821
        8.530000           0.001342          -0.003967
        8.540000           0.001356          -0.004123
        8.549999           0.001367          -0.004291
        8.559999           0.001374          -0.004472
        8.570000           0.001374          -0.004666
        8.580000           0.001368          -0.004876
        8.589999           0.001353          -0.005102
        8.600000           0.001327          -0.005347
        8.610001           0.001287          -0.005611
        8.620000           0.001230          -0.005896
        8.630000           0.001152          -0.006203
        8.640000           0.001049          -0.006534
        8.650001           0.912717E-3       -0.006890
        8.660000           0.737389E-3       -0.007269
        8.670000           0.513785E-3       -0.007672
        8.680000           0.231573E-3       -0.008095
        8.690001          -0.121036E-3       -0.008532
        8.700000          -0.556885E-3       -0.008973
        8.710000          -0.001089          -0.009405
        8.720000          -0.001729          -0.009806
        8.730000          -0.002484          -0.010148
        8.740000          -0.003355          -0.010397
        8.750000          -0.004328          -0.010514
        8.760000          -0.005376          -0.010458
        8.770000          -0.006454          -0.010199
        8.780000          -0.007502          -0.009721
        8.790000          -0.008454          -0.009035
        8.800000          -0.009252          -0.008173
        8.809999          -0.009853          -0.007191
        8.820000          -0.010241          -0.006153
        8.830000          -0.010424          -0.005120
        8.840000          -0.010426          -0.004141
        8.849999          -0.010285          -0.003247
        8.860000          -0.010037          -0.002457
        8.870000          -0.009716          -0.001774
        8.880000          -0.009353          -0.001195
        8.889999          -0.008968          -0.710199E-3
        8.900000          -0.008577          -0.308522E-3
        8.910000          -0.008192           0.215364E-4
        8.919999          -0.007820           0.290982E-3
        8.929999          -0.007465           0.509713E-3
        8.940000          -0.007129           0.686329E-3
        8.950000          -0.006814           0.828147E-3
        8.959999          -0.006519           0.941298E-3
        8.970000          -0.006244           0.001031
        8.980000          -0.005988           0.001101
        8.990000          -0.005749           0.001155
        9.000000          -0.005527           0.001197
        9.010000          -0.005321           0.001227
        9.020000          -0.005129           0.001249
        9.030000          -0.004950           0.001263
        9.040000          -0.004782           0.001272
        9.050000          -0.004626           0.001275
        9.060000          -0.004481           0.001275
        9.070000          -0.004344           0.001271
        9.080000          -0.004216           0.001264
        9.090000          -0.004096           0.001256
        9.100000          -0.003983           0.001245
        9.110000          -0.003877           0.001233
        9.120000          -0.003777           0.001220
        9.130000          -0.003683           0.001206
        9.140000          -0.003594           0.001192
        9.150000          -0.003510           0.001176
        9.160000          -0.003430           0.001161
        9.170000          -0.003354           0.001145
        9.179999          -0.003283           0.001129
        9.190000          -0.003215           0.001113
        9.200000          -0.003150           0.001097
        9.210000          -0.003089           0.001081
        9.219999          -0.003030           0.001064
        9.230000          -0.002975           0.001048
        9.240000          -0.002922           0.001033
        9.250000          -0.002871           0.001017
        9.259999          -0.002822           0.001002
        9.270000          -0.002776           0.986264E-3
        9.280000          -0.002732           0.971219E-3
        9.290000          -0.002689           0.956402E-3
        9.299999          -0.002648           0.941823E-3
        9.309999          -0.002609           0.927486E-3
        9.320000          -0.002572           0.913395E-3
        9.330000          -0.002536           0.899553E-3
        9.340000          -0.002501           0.885962E-3
        9.350000          -0.002468           0.872621E-3
        9.360001          -0.002436           0.859530E-3
        9.370000          -0.002405           0.846686E-3
        9.380000          -0.002375           0.834088E-3
        9.390000          -0.002347           0.821734E-3
        9.400001          -0.002319           0.809618E-3
        9.410000          -0.002293           0.797740E-3
        9.420000          -0.002267           0.786093E-3
        9.430000          -0.002242           0.774676E-3
        9.440000          -0.002218           0.763483E-3
        9.450000          -0.002195           0.752510E-3
        9.460000          -0.002173           0.741754E-3
        9.470000          -0.002151           0.731208E-3
        9.480000          -0.002131           0.720869E-3
        9.490000          -0.002110           0.710733E-3
        9.500000          -0.002091           0.700795E-3
        9.510000          -0.002072           0.691051E-3
        9.520000          -0.002053           0.681496E-3
        9.530000          -0.002036           0.672127E-3
        9.540000          -0.002018           0.662938E-3
        9.550000          -0.002002           0.653925E-3
        9.559999          -0.001985           0.645085E-3
        9.570000          -0.001970           0.636413E-3
        9.580000          -0.001954           0.627906E-3
        9.590000          -0.001939           0.619559E-3
        9.599999          -0.001925           0.611368E-3
        9.610000          -0.001911           0.603331E-3
        9.620000          -0.001897           0.595443E-3
        9.629999          -0.001884           0.587701E-3
        9.639999          -0.001871           0.580101E-3
        9.650000          -0.001859           0.572639E-3
        9.660000          -0.001847           0.565314E-3
        9.669999          -0.001835           0.558121E-3
        9.679999          -0.001823           0.551058E-3
        9.690000          -0.001812           0.544120E-3
        9.700000          -0.001801           0.537306E-3
        9.710000          -0.001791           0.530612E-3
        9.720000          -0.001781           0.524036E-3
        9.730000          -0.001771           0.517575E-3
        9.740000          -0.001761           0.511227E-3
        9.750000          -0.001751           0.504988E-3
        9.760000          -0.001742           0.498856E-3
        9.770000          -0.001733           0.492829E-3
        9.780000          -0.001724           0.486905E-3
        9.790000          -0.001716           0.481080E-3
        9.800000          -0.001707           0.475354E-3
        9.810000          -0.001699           0.469723E-3
        9.820000          -0.001691           0.464185E-3
        9.830000          -0.001684           0.458740E-3
        9.840000          -0.001676           0.453385E-3
        9.850000          -0.001669           0.448116E-3
        9.860000          -0.001662           0.442934E-3
        9.870000          -0.001655           0.437835E-3
        9.880000          -0.001648           0.432818E-3
        9.889999          -0.001641           0.427882E-3
        9.900000          -0.001635           0.423025E-3
        9.910000          -0.001628           0.418245E-3
        9.920000          -0.001622           0.413540E-3
        9.929999          -0.001616           0.408909E-3
        9.940000          -0.001611           0.404351E-3
        9.950000          -0.001605           0.399864E-3
        9.960000          -0.001599           0.395446E-3
        9.969999          -0.001594           0.391097E-3
        9.980000          -0.001589           0.386814E-3
        9.990000          -0.001584           0.382597E-3
        10.00000          -0.001579           0.378444E-3
        10.01000          -0.001574           0.374355E-3
        10.02000          -0.001569           0.370327E-3
        10.03000          -0.001564           0.366360E-3
        10.04000          -0.001560           0.362452E-3
        10.05000          -0.001555           0.358603E-3
        10.06000          -0.001551           0.354811E-3
        10.07000          -0.001547           0.351075E-3
        10.08000          -0.001543           0.347395E-3
        10.09000          -0.001539           0.343769E-3
        10.10000          -0.001535           0.340196E-3
        10.11000          -0.001531           0.336676E-3
        10.12000          -0.001528           0.333207E-3
        10.13000          -0.001524           0.329789E-3
        10.14000          -0.001521           0.326420E-3
        10.15000          -0.001517           0.323101E-3
        10.16000          -0.001514           0.319829E-3
        10.17000          -0.001511           0.316604E-3
        10.18000          -0.001508           0.313426E-3
        10.19000          -0.001505           0.310294E-3
        10.20000          -0.001502           0.307206E-3
        10.21000          -0.001499           0.304163E-3
        10.22000          -0.001496           0.301164E-3
        10.23000          -0.001494           0.298207E-3
        10.24000          -0.001491           0.295292E-3
        10.25000          -0.001489           0.292419E-3
        10.26000          -0.001486           0.289587E-3
        10.27000          -0.001484           0.286795E-3
        10.28000          -0.001481           0.284043E-3
        10.29000          -0.001479           0.281329E-3
        10.30000          -0.001477           0.278655E-3
        10.31000          -0.001475           0.276018E-3
        10.32000          -0.001473           0.273419E-3
        10.33000          -0.001471           0.270857E-3
        10.34000          -0.001469           0.268330E-3
        10.35000          -0.001468           0.265841E-3
        10.36000          -0.001466           0.263386E-3
        10.37000          -0.001464           0.260966E-3
        10.38000          -0.001463           0.258581E-3
        10.39000          -0.001461           0.256231E-3
        10.40000          -0.001460           0.253913E-3
        10.41000          -0.001458           0.251629E-3
        10.42000          -0.001457           0.249377E-3
        10.43000          -0.001456           0.247158E-3
        10.44000          -0.001454           0.244971E-3
        10.45000          -0.001453           0.242816E-3
        10.46000          -0.001452           0.240692E-3
        10.47000          -0.001451           0.238599E-3
        10.48000          -0.001450           0.236537E-3
        10.49000          -0.001449           0.234505E-3
        10.50000          -0.001448           0.232503E-3
        10.51000          -0.001447           0.230530E-3
        10.52000          -0.001447           0.228587E-3
        10.53000          -0.001446           0.226673E-3
        10.54000          -0.001445           0.224787E-3
        10.55000          -0.001445           0.222930E-3
        10.56000          -0.001444           0.221101E-3
        10.57000          -0.001444           0.219300E-3
        10.58000          -0.001443           0.217526E-3
        10.59000          -0.001443           0.215780E-3
        10.60000          -0.001442           0.214062E-3
        10.61000          -0.001442           0.212370E-3
        10.62000          -0.001442           0.210705E-3
        10.63000          -0.001442           0.209067E-3
        10.64000          -0.001441           0.207455E-3
        10.65000          -0.001441           0.205868E-3
        10.66000          -0.001441           0.204309E-3
        10.67000          -0.001441           0.202774E-3
        10.68000          -0.001441           0.201265E-3
        10.69000          -0.001441           0.199782E-3
        10.70000          -0.001442           0.198324E-3
        10.71000          -0.001442           0.196891E-3
        10.72000          -0.001442           0.195483E-3
        10.73000          -0.001442           0.194101E-3
        10.74000          -0.001443           0.192742E-3
        10.75000          -0.001443           0.191408E-3
        10.76000          -0.001443           0.190099E-3
        10.77000          -0.001444           0.188813E-3
        10.78000          -0.001444           0.187553E-3
        10.79000          -0.001445           0.186316E-3
        10.80000          -0.001445           0.185103E-3
        10.81000          -0.001446           0.183915E-3
        10.82000          -0.001447           0.182750E-3
        10.83000          -0.001447           0.181609E-3
        10.84000          -0.001448           0.180491E-3
        10.85000          -0.001449           0.179398E-3
        10.86000          -0.001450           0.178328E-3
        10.87000          -0.001451           0.177282E-3
        10.88000          -0.001452           0.176259E-3
        10.89000          -0.001453           0.175260E-3
        10.90000          -0.001454           0.174285E-3
        10.91000          -0.001455           0.173332E-3
        10.92000          -0.001456           0.172404E-3
        10.93000          -0.001457           0.171498E-3
        10.94000          -0.001458           0.170617E-3
        10.95000          -0.001460           0.169758E-3
        10.96000          -0.001461           0.168923E-3
        10.97000          -0.001462           0.168112E-3
        10.98000          -0.001464           0.167324E-3
        10.99000          -0.001465           0.166560E-3
        11.00000          -0.001466           0.165819E-3
        11.01000          -0.001468           0.165102E-3
        11.02000          -0.001470           0.164408E-3
        11.03000          -0.001471           0.163739E-3
        11.04000          -0.001473           0.163093E-3
        11.05000          -0.001474           0.162471E-3
        11.06000          -0.001476           0.161873E-3
        11.07000          -0.001478           0.161299E-3
        11.08000          -0.001480           0.160749E-3
        11.09000          -0.001482           0.160223E-3
        11.10000          -0.001483           0.159722E-3
        11.11000          -0.001485           0.159245E-3
        11.12000          -0.001487           0.158793E-3
        11.13000          -0.001489           0.158365E-3
        11.14000          -0.001492           0.157963E-3
        11.15000          -0.001494           0.157585E-3
        11.16000          -0.001496           0.157232E-3
        11.17000          -0.001498           0.156905E-3
        11.18000          -0.001500           0.156604E-3
        11.19000          -0.001503           0.156328E-3
        11.20000          -0.001505           0.156078E-3
        11.21000          -0.001507           0.155854E-3
        11.22000          -0.001510           0.155656E-3
        11.23000          -0.001512           0.155484E-3
        11.24000          -0.001515           0.155339E-3
        11.25000          -0.001517           0.155221E-3
        11.26000          -0.001520           0.155131E-3
        11.27000          -0.001523           0.155068E-3
        11.28000          -0.001525           0.155032E-3
        11.29000          -0.001528           0.155024E-3
        11.30000          -0.001531           0.155045E-3
        11.31000          -0.001534           0.155094E-3
        11.32000          -0.001537           0.155171E-3
        11.33000          -0.001540           0.155278E-3
        11.34000          -0.001543           0.155415E-3
        11.35000          -0.001546           0.155580E-3
        11.36000          -0.001549           0.155776E-3
        11.37000          -0.001552           0.156003E-3
        11.38000          -0.001555           0.156261E-3
        11.39000          -0.001558           0.156549E-3
        11.40000          -0.001562           0.156869E-3
        11.41000          -0.001565           0.157222E-3
        11.42000          -0.001569           0.157606E-3
        11.43000          -0.001572           0.158023E-3
        11.44000          -0.001576           0.158474E-3
        11.45000          -0.001579           0.158958E-3
        11.46000          -0.001583           0.159477E-3
        11.47000          -0.001586           0.160030E-3
        11.48000          -0.001590           0.160619E-3
        11.49000          -0.001594           0.161243E-3
        11.50000          -0.001598           0.161904E-3
        11.51000          -0.001602           0.162601E-3
        11.52000          -0.001606           0.163336E-3
        11.53000          -0.001610           0.164109E-3
        11.54000          -0.001614           0.164920E-3
        11.55000          -0.001618           0.165771E-3
        11.56000          -0.001622           0.166661E-3
        11.57000          -0.001626           0.167592E-3
        11.58000          -0.001631           0.168565E-3
        11.59000          -0.001635           0.169579E-3
        11.60000          -0.001640           0.170636E-3
        11.61000          -0.001644           0.171736E-3
        11.62000          -0.001649           0.172880E-3
        11.63000          -0.001653           0.174070E-3
        11.64000          -0.001658           0.175305E-3
        11.65000          -0.001663           0.176588E-3
        11.66000          -0.001668           0.177917E-3
        11.67000          -0.001673           0.179295E-3
        11.68000          -0.001678           0.180722E-3
        11.69000          -0.001683           0.182200E-3
        11.70000          -0.001688           0.183729E-3
        11.71000          -0.001693           0.185310E-3
        11.72000          -0.001698           0.186945E-3
        11.73000          -0.001704           0.188634E-3
        11.74000          -0.001709           0.190379E-3
        11.75000          -0.001715           0.192181E-3
        11.76000          -0.001720           0.194040E-3
        11.77000          -0.001726           0.195960E-3
        11.78000          -0.001731           0.197938E-3
        11.79000          -0.001737           0.199980E-3
        11.80000          -0.001743           0.202084E-3
        11.81000          -0.001749           0.204252E-3
        11.82000          -0.001755           0.206487E-3
        11.83000          -0.001761           0.208789E-3
        11.84000          -0.001768           0.211160E-3
        11.85000          -0.001774           0.213602E-3
        11.86000          -0.001780           0.216116E-3
        11.87000          -0.001787           0.218705E-3
        11.88000          -0.001793           0.221368E-3
        11.89000          -0.001800           0.224109E-3
        11.90000          -0.001807           0.226930E-3
        11.91000          -0.001814           0.229832E-3
        11.92000          -0.001821           0.232817E-3
        11.93000          -0.001828           0.235888E-3
        11.94000          -0.001835           0.239046E-3
        11.95000          -0.001842           0.242294E-3
        11.96000          -0.001850           0.245634E-3
        11.97000          -0.001857           0.249068E-3
        11.98000          -0.001865           0.252600E-3
        11.99000          -0.001872           0.256231E-3
        12.00000          -0.001880           0.259964E-3
        12.01000          -0.001888           0.263801E-3
        12.02000          -0.001896           0.267747E-3
        12.03000          -0.001904           0.271803E-3
        12.04000          -0.001913           0.275974E-3
        12.05000          -0.001921           0.280260E-3
        12.06000          -0.001930           0.284666E-3
        12.07000          -0.001938           0.289196E-3
        12.08000          -0.001947           0.293854E-3
        12.09000          -0.001956           0.298641E-3
        12.10000          -0.001965           0.303564E-3
        12.11000          -0.001974           0.308626E-3
        12.12000          -0.001984           0.313829E-3
        12.13000          -0.001993           0.319180E-3
        12.14000          -0.002003           0.324681E-3
        12.15000          -0.002012           0.330339E-3
        12.16000          -0.002022           0.336158E-3
        12.17000          -0.002033           0.342142E-3
        12.18000          -0.002043           0.348297E-3
        12.19000          -0.002053           0.354629E-3
        12.20000          -0.002064           0.361143E-3
        12.21000          -0.002074           0.367844E-3
        12.22000          -0.002085           0.374740E-3
        12.23000          -0.002097           0.381837E-3
        12.24000          -0.002108           0.389140E-3
        12.25000          -0.002119           0.396657E-3
        12.26000          -0.002131           0.404396E-3
        12.27000          -0.002143           0.412365E-3
        12.28000          -0.002155           0.420569E-3
        12.29000          -0.002167           0.429020E-3
        12.30000          -0.002179           0.437723E-3
        12.31000          -0.002192           0.446691E-3
        12.32000          -0.002205           0.455931E-3
        12.33000          -0.002218           0.465453E-3
        12.34000          -0.002231           0.475267E-3
        12.35000          -0.002245           0.485386E-3
        12.36000          -0.002259           0.495820E-3
        12.37000          -0.002273           0.506582E-3
        12.38000          -0.002287           0.517684E-3
        12.39000          -0.002302           0.529138E-3
        12.40000          -0.002317           0.540960E-3
        12.41000          -0.002332           0.553164E-3
        12.42000          -0.002347           0.565765E-3
        12.43000          -0.002363           0.578780E-3
        12.44000          -0.002379           0.592225E-3
        12.45000          -0.002395           0.606118E-3
        12.46000          -0.002411           0.620478E-3
        12.47000          -0.002428           0.635326E-3
        12.48000          -0.002445           0.650684E-3
        12.49000          -0.002463           0.666571E-3
        12.50000          -0.002481           0.683013E-3
        12.51000          -0.002499           0.700034E-3
        12.52000          -0.002518           0.717661E-3
        12.53000          -0.002537           0.735922E-3
        12.54000          -0.002556           0.754846E-3
        12.55000          -0.002576           0.774465E-3
        12.56000          -0.002596           0.794812E-3
        12.57000          -0.002616           0.815923E-3
        12.58000          -0.002637           0.837834E-3
        12.59000          -0.002659           0.860587E-3
        12.60000          -0.002680           0.884224E-3
        12.61000          -0.002703           0.908791E-3
        12.62000          -0.002725           0.934337E-3
        12.63000          -0.002749           0.960911E-3
        12.64000          -0.002772           0.988570E-3
        12.65000          -0.002797           0.001017
        12.66000          -0.002821           0.001047
        12.67000          -0.002847           0.001079
        12.68000          -0.002873           0.001111
        12.69000          -0.002899           0.001145
        12.70000          -0.002926           0.001181
        12.71000          -0.002953           0.001218
        12.72000          -0.002982           0.001257
        12.73000          -0.003010           0.001298
        12.74000          -0.003040           0.001340
        12.75000          -0.003070           0.001385
        12.76000          -0.003100           0.001432
        12.77000          -0.003132           0.001481
        12.78000          -0.003164           0.001532
        12.79000          -0.003196           0.001587
        12.80000          -0.003230           0.001644
        12.81000          -0.003263           0.001704
        12.82000          -0.003298           0.001767
        12.83000          -0.003333           0.001834
        12.84000          -0.003369           0.001905
        12.85000          -0.003405           0.001979
        12.86000          -0.003442           0.002058
        12.87000          -0.003479           0.002142
        12.88000          -0.003517           0.002231
        12.89000          -0.003554           0.002325
        12.90000          -0.003592           0.002426
        12.91000          -0.003630           0.002532
        12.92000          -0.003668           0.002646
        12.93000          -0.003705           0.002768
        12.94000          -0.003742           0.002898
        12.95000          -0.003777           0.003037
        12.96000          -0.003811           0.003186
        12.97000          -0.003843           0.003346
        12.98000          -0.003872           0.003518
        12.99000          -0.003898           0.003703
        13.00000          -0.003919           0.003902
        13.01000          -0.003934           0.004117
        13.02000          -0.003941           0.004350
        13.03000          -0.003939           0.004601
        13.04000          -0.003926           0.004873
        13.05000          -0.003898           0.005167
        13.06000          -0.003851           0.005486
        13.07000          -0.003782           0.005830
        13.08000          -0.003685           0.006202
        13.09000          -0.003552           0.006602
        13.10000          -0.003377           0.007031
        13.11000          -0.003148           0.007488
        13.12000          -0.002855           0.007970
        13.13000          -0.002483           0.008470
        13.14000          -0.002019           0.008980
        13.15000          -0.001447           0.009484
        13.16000          -0.751687E-3        0.009960
        13.17000           0.760286E-4        0.010376
        13.18000           0.001039           0.010696
        13.19000           0.002127           0.010873
        13.20000           0.003312           0.010861
        13.21000           0.004547           0.010621
        13.22000           0.005765           0.010129
        13.23000           0.006892           0.009389
        13.24000           0.007855           0.008435
        13.25000           0.008600           0.007324
        13.26000           0.009101           0.006130
        13.27000           0.009361           0.004924
        13.28000           0.009405           0.003767
        13.29000           0.009271           0.002701
        13.30000           0.009003           0.001749
        13.31000           0.008643           0.920768E-3
        13.32000           0.008224           0.212209E-3
        13.33000           0.007774          -0.385305E-3
        13.34000           0.007313          -0.884136E-3
        13.35000           0.006854          -0.001298
        13.36000           0.006408          -0.001638
        13.37000           0.005979          -0.001918
        13.38000           0.005571          -0.002147
        13.39000           0.005186          -0.002334
        13.40000           0.004823          -0.002486
        13.41000           0.004483          -0.002610
        13.42000           0.004164          -0.002710
        13.43000           0.003865          -0.002791
        13.44000           0.003585          -0.002857
        13.45000           0.003323          -0.002909
        13.46000           0.003077          -0.002950
        13.47000           0.002845          -0.002983
        13.48000           0.002627          -0.003008
        13.49000           0.002422          -0.003028
        13.50000           0.002228          -0.003043
        13.51000           0.002044          -0.003054
        13.52000           0.001870          -0.003061
        13.53000           0.001704          -0.003066
        13.54000           0.001546          -0.003069
        13.55000           0.001396          -0.003071
        13.56000           0.001252          -0.003071
        13.57000           0.001114          -0.003070
        13.58000           0.981800E-3       -0.003068
        13.59000           0.854397E-3       -0.003066
        13.60000           0.731539E-3       -0.003064
        13.61000           0.612813E-3       -0.003061
        13.62000           0.497833E-3       -0.003059
        13.63000           0.386272E-3       -0.003056
        13.64000           0.277765E-3       -0.003054
        13.65000           0.172047E-3       -0.003051
        13.66000           0.687993E-4       -0.003050
        13.67000          -0.322108E-4       -0.003048
        13.68000          -0.131267E-3       -0.003047
        13.69000          -0.228575E-3       -0.003046
        13.70000          -0.324392E-3       -0.003046
        13.71000          -0.418902E-3       -0.003046
        13.72000          -0.512337E-3       -0.003047
        13.73000          -0.604867E-3       -0.003048
        13.74000          -0.696715E-3       -0.003050
        13.75000          -0.788038E-3       -0.003052
        13.76000          -0.879043E-3       -0.003055
        13.77000          -0.969887E-3       -0.003058
        13.78000          -0.001061          -0.003062
        13.79000          -0.001152          -0.003067
        13.80000          -0.001243          -0.003072
        13.81000          -0.001335          -0.003078
        13.82000          -0.001428          -0.003084
        13.83000          -0.001522          -0.003091
        13.84000          -0.001617          -0.003098
        13.85000          -0.001713          -0.003106
        13.86000          -0.001810          -0.003115
        13.87000          -0.001910          -0.003124
        13.88000          -0.002011          -0.003133
        13.89000          -0.002114          -0.003143
        13.90000          -0.002220          -0.003154
        13.91000          -0.002329          -0.003164
        13.92000          -0.002440          -0.003175
        13.93000          -0.002555          -0.003186
        13.94000          -0.002673          -0.003198
        13.95000          -0.002795          -0.003209
        13.96000          -0.002922          -0.003221
        13.97000          -0.003053          -0.003232
        13.98000          -0.003189          -0.003243
        13.99000          -0.003330          -0.003254
        14.00000          -0.003478          -0.003264
        14.01000          -0.003632          -0.003273
        14.02000          -0.003793          -0.003281
        14.03000          -0.003962          -0.003288
        14.04000          -0.004139          -0.003293
        14.05000          -0.004325          -0.003295
        14.06000          -0.004522          -0.003295
        14.07000          -0.004729          -0.003291
        14.08000          -0.004949          -0.003283
        14.09000          -0.005181          -0.003269
        14.10000          -0.005428          -0.003249
        14.11000          -0.005690          -0.003222
        14.12000          -0.005969          -0.003185
        14.13000          -0.006266          -0.003137
        14.14000          -0.006583          -0.003075
        14.15000          -0.006922          -0.002997
        14.16000          -0.007284          -0.002898
        14.17000          -0.007670          -0.002774
        14.18000          -0.008083          -0.002622
        14.19000          -0.008522          -0.002432
        14.20000          -0.008989          -0.002200
        14.21000          -0.009482          -0.001914
        14.22000          -0.010001          -0.001565
        14.23000          -0.010539          -0.001140
        14.24000          -0.011091          -0.624854E-3
        14.25000          -0.011643          -0.341225E-5
        14.26000          -0.012179           0.739820E-3
        14.27000          -0.012672           0.001620
        14.28000          -0.013090           0.002646
        14.29000          -0.013388           0.003822
        14.30000          -0.013517           0.005135
        14.31000          -0.013424           0.006554
        14.32000          -0.013062           0.008026
        14.33000          -0.012402           0.009475
        14.34000          -0.011444           0.010812
        14.35000          -0.010223           0.011949
        14.36000          -0.008809           0.012815
        14.37000          -0.007290           0.013372
        14.38000          -0.005761           0.013618
        14.39000          -0.004300           0.013586
        14.40000          -0.002966           0.013324
        14.41000          -0.001790           0.012892
        14.42000          -0.783831E-3        0.012344
        14.43000           0.568621E-4        0.011729
        14.44000           0.746137E-3        0.011083
        14.45000           0.001302           0.010432
        14.46000           0.001744           0.009796
        14.47000           0.002090           0.009185
        14.48000           0.002357           0.008607
        14.49000           0.002560           0.008064
        14.50000           0.002710           0.007558
        14.51000           0.002818           0.007088
        14.52000           0.002892           0.006653
        14.53000           0.002938           0.006250
        14.54000           0.002963           0.005877
        14.55000           0.002969           0.005533
        14.56000           0.002962           0.005214
        14.57000           0.002944           0.004918
        14.58000           0.002916           0.004644
        14.59000           0.002882           0.004389
        14.60000           0.002842           0.004152
        14.61000           0.002798           0.003931
        14.62000           0.002750           0.003725
        14.63000           0.002701           0.003532
        14.64000           0.002649           0.003352
        14.65000           0.002596           0.003183
        14.66000           0.002542           0.003024
        14.67000           0.002487           0.002875
        14.68000           0.002433           0.002734
        14.69000           0.002378           0.002601
        14.70000           0.002323           0.002476
        14.71000           0.002268           0.002357
        14.72000           0.002214           0.002244
        14.73000           0.002160           0.002137
        14.74000           0.002107           0.002036
        14.75000           0.002054           0.001939
        14.76000           0.002001           0.001847
        14.77000           0.001950           0.001759
        14.78000           0.001898           0.001674
        14.79000           0.001848           0.001594
        14.80000           0.001798           0.001517
        14.81000           0.001748           0.001443
        14.82000           0.001699           0.001372
        14.83000           0.001651           0.001303
        14.84000           0.001603           0.001237
        14.85000           0.001555           0.001174
        14.86000           0.001508           0.001113
        14.87000           0.001462           0.001054
        14.88000           0.001415           0.996603E-3
        14.89000           0.001369           0.941290E-3
        14.90000           0.001324           0.887698E-3
        14.91000           0.001279           0.835709E-3
        14.92000           0.001234           0.785233E-3
        14.93000           0.001189           0.736162E-3
        14.94000           0.001144           0.688430E-3
        14.95000           0.001100           0.641932E-3
        14.96000           0.001056           0.596610E-3
        14.97000           0.001011           0.552378E-3
        14.98000           0.967333E-3        0.509182E-3
        14.99000           0.923227E-3        0.466943E-3
        15.00000           0.879103E-3        0.425608E-3
        15.01000           0.834924E-3        0.385126E-3
        15.02000           0.790637E-3        0.345435E-3
        15.03000           0.746214E-3        0.306491E-3
        15.04000           0.701598E-3        0.268237E-3
        15.05000           0.656760E-3        0.230639E-3
        15.06000           0.611641E-3        0.193645E-3
        15.07000           0.566207E-3        0.157219E-3
        15.08000           0.520395E-3        0.121318E-3
        15.09000           0.474170E-3        0.859159E-4
        15.10000           0.427464E-3        0.509642E-4
        15.11000           0.380238E-3        0.164438E-4
        15.12000           0.332418E-3       -0.176878E-4
        15.13000           0.283961E-3       -0.514499E-4
        15.14000           0.234788E-3       -0.848782E-4
        15.15000           0.184849E-3       -0.117991E-3
        15.16000           0.134057E-3       -0.150815E-3
        15.17000           0.823566E-4       -0.183374E-3
        15.18000           0.296509E-4       -0.215688E-3
        15.19000          -0.241230E-4       -0.247769E-3
        15.20000          -0.790722E-4       -0.279640E-3
        15.21000          -0.135270E-3       -0.311310E-3
        15.22000          -0.192834E-3       -0.342797E-3
        15.23000          -0.251854E-3       -0.374101E-3
        15.24000          -0.312460E-3       -0.405236E-3
        15.25000          -0.374756E-3       -0.436197E-3
        15.26000          -0.438891E-3       -0.466993E-3
        15.27000          -0.504985E-3       -0.497609E-3
        15.28000          -0.573209E-3       -0.528044E-3
        15.29000          -0.643705E-3       -0.558276E-3
        15.30000          -0.716672E-3       -0.588289E-3
        15.31000          -0.792277E-3       -0.618050E-3
        15.32000          -0.870749E-3       -0.647528E-3
        15.33000          -0.952289E-3       -0.676669E-3
        15.34000          -0.001037          -0.705426E-3
        15.35000          -0.001126          -0.733717E-3
        15.36000          -0.001218          -0.761464E-3
        15.37000          -0.001314          -0.788558E-3
        15.38000          -0.001416          -0.814871E-3
        15.39000          -0.001522          -0.840253E-3
        15.40000          -0.001633          -0.864516E-3
        15.41000          -0.001750          -0.887448E-3
        15.42000          -0.001873          -0.908774E-3
        15.43000          -0.002003          -0.928189E-3
        15.44000          -0.002141          -0.945301E-3
        15.45000          -0.002287          -0.959662E-3
        15.46000          -0.002441          -0.970714E-3
        15.47000          -0.002605          -0.977807E-3
        15.48000          -0.002780          -0.980134E-3
        15.49000          -0.002966          -0.976740E-3
        15.50000          -0.003164          -0.966466E-3
        15.51000          -0.003375          -0.947893E-3
        15.52000          -0.003601          -0.919324E-3
        15.53000          -0.003843          -0.878679E-3
        15.54000          -0.004102          -0.823452E-3
        15.55000          -0.004379          -0.750568E-3
        15.56000          -0.004675          -0.656336E-3
        15.57000          -0.004991          -0.536223E-3
        15.58000          -0.005327          -0.384834E-3
        15.59000          -0.005684          -0.195601E-3
        15.60000          -0.006059           0.391415E-4
        15.61000          -0.006450           0.328534E-3
        15.62000          -0.006852           0.682814E-3
        15.63000          -0.007257           0.001114
        15.64000          -0.007652           0.001632
        15.65000          -0.008021           0.002251
        15.66000          -0.008338           0.002977
        15.67000          -0.008575           0.003815
        15.68000          -0.008693           0.004757
        15.69000          -0.008654           0.005784
        15.70000          -0.008422           0.006860
        15.71000          -0.007972           0.007932
        15.72000          -0.007297           0.008935
        15.73000          -0.006420           0.009801
        15.74000          -0.005387           0.010476
        15.75000          -0.004262           0.010924
        15.76000          -0.003115           0.011140
        15.77000          -0.002009           0.011142
        15.78000          -0.988960E-3        0.010966
        15.79000          -0.832522E-4        0.010655
        15.80000           0.697332E-3        0.010249
        15.81000           0.001354           0.009787
        15.82000           0.001896           0.009296
        15.83000           0.002336           0.008799
        15.84000           0.002689           0.008310
        15.85000           0.002968           0.007839
        15.86000           0.003186           0.007390
        15.87000           0.003355           0.006968
        15.88000           0.003484           0.006572
        15.89000           0.003579           0.006203
        15.90000           0.003649           0.005860
        15.91000           0.003697           0.005540
        15.92000           0.003728           0.005243
        15.93000           0.003746           0.004967
        15.94000           0.003754           0.004710
        15.95000           0.003753           0.004470
        15.96000           0.003745           0.004246
        15.97000           0.003732           0.004036
        15.98000           0.003715           0.003839
        15.99000           0.003695           0.003653
        16.00000           0.003672           0.003478
        16.01000           0.003648           0.003312
        16.02000           0.003623           0.003155
        16.03000           0.003597           0.003006
        16.04000           0.003571           0.002863
        16.05000           0.003544           0.002727
        16.06000           0.003517           0.002595
        16.07000           0.003490           0.002469
        16.08000           0.003464           0.002347
        16.09000           0.003438           0.002228
        16.10000           0.003412           0.002113
        16.11000           0.003387           0.002000
        16.12000           0.003362           0.001889
        16.13000           0.003338           0.001780
        16.14000           0.003314           0.001672
        16.15000           0.003290           0.001565
        16.16000           0.003266           0.001459
        16.17000           0.003243           0.001352
        16.18000           0.003219           0.001244
        16.19000           0.003195           0.001135
        16.20000           0.003170           0.001025
        16.21000           0.003145           0.912139E-3
        16.22000           0.003118           0.796830E-3
        16.23000           0.003089           0.678199E-3
        16.24000           0.003058           0.555690E-3
        16.25000           0.003023           0.428644E-3
        16.26000           0.002984           0.296475E-3
        16.27000           0.002940           0.158523E-3
        16.28000           0.002890           0.142556E-4
        16.29000           0.002831          -0.136871E-3
        16.30000           0.002761          -0.295146E-3
        16.31000           0.002678          -0.460685E-3
        16.32000           0.002579          -0.633102E-3
        16.33000           0.002461          -0.811476E-3
        16.34000           0.002318          -0.993861E-3
        16.35000           0.002148          -0.001177
        16.36000           0.001944          -0.001356
        16.37000           0.001704          -0.001525
        16.38000           0.001424          -0.001672
        16.39000           0.001104          -0.001788
        16.40000           0.747547E-3       -0.001857
        16.41000           0.364749E-3       -0.001866
        16.42000          -0.293395E-4       -0.001804
        16.43000          -0.414357E-3       -0.001666
        16.44000          -0.767321E-3       -0.001453
        16.45000          -0.001067          -0.001177
        16.46000          -0.001299          -0.856442E-3
        16.47000          -0.001456          -0.514415E-3
        16.48000          -0.001540          -0.171991E-3
        16.49000          -0.001561           0.153227E-3
        16.50000          -0.001529           0.449481E-3
        16.51000          -0.001459           0.710349E-3
        16.52000          -0.001363           0.934082E-3
        16.53000          -0.001251           0.001122
        16.54000          -0.001130           0.001277
        16.55000          -0.001007           0.001403
        16.56000          -0.885242E-3        0.001503
        16.57000          -0.767768E-3        0.001583
        16.58000          -0.655974E-3        0.001645
        16.59000          -0.550756E-3        0.001693
        16.60000          -0.452437E-3        0.001729
        16.61000          -0.361070E-3        0.001754
        16.62000          -0.276450E-3        0.001772
        16.63000          -0.198288E-3        0.001783
        16.64000          -0.126179E-3        0.001789
        16.65000          -0.597399E-4        0.001791
        16.66000           0.147842E-5        0.001789
        16.67000           0.578594E-4        0.001784
        16.68000           0.109813E-3        0.001777
        16.69000           0.157693E-3        0.001768
        16.70000           0.201855E-3        0.001757
        16.71000           0.242599E-3        0.001746
        16.72000           0.280227E-3        0.001733
        16.73000           0.314989E-3        0.001720
        16.74000           0.347138E-3        0.001706
        16.75000           0.376884E-3        0.001692
        16.76000           0.404431E-3        0.001677
        16.77000           0.429952E-3        0.001663
        16.78000           0.453620E-3        0.001648
        16.79000           0.475574E-3        0.001633
        16.80000           0.495956E-3        0.001618
        16.81000           0.514885E-3        0.001603
        16.82000           0.532476E-3        0.001588
        16.83000           0.548830E-3        0.001574
        16.84000           0.564034E-3        0.001559
        16.85000           0.578181E-3        0.001545
        16.86000           0.591343E-3        0.001531
        16.87000           0.603595E-3        0.001516
        16.88000           0.614996E-3        0.001503
        16.89000           0.625613E-3        0.001489
        16.90000           0.635495E-3        0.001476
        16.91000           0.644695E-3        0.001462
        16.92000           0.653257E-3        0.001449
        16.93000           0.661225E-3        0.001436
        16.94000           0.668638E-3        0.001424
        16.95000           0.675533E-3        0.001411
        16.96000           0.681941E-3        0.001399
        16.97000           0.687897E-3        0.001387
        16.98000           0.693425E-3        0.001375
        16.99000           0.698556E-3        0.001364
        17.00000           0.703311E-3        0.001352
        17.01000           0.707716E-3        0.001341
        17.02000           0.711790E-3        0.001330
        17.03000           0.715554E-3        0.001320
        17.04000           0.719026E-3        0.001309
        17.05000           0.722223E-3        0.001299
        17.06000           0.725162E-3        0.001288
        17.07000           0.727857E-3        0.001278
        17.08000           0.730323E-3        0.001268
        17.09000           0.732572E-3        0.001259
        17.10000           0.734617E-3        0.001249
        17.11000           0.736469E-3        0.001240
        17.12000           0.738140E-3        0.001230
        17.13000           0.739638E-3        0.001221
        17.14000           0.740975E-3        0.001212
        17.15000           0.742158E-3        0.001204
        17.16000           0.743196E-3        0.001195
        17.17000           0.744097E-3        0.001187
        17.18000           0.744868E-3        0.001178
        17.19000           0.745517E-3        0.001170
        17.20000           0.746049E-3        0.001162
        17.21000           0.746472E-3        0.001154
        17.22000           0.746790E-3        0.001146
        17.23000           0.747010E-3        0.001139
        17.24000           0.747137E-3        0.001131
        17.25000           0.747176E-3        0.001124
        17.26000           0.747131E-3        0.001116
        17.27000           0.747007E-3        0.001109
        17.28000           0.746807E-3        0.001102
        17.29000           0.746536E-3        0.001095
        17.30000           0.746199E-3        0.001088
        17.31000           0.745797E-3        0.001082
        17.32000           0.745335E-3        0.001075
        17.33000           0.744816E-3        0.001069
        17.34000           0.744242E-3        0.001062
        17.35000           0.743618E-3        0.001056
        17.36000           0.742945E-3        0.001050
        17.37000           0.742225E-3        0.001043
        17.38000           0.741463E-3        0.001037
        17.39000           0.740659E-3        0.001031
        17.40000           0.739817E-3        0.001026
        17.41000           0.738938E-3        0.001020
        17.42000           0.738024E-3        0.001014
        17.43000           0.737078E-3        0.001009
        17.44000           0.736100E-3        0.001003
        17.45000           0.735094E-3        0.997690E-3
        17.46000           0.734061E-3        0.992351E-3
        17.47000           0.733001E-3        0.987095E-3
        17.48000           0.731917E-3        0.981916E-3
        17.49000           0.730810E-3        0.976815E-3
        17.50000           0.729682E-3        0.971788E-3
        17.51000           0.728534E-3        0.966839E-3
        17.52000           0.727367E-3        0.961961E-3
        17.53000           0.726182E-3        0.957156E-3
        17.54000           0.724982E-3        0.952422E-3
        17.55000           0.723765E-3        0.947760E-3
        17.56000           0.722535E-3        0.943165E-3
        17.57000           0.721291E-3        0.938638E-3
        17.58000           0.720035E-3        0.934179E-3
        17.59000           0.718769E-3        0.929784E-3
        17.60000           0.717492E-3        0.925455E-3
        17.61000           0.716205E-3        0.921190E-3
        17.62000           0.714910E-3        0.916989E-3
        17.63000           0.713606E-3        0.912848E-3
        17.64000           0.712296E-3        0.908769E-3
        17.65000           0.710980E-3        0.904750E-3
        17.66000           0.709658E-3        0.900793E-3
        17.67000           0.708331E-3        0.896892E-3
        17.68000           0.707001E-3        0.893050E-3
        17.69000           0.705666E-3        0.889265E-3
        17.70000           0.704329E-3        0.885538E-3
        17.71000           0.702990E-3        0.881865E-3
        17.72000           0.701648E-3        0.878248E-3
        17.73000           0.700306E-3        0.874685E-3
        17.74000           0.698963E-3        0.871176E-3
        17.75000           0.697619E-3        0.867721E-3
        17.76000           0.696276E-3        0.864319E-3
        17.77000           0.694935E-3        0.860967E-3
        17.78000           0.693594E-3        0.857668E-3
        17.79000           0.692256E-3        0.854420E-3
        17.80000           0.690919E-3        0.851223E-3
        17.81000           0.689586E-3        0.848073E-3
        17.82000           0.688256E-3        0.844975E-3
        17.83000           0.686929E-3        0.841925E-3
        17.84000           0.685607E-3        0.838924E-3
        17.85000           0.684289E-3        0.835971E-3
        17.86000           0.682975E-3        0.833066E-3
        17.87000           0.681668E-3        0.830207E-3
        17.88000           0.680365E-3        0.827396E-3
        17.89000           0.679069E-3        0.824632E-3
        17.90000           0.677779E-3        0.821913E-3
        17.91000           0.676496E-3        0.819240E-3
        17.92000           0.675220E-3        0.816612E-3
        17.93000           0.673951E-3        0.814030E-3
        17.94000           0.672691E-3        0.811493E-3
        17.95000           0.671438E-3        0.809001E-3
        17.96000           0.670195E-3        0.806552E-3
        17.97000           0.668960E-3        0.804148E-3
        17.98000           0.667733E-3        0.801787E-3
        17.99000           0.666517E-3        0.799470E-3
        18.00000           0.665311E-3        0.797197E-3
        18.01000           0.664115E-3        0.794967E-3
        18.02000           0.662930E-3        0.792780E-3
        18.03000           0.661756E-3        0.790637E-3
        18.04000           0.660593E-3        0.788534E-3
        18.05000           0.659443E-3        0.786475E-3
        18.06000           0.658303E-3        0.784459E-3
        18.07000           0.657177E-3        0.782486E-3
        18.08000           0.656063E-3        0.780556E-3
        18.09000           0.654963E-3        0.778667E-3
        18.10000           0.653876E-3        0.776819E-3
        18.11000           0.652803E-3        0.775015E-3
        18.12000           0.651745E-3        0.773253E-3
        18.13000           0.650702E-3        0.771532E-3
        18.14000           0.649673E-3        0.769854E-3
        18.15000           0.648661E-3        0.768219E-3
        18.16000           0.647665E-3        0.766626E-3
        18.17000           0.646685E-3        0.765074E-3
        18.18000           0.645722E-3        0.763565E-3
        18.19000           0.644777E-3        0.762099E-3
        18.20000           0.643849E-3        0.760675E-3
        18.21000           0.642940E-3        0.759295E-3
        18.22000           0.642051E-3        0.757956E-3
        18.23000           0.641181E-3        0.756661E-3
        18.24000           0.640331E-3        0.755409E-3
        18.25000           0.639502E-3        0.754200E-3
        18.26000           0.638694E-3        0.753035E-3
        18.27000           0.637908E-3        0.751914E-3
        18.28000           0.637145E-3        0.750837E-3
        18.29000           0.636405E-3        0.749804E-3
        18.30000           0.635689E-3        0.748817E-3
        18.31000           0.634998E-3        0.747873E-3
        18.32000           0.634333E-3        0.746975E-3
        18.33000           0.633693E-3        0.746123E-3
        18.34000           0.633081E-3        0.745316E-3
        18.35000           0.632497E-3        0.744556E-3
        18.36000           0.631941E-3        0.743843E-3
        18.37000           0.631416E-3        0.743178E-3
        18.38000           0.630922E-3        0.742559E-3
        18.39000           0.630459E-3        0.741989E-3
        18.40000           0.630029E-3        0.741468E-3
        18.41000           0.629634E-3        0.740996E-3
        18.42000           0.629273E-3        0.740573E-3
        18.43000           0.628950E-3        0.740201E-3
        18.44000           0.628664E-3        0.739880E-3
        18.45000           0.628417E-3        0.739611E-3
        18.46000           0.628211E-3        0.739393E-3
        18.47000           0.628047E-3        0.739229E-3
        18.48000           0.627927E-3        0.739118E-3
        18.49000           0.627853E-3        0.739062E-3
        18.50000           0.627826E-3        0.739062E-3
        18.51000           0.627848E-3        0.739116E-3
        18.52000           0.627922E-3        0.739229E-3
        18.53000           0.628048E-3        0.739399E-3
        18.54000           0.628231E-3        0.739627E-3
        18.55000           0.628471E-3        0.739915E-3
        18.56000           0.628772E-3        0.740264E-3
        18.57000           0.629136E-3        0.740673E-3
        18.58000           0.629566E-3        0.741146E-3
        18.59000           0.630064E-3        0.741683E-3
        18.60000           0.630635E-3        0.742284E-3
        18.61000           0.631281E-3        0.742951E-3
        18.62000           0.632005E-3        0.743684E-3
        18.63000           0.632813E-3        0.744486E-3
        18.64000           0.633707E-3        0.745358E-3
        18.65000           0.634693E-3        0.746300E-3
        18.66000           0.635773E-3        0.747313E-3
        18.67000           0.636955E-3        0.748401E-3
        18.68000           0.638242E-3        0.749562E-3
        18.69000           0.639641E-3        0.750798E-3
        18.70000           0.641157E-3        0.752113E-3
        18.71000           0.642796E-3        0.753504E-3
        18.72000           0.644567E-3        0.754975E-3
        18.73000           0.646475E-3        0.756528E-3
        18.74000           0.648529E-3        0.758162E-3
        18.75000           0.650737E-3        0.759879E-3
        18.76000           0.653109E-3        0.761681E-3
        18.77000           0.655654E-3        0.763566E-3
        18.78000           0.658384E-3        0.765539E-3
        18.79000           0.661309E-3        0.767597E-3
        18.80000           0.664442E-3        0.769744E-3
        18.81000           0.667795E-3        0.771977E-3
        18.82000           0.671385E-3        0.774299E-3
        18.83000           0.675226E-3        0.776707E-3
        18.84000           0.679337E-3        0.779202E-3
        18.85000           0.683733E-3        0.781782E-3
        18.86000           0.688438E-3        0.784447E-3
        18.87000           0.693471E-3        0.787193E-3
        18.88000           0.698857E-3        0.790018E-3
        18.89000           0.704623E-3        0.792916E-3
        18.90000           0.710797E-3        0.795883E-3
        18.91000           0.717409E-3        0.798911E-3
        18.92000           0.724496E-3        0.801993E-3
        18.93000           0.732093E-3        0.805118E-3
        18.94000           0.740243E-3        0.808272E-3
        18.95000           0.748989E-3        0.811440E-3
        18.96000           0.758382E-3        0.814603E-3
        18.97000           0.768478E-3        0.817737E-3
        18.98000           0.779336E-3        0.820813E-3
        18.99000           0.791020E-3        0.823796E-3
        19.00000           0.803607E-3        0.826645E-3
        19.01000           0.817174E-3        0.829306E-3
        19.02000           0.831813E-3        0.831718E-3
        19.03000           0.847618E-3        0.833805E-3
        19.04000           0.864693E-3        0.835476E-3
        19.05000           0.883157E-3        0.836615E-3
        19.06000           0.903131E-3        0.837087E-3
        19.07000           0.924753E-3        0.836727E-3
        19.08000           0.948161E-3        0.835330E-3
        19.09000           0.973509E-3        0.832646E-3
        19.10000           0.001001           0.828372E-3
        19.11000           0.001031           0.822137E-3
        19.12000           0.001063           0.813489E-3
        19.13000           0.001097           0.801873E-3
        19.14000           0.001134           0.786630E-3
        19.15000           0.001174           0.766947E-3
        19.16000           0.001216           0.741877E-3
        19.17000           0.001259           0.710291E-3
        19.18000           0.001305           0.670916E-3
        19.19000           0.001350           0.622331E-3
        19.20000           0.001395           0.563086E-3
        19.21000           0.001436           0.491792E-3
        19.22000           0.001470           0.407449E-3
        19.23000           0.001495           0.309722E-3
        19.24000           0.001505           0.199527E-3
        19.25000           0.001495           0.794056E-4
        19.26000           0.001461          -0.459729E-4
        19.27000           0.001401          -0.170007E-3
        19.28000           0.001313          -0.284657E-3
        19.29000           0.001202          -0.381888E-3
        19.30000           0.001071          -0.455107E-3
        19.31000           0.930861E-3       -0.500567E-3
        19.32000           0.788187E-3       -0.517781E-3
        19.33000           0.650658E-3       -0.509177E-3
        19.34000           0.523646E-3       -0.479068E-3
        19.35000           0.410227E-3       -0.432517E-3
        19.36000           0.311621E-3       -0.374453E-3
        19.37000           0.227562E-3       -0.309083E-3
        19.38000           0.156967E-3       -0.239745E-3
        19.39000           0.982713E-4       -0.168838E-3
        19.40000           0.498126E-4       -0.980212E-4
        19.41000           0.998186E-5       -0.283460E-4
        19.42000          -0.226933E-4        0.396278E-4
        19.43000          -0.494684E-4        0.105620E-3
        19.44000          -0.714177E-4        0.169619E-3
        19.45000          -0.894113E-4        0.231719E-3
        19.46000          -0.104172E-3        0.292153E-3
        19.47000          -0.116261E-3        0.351174E-3
        19.48000          -0.126132E-3        0.409116E-3
        19.49000          -0.134124E-3        0.466288E-3
        19.50000          -0.140492E-3        0.523060E-3
        19.51000          -0.145409E-3        0.579766E-3
        19.52000          -0.148982E-3        0.636788E-3
        19.53000          -0.151250E-3        0.694473E-3
        19.54000          -0.152192E-3        0.753221E-3
        19.55000          -0.151725E-3        0.813394E-3
        19.56000          -0.149700E-3        0.875410E-3
        19.57000          -0.145893E-3        0.939658E-3
        19.58000          -0.140003E-3        0.001007
        19.59000          -0.131631E-3        0.001077
        19.60000          -0.120270E-3        0.001150
        19.61000          -0.105276E-3        0.001228
        19.62000          -0.858414E-4        0.001310
        19.63000          -0.609754E-4        0.001396
        19.64000          -0.294412E-4        0.001488
        19.65000           0.102604E-4        0.001586
        19.66000           0.599648E-4        0.001688
        19.67000           0.121838E-3        0.001796
        19.68000           0.198466E-3        0.001908
        19.69000           0.292745E-3        0.002023
        19.70000           0.407903E-3        0.002139
        19.71000           0.547163E-3        0.002252
        19.72000           0.713500E-3        0.002357
        19.73000           0.908835E-3        0.002446
        19.74000           0.001133           0.002513
        19.75000           0.001384           0.002545
        19.76000           0.001655           0.002534
        19.77000           0.001934           0.002472
        19.78000           0.002206           0.002353
        19.79000           0.002455           0.002179
        19.80000           0.002665           0.001960
        19.81000           0.002825           0.001708
        19.82000           0.002930           0.001439
        19.83000           0.002981           0.001171
        19.84000           0.002984           0.915718E-3
        19.85000           0.002949           0.682527E-3
        19.86000           0.002886           0.476179E-3
        19.87000           0.002803           0.297989E-3
        19.88000           0.002708           0.147050E-3
        19.89000           0.002608           0.209829E-4
        19.90000           0.002507          -0.831311E-4
        19.91000           0.002407          -0.168420E-3
        19.92000           0.002310          -0.237802E-3
        19.93000           0.002219          -0.293954E-3
        19.94000           0.002132          -0.339157E-3
        19.95000           0.002051          -0.375381E-3
        19.96000           0.001976          -0.404252E-3
        19.97000           0.001906          -0.427138E-3
        19.98000           0.001841          -0.445147E-3
        19.99000           0.001781          -0.459198E-3
        20.00000           0.001725          -0.470038E-3
# 
# 06/20/2023 at 00:47 yambo @ unimi-XPS-8930 [start]
# 06/20/2023 at 00:47                        [end]
#
# .-Input file  yambo.in
# | rim_cut                          # [R] Coulomb potential
# | optics                           # [R] Linear Response optical properties
# | dipoles                          # [R] Oscillator strenghts (or dipoles)
# | bse                              # [R][BSE] Bethe Salpeter Equation.
# | ElecTemp= 0.025861         eV    # Electronic Temperature
# | BoseTemp= 0.025861         eV    # Bosonic Temperature
# | DIP_Threads= 1                   # [OPENMP/X] Number of threads for dipoles
# | BS_nCPU_LinAlg_INV= 1            # [PARALLEL] CPUs for Linear Algebra (if -1 it is automatically set)
# | BS_nCPU_LinAlg_DIAGO= 1          # [PARALLEL] CPUs for Linear Algebra (if -1 it is automatically set)
# | X_Threads= 1                     # [OPENMP/X] Number of threads for response functions
# | K_Threads= 1                     # [OPENMP/BSK] Number of threads for response functions
# | RandQpts=0                       # [RIM] Number of random q-points in the BZ
# | RandGvec= 1                RL    # [RIM] Coulomb interaction RS components
# | CUTGeo= "ws xyz"                 # [CUT] Coulomb Cutoff geometry: box/cylinder/sphere/ws/slab X/Y/Z/XY..
# | % CUTBox
# |  0.000000 | 0.000000 | 0.000000 |        # [CUT] [au] Box sides
# | %
# | CUTRadius= 0.000000              # [CUT] [au] Sphere/Cylinder radius
# | CUTCylLen= 0.000000              # [CUT] [au] Cylinder length
# | CUTwsGvec= 0.700000              # [CUT] WS cutoff: number of G to be modified
# | BSKmod= "IP"                     # [BSE] IP/Hartree/HF/ALDA/SEX/BSfxc
# | BSEmod= "retarded"               # [BSE] resonant/retarded/coupling
# | Lkind= "Lbar"                    # [BSE,X] bar(default)/full
# | DipBandsALL                    # [DIP] Compute all bands range, not only valence and conduction
# | DipComputed= "R V P"             # [DIP] [default R P V; extra P2 Spin Orb]
# | DbGdQsize= 1.000000              # [X,DbGd][o/o] Percentual of the total DbGd transitions to be used
# | BSENGexx= 28671            RL    # [BSK] Exchange components
# | % BSEQptR
# |  1 | 1 |                             # [BSK] Transferred momenta range
# | %
# | % BSEBands
# |   1 | 20 |                           # [BSK] Bands range
# | %
# | % BEnRange
# |   0.00000 | 20.00000 |         eV    # [BSS] Energy range
# | %
# | % BDmRange
# |  0.100000 | 0.100000 |         eV    # [BSS] Damping range
# | %
# | BEnSteps= 2001                   # [BSS] Energy steps
# | % BLongDir
# |  1.000000 | 0.000000 | 0.000000 |        # [BSS] [cc] Electric Field versor
# | %
# | BSEprop= "abs dichr jdos"        # [BSS] Can be any among abs/jdos/kerr/magn/dich/photolum/esrt
