#  __      __   ______   __       __  _______    ______     
# |  \    /  \ /      \ |  \     /  \|       \  /      \    
#  \$$\  /  $$|  $$$$$$\| $$\   /  $$| $$$$$$$\|  $$$$$$\   
#   \$$\/  $$ | $$__| $$| $$$\ /  $$$| $$__/ $$| $$  | $$   
#    \$$  $$  | $$    $$| $$$$\  $$$$| $$    $$| $$  | $$   
#     \$$$$   | $$$$$$$$| $$\$$ $$ $$| $$$$$$$\| $$  | $$   
#     | $$    | $$  | $$| $$ \$$$| $$| $$__/ $$| $$__/ $$   
#     | $$    | $$  | $$| $$  \$ | $$| $$    $$ \$$    $$   
#      \$$     \$$   \$$ \$$      \$$ \$$$$$$$   \$$$$$$    
#                                                           
#        Version 4.2.0 Revision 14791 Hash a8d1f41          
#                        MPI Build                          
#                http://www.yambo-code.org                  
#
# Absorption @ Q(1) [q->0 direction] :0.5774E-5 0.5774E-5 0.5774E-5
#
#
# - Energies      are  Analyt. E
# - Wavefunctions are Teter 93(XC)
#
# - The Green`s function is Retarded -
# - Using the Length Gauge -
# - [r,Vnl] *is* included -
#
#   BSK|Identifier              :2096
#      |Dimension               :32
#      |Bands                   :7 - 10
#      |Exchange           [res]: yes
#      |Correlation        [res]: yes
#      |Kernel`s coupling       : no
#      |Exchange           [cpl]: no
#      |Correlation        [cpl]: no
#      |W interaction is bare   : no
#      |ALDA kernel in R-space  : no
#      |RL vectors    [exchange]:51
#      |RL vectors [correlation]:51
#      |E/h energy range    [ev]:-1.000000 - -1.000000
#      |Coupling range     [o/o]: 100.0000 -  100.0000
#    W |Interaction is diagonal : no
#      |Matrix size             :51
#      |Bands                   :1 - 60
#      |e/h energy range    [ev]:-1.000000 - -1.000000
#      |Poles              [o/o]: 100.0000
#      |RL vectors in the sum   :3473
#      |[r,Vnl] included        : yes
#      |Field direction         :0.1000E-4  0.000000  0.000000
#      |Coulomb Cutoff          :none
#      |xc-Kernel               :none
#   RIM|RL components      [col]:0
#      |Random points      [col]:0
#
#    E/ev[1]      EPS-Im[2]    EPS-Re[3]    EPSo-Im[4]   EPSo-Re[5]
#
    4.000       0.1144E-2     1.232       0.2113E-1     5.751   
    4.010       0.1151E-2     1.233       0.2126E-1     5.760   
    4.020       0.1159E-2     1.233       0.2139E-1     5.768   
    4.030       0.1166E-2     1.234       0.2152E-1     5.777   
    4.040       0.1174E-2     1.234       0.2166E-1     5.786   
    4.050       0.1182E-2     1.234       0.2179E-1     5.794   
    4.060       0.1189E-2     1.235       0.2192E-1     5.803   
    4.070       0.1197E-2     1.235       0.2206E-1     5.812   
    4.080       0.1205E-2     1.236       0.2220E-1     5.821   
    4.090       0.1213E-2     1.236       0.2233E-1     5.830   
    4.100       0.1221E-2     1.237       0.2247E-1     5.839   
    4.110       0.1229E-2     1.237       0.2261E-1     5.848   
    4.120       0.1237E-2     1.238       0.2275E-1     5.857   
    4.130       0.1245E-2     1.238       0.2290E-1     5.866   
    4.140       0.1254E-2     1.239       0.2304E-1     5.875   
    4.150       0.1262E-2     1.239       0.2318E-1     5.884   
    4.160       0.1270E-2     1.240       0.2333E-1     5.894   
    4.170       0.1279E-2     1.240       0.2347E-1     5.903   
    4.180       0.1287E-2     1.241       0.2362E-1     5.913   
    4.190       0.1296E-2     1.241       0.2377E-1     5.922   
    4.201       0.1305E-2     1.242       0.2392E-1     5.932   
    4.211       0.1314E-2     1.242       0.2407E-1     5.941   
    4.221       0.1323E-2     1.243       0.2423E-1     5.951   
    4.231       0.1331E-2     1.244       0.2438E-1     5.961   
    4.241       0.1341E-2     1.244       0.2453E-1     5.971   
    4.251       0.1350E-2     1.245       0.2469E-1     5.980   
    4.261       0.1359E-2     1.245       0.2485E-1     5.990   
    4.271       0.1368E-2     1.246       0.2501E-1     6.000   
    4.281       0.1377E-2     1.246       0.2517E-1     6.010   
    4.291       0.1387E-2     1.247       0.2533E-1     6.020   
    4.301       0.1396E-2     1.247       0.2549E-1     6.031   
    4.311       0.1406E-2     1.248       0.2566E-1     6.041   
    4.321       0.1416E-2     1.248       0.2582E-1     6.051   
    4.331       0.1426E-2     1.249       0.2599E-1     6.062   
    4.341       0.1435E-2     1.250       0.2616E-1     6.072   
    4.351       0.1445E-2     1.250       0.2633E-1     6.083   
    4.361       0.1456E-2     1.251       0.2650E-1     6.093   
    4.371       0.1466E-2     1.251       0.2667E-1     6.104   
    4.381       0.1476E-2     1.252       0.2685E-1     6.115   
    4.391       0.1486E-2     1.253       0.2702E-1     6.125   
    4.401       0.1497E-2     1.253       0.2720E-1     6.136   
    4.411       0.1507E-2     1.254       0.2738E-1     6.147   
    4.421       0.1518E-2     1.254       0.2756E-1     6.158   
    4.431       0.1529E-2     1.255       0.2774E-1     6.169   
    4.441       0.1540E-2     1.256       0.2793E-1     6.180   
    4.451       0.1551E-2     1.256       0.2811E-1     6.192   
    4.461       0.1562E-2     1.257       0.2830E-1     6.203   
    4.471       0.1573E-2     1.257       0.2849E-1     6.214   
    4.481       0.1584E-2     1.258       0.2868E-1     6.226   
    4.491       0.1596E-2     1.259       0.2887E-1     6.237   
    4.501       0.1607E-2     1.259       0.2906E-1     6.249   
    4.511       0.1619E-2     1.260       0.2926E-1     6.261   
    4.521       0.1630E-2     1.261       0.2946E-1     6.272   
    4.531       0.1642E-2     1.261       0.2966E-1     6.284   
    4.541       0.1654E-2     1.262       0.2986E-1     6.296   
    4.551       0.1666E-2     1.263       0.3006E-1     6.308   
    4.561       0.1678E-2     1.263       0.3026E-1     6.320   
    4.571       0.1691E-2     1.264       0.3047E-1     6.333   
    4.581       0.1703E-2     1.265       0.3068E-1     6.345   
    4.591       0.1716E-2     1.265       0.3089E-1     6.357   
    4.602       0.1729E-2     1.266       0.3110E-1     6.370   
    4.612       0.1741E-2     1.267       0.3132E-1     6.382   
    4.622       0.1754E-2     1.267       0.3153E-1     6.395   
    4.632       0.1767E-2     1.268       0.3175E-1     6.407   
    4.642       0.1781E-2     1.269       0.3197E-1     6.420   
    4.652       0.1794E-2     1.270       0.3219E-1     6.433   
    4.662       0.1808E-2     1.270       0.3242E-1     6.446   
    4.672       0.1821E-2     1.271       0.3264E-1     6.459   
    4.682       0.1835E-2     1.272       0.3287E-1     6.472   
    4.692       0.1849E-2     1.272       0.3310E-1     6.485   
    4.702       0.1863E-2     1.273       0.3334E-1     6.499   
    4.712       0.1877E-2     1.274       0.3357E-1     6.512   
    4.722       0.1892E-2     1.275       0.3381E-1     6.526   
    4.732       0.1906E-2     1.276       0.3405E-1     6.539   
    4.742       0.1921E-2     1.276       0.3429E-1     6.553   
    4.752       0.1936E-2     1.277       0.3454E-1     6.567   
    4.762       0.1951E-2     1.278       0.3478E-1     6.581   
    4.772       0.1966E-2     1.279       0.3503E-1     6.595   
    4.782       0.1981E-2     1.279       0.3529E-1     6.609   
    4.792       0.1997E-2     1.280       0.3554E-1     6.623   
    4.802       0.2012E-2     1.281       0.3580E-1     6.637   
    4.812       0.2028E-2     1.282       0.3606E-1     6.652   
    4.822       0.2044E-2     1.283       0.3632E-1     6.666   
    4.832       0.2061E-2     1.283       0.3659E-1     6.681   
    4.842       0.2077E-2     1.284       0.3685E-1     6.695   
    4.852       0.2093E-2     1.285       0.3712E-1     6.710   
    4.862       0.2110E-2     1.286       0.3740E-1     6.725   
    4.872       0.2127E-2     1.287       0.3767E-1     6.740   
    4.882       0.2144E-2     1.288       0.3795E-1     6.755   
    4.892       0.2162E-2     1.289       0.3823E-1     6.771   
    4.902       0.2179E-2     1.289       0.3852E-1     6.786   
    4.912       0.2197E-2     1.290       0.3880E-1     6.802   
    4.922       0.2215E-2     1.291       0.3910E-1     6.817   
    4.932       0.2233E-2     1.292       0.3939E-1     6.833   
    4.942       0.2251E-2     1.293       0.3969E-1     6.849   
    4.952       0.2270E-2     1.294       0.3999E-1     6.865   
    4.962       0.2288E-2     1.295       0.4029E-1     6.881   
    4.972       0.2307E-2     1.296       0.4059E-1     6.897   
    4.982       0.2327E-2     1.297       0.4090E-1     6.913   
    4.992       0.2346E-2     1.298       0.4122E-1     6.930   
    5.003       0.2366E-2     1.299       0.4153E-1     6.946   
    5.013       0.2386E-2     1.299       0.4185E-1     6.963   
    5.023       0.2406E-2     1.300       0.4217E-1     6.980   
    5.033       0.2426E-2     1.301       0.4250E-1     6.997   
    5.043       0.2447E-2     1.302       0.4283E-1     7.014   
    5.053       0.2468E-2     1.303       0.4316E-1     7.031   
    5.063       0.2489E-2     1.304       0.4350E-1     7.049   
    5.073       0.2510E-2     1.305       0.4384E-1     7.066   
    5.083       0.2532E-2     1.306       0.4419E-1     7.084   
    5.093       0.2554E-2     1.307       0.4454E-1     7.102   
    5.103       0.2576E-2     1.308       0.4489E-1     7.120   
    5.113       0.2598E-2     1.309       0.4525E-1     7.138   
    5.123       0.2621E-2     1.310       0.4561E-1     7.156   
    5.133       0.2644E-2     1.312       0.4597E-1     7.174   
    5.143       0.2667E-2     1.313       0.4634E-1     7.193   
    5.153       0.2691E-2     1.314       0.4671E-1     7.211   
    5.163       0.2715E-2     1.315       0.4709E-1     7.230   
    5.173       0.2739E-2     1.316       0.4747E-1     7.249   
    5.183       0.2764E-2     1.317       0.4786E-1     7.268   
    5.193       0.2788E-2     1.318       0.4825E-1     7.288   
    5.203       0.2814E-2     1.319       0.4864E-1     7.307   
    5.213       0.2839E-2     1.320       0.4904E-1     7.327   
    5.223       0.2865E-2     1.321       0.4945E-1     7.346   
    5.233       0.2891E-2     1.323       0.4985E-1     7.366   
    5.243       0.2917E-2     1.324       0.5027E-1     7.386   
    5.253       0.2944E-2     1.325       0.5069E-1     7.406   
    5.263       0.2971E-2     1.326       0.5111E-1     7.427   
    5.273       0.2999E-2     1.327       0.5154E-1     7.447   
    5.283       0.3027E-2     1.329       0.5197E-1     7.468   
    5.293       0.3055E-2     1.330       0.5241E-1     7.489   
    5.303       0.3084E-2     1.331       0.5286E-1     7.510   
    5.313       0.3113E-2     1.332       0.5331E-1     7.532   
    5.323       0.3142E-2     1.333       0.5376E-1     7.553   
    5.333       0.3172E-2     1.335       0.5422E-1     7.575   
    5.343       0.3203E-2     1.336       0.5469E-1     7.596   
    5.353       0.3233E-2     1.337       0.5516E-1     7.618   
    5.363       0.3264E-2     1.339       0.5564E-1     7.641   
    5.373       0.3296E-2     1.340       0.5613E-1     7.663   
    5.383       0.3328E-2     1.341       0.5662E-1     7.686   
    5.393       0.3360E-2     1.343       0.5711E-1     7.708   
    5.404       0.3393E-2     1.344       0.5762E-1     7.731   
    5.414       0.3427E-2     1.345       0.5812E-1     7.755   
    5.424       0.3461E-2     1.347       0.5864E-1     7.778   
    5.434       0.3495E-2     1.348       0.5916E-1     7.802   
    5.444       0.3530E-2     1.350       0.5969E-1     7.826   
    5.454       0.3565E-2     1.351       0.6023E-1     7.850   
    5.464       0.3601E-2     1.352       0.6077E-1     7.874   
    5.474       0.3637E-2     1.354       0.6132E-1     7.898   
    5.484       0.3674E-2     1.355       0.6188E-1     7.923   
    5.494       0.3712E-2     1.357       0.6244E-1     7.948   
    5.504       0.3750E-2     1.358       0.6302E-1     7.973   
    5.514       0.3788E-2     1.360       0.6360E-1     7.998   
    5.524       0.3827E-2     1.361       0.6418E-1     8.024   
    5.534       0.3867E-2     1.363       0.6478E-1     8.050   
    5.544       0.3908E-2     1.364       0.6538E-1     8.076   
    5.554       0.3949E-2     1.366       0.6599E-1     8.102   
    5.564       0.3990E-2     1.368       0.6661E-1     8.129   
    5.574       0.4032E-2     1.369       0.6724E-1     8.156   
    5.584       0.4075E-2     1.371       0.6788E-1     8.183   
    5.594       0.4119E-2     1.372       0.6853E-1     8.210   
    5.604       0.4163E-2     1.374       0.6918E-1     8.238   
    5.614       0.4208E-2     1.376       0.6985E-1     8.266   
    5.624       0.4254E-2     1.377       0.7052E-1     8.294   
    5.634       0.4300E-2     1.379       0.7120E-1     8.322   
    5.644       0.4347E-2     1.381       0.7189E-1     8.351   
    5.654       0.4395E-2     1.383       0.7260E-1     8.380   
    5.664       0.4444E-2     1.384       0.7331E-1     8.409   
    5.674       0.4493E-2     1.386       0.7403E-1     8.439   
    5.684       0.4543E-2     1.388       0.7477E-1     8.468   
    5.694       0.4595E-2     1.390       0.7551E-1     8.499   
    5.704       0.4646E-2     1.392       0.7626E-1     8.529   
    5.714       0.4699E-2     1.394       0.7703E-1     8.560   
    5.724       0.4753E-2     1.396       0.7781E-1     8.591   
    5.734       0.4808E-2     1.397       0.7860E-1     8.622   
    5.744       0.4863E-2     1.399       0.7940E-1     8.654   
    5.754       0.4919E-2     1.401       0.8021E-1     8.686   
    5.764       0.4977E-2     1.403       0.8103E-1     8.718   
    5.774       0.5035E-2     1.405       0.8187E-1     8.751   
    5.784       0.5095E-2     1.407       0.8272E-1     8.784   
    5.794       0.5155E-2     1.409       0.8358E-1     8.817   
    5.805       0.5217E-2     1.411       0.8446E-1     8.851   
    5.815       0.5279E-2     1.414       0.8535E-1     8.885   
    5.825       0.5343E-2     1.416       0.8625E-1     8.919   
    5.835       0.5408E-2     1.418       0.8717E-1     8.954   
    5.845       0.5474E-2     1.420       0.8810E-1     8.989   
    5.855       0.5541E-2     1.422       0.8905E-1     9.025   
    5.865       0.5609E-2     1.424       0.9001E-1     9.060   
    5.875       0.5679E-2     1.427       0.9099E-1     9.097   
    5.885       0.5750E-2     1.429       0.9198E-1     9.133   
    5.895       0.5822E-2     1.431       0.9299E-1     9.170   
    5.905       0.5896E-2     1.434       0.9402E-1     9.208   
    5.915       0.5971E-2     1.436       0.9506E-1     9.246   
    5.925       0.6047E-2     1.438       0.9612E-1     9.284   
    5.935       0.6125E-2     1.441       0.9720E-1     9.323   
    5.945       0.6204E-2     1.443       0.9829E-1     9.362   
    5.955       0.6285E-2     1.446       0.9940E-1     9.402   
    5.965       0.6367E-2     1.448       0.1005        9.442   
    5.975       0.6451E-2     1.451       0.1017        9.482   
    5.985       0.6537E-2     1.454       0.1029        9.523   
    5.995       0.6624E-2     1.456       0.1040        9.565   
    6.005       0.6714E-2     1.459       0.1053        9.607   
    6.015       0.6804E-2     1.462       0.1065        9.649   
    6.025       0.6897E-2     1.464       0.1077        9.692   
    6.035       0.6992E-2     1.467       0.1090        9.736   
    6.045       0.7088E-2     1.470       0.1103        9.779   
    6.055       0.7187E-2     1.473       0.1116        9.824   
    6.065       0.7287E-2     1.476       0.1130        9.869   
    6.075       0.7390E-2     1.479       0.1144        9.915   
    6.085       0.7494E-2     1.482       0.1157        9.961   
    6.095       0.7601E-2     1.485       0.1172        10.01   
    6.105       0.7711E-2     1.488       0.1186        10.05   
    6.115       0.7822E-2     1.491       0.1201        10.10   
    6.125       0.7936E-2     1.494       0.1216        10.15   
    6.135       0.8053E-2     1.497       0.1231        10.20   
    6.145       0.8172E-2     1.500       0.1247        10.25   
    6.155       0.8293E-2     1.504       0.1262        10.30   
    6.165       0.8418E-2     1.507       0.1279        10.35   
    6.175       0.8545E-2     1.511       0.1295        10.40   
    6.185       0.8675E-2     1.514       0.1312        10.45   
    6.195       0.8808E-2     1.517       0.1329        10.51   
    6.206       0.8944E-2     1.521       0.1346        10.56   
    6.216       0.9083E-2     1.525       0.1364        10.62   
    6.226       0.9225E-2     1.528       0.1382        10.67   
    6.236       0.9371E-2     1.532       0.1401        10.73   
    6.246       0.9520E-2     1.536       0.1420        10.78   
    6.256       0.9672E-2     1.540       0.1439        10.84   
    6.266       0.9829E-2     1.544       0.1458        10.90   
    6.276       0.9989E-2     1.548       0.1478        10.96   
    6.286       0.1015E-1     1.552       0.1499        11.02   
    6.296       0.1032E-1     1.556       0.1520        11.08   
    6.306       0.1049E-1     1.560       0.1541        11.14   
    6.316       0.1067E-1     1.564       0.1563        11.20   
    6.326       0.1085E-1     1.568       0.1585        11.26   
    6.336       0.1104E-1     1.573       0.1608        11.33   
    6.346       0.1123E-1     1.577       0.1631        11.39   
    6.356       0.1142E-1     1.582       0.1655        11.46   
     6.36591      0.01162      1.58640      0.16789     11.52510
     6.37594      0.01183      1.59110      0.17036     11.59288
     6.38596      0.01204      1.59588      0.17289     11.66165
     6.39599      0.01226      1.60074      0.17548     11.73145
     6.40602      0.01248      1.60570      0.17812     11.80229
     6.41604      0.01271      1.61074      0.18082     11.87421
     6.42607      0.01294      1.61588      0.18359     11.94722
     6.43609      0.01318      1.62111      0.18642     12.02135
     6.44612      0.01343      1.62644      0.18932     12.09663
     6.45614      0.01369      1.63187      0.19228     12.17308
     6.46617      0.01395      1.63741      0.19532     12.25073
     6.47619      0.01422      1.64305      0.19842     12.32961
     6.48622      0.01450      1.64880      0.20160     12.40975
     6.49624      0.01478      1.65466      0.20486     12.49118
     6.50627      0.01508      1.66064      0.20820     12.57393
     6.51629      0.01538      1.66674      0.21162     12.65803
     6.52632      0.01569      1.67297      0.21513     12.74353
     6.53634      0.01602      1.67932      0.21872     12.83044
     6.54637      0.01635      1.68580      0.22241     12.91881
     6.55639      0.01669      1.69241      0.22619     13.00867
     6.56642      0.01705      1.69917      0.23007     13.10006
     6.57644      0.01741      1.70607      0.23404     13.19303
     6.58647      0.01779      1.71311      0.23813     13.28761
     6.59649      0.01818      1.72031      0.24232     13.38384
     6.60652      0.01858      1.72767      0.24662     13.48177
     6.61654      0.01899      1.73519      0.25104     13.58146
     6.62657      0.01942      1.74288      0.25558     13.68292
     6.63659      0.01987      1.75075      0.26024     13.78623
     6.64662      0.02032      1.75879      0.26504     13.89144
     6.65664      0.02080      1.76702      0.26996     13.99859
     6.66667      0.02129      1.77545      0.27503     14.10774
     6.67669      0.02180      1.78407      0.28024     14.21894
     6.68672      0.02233      1.79290      0.28561     14.33227
     6.69674      0.02288      1.80195      0.29113     14.44777
     6.70677      0.02344      1.81122      0.29681     14.56550
     6.71679      0.02403      1.82072      0.30266     14.68555
     6.72682      0.02464      1.83046      0.30869     14.80797
     6.73684      0.02528      1.84045      0.31490     14.93284
     6.74687      0.02594      1.85069      0.32130     15.06022
     6.75689      0.02662      1.86121      0.32790     15.19021
     6.76692      0.02734      1.87200      0.33471     15.32289
     6.77694      0.02808      1.88309      0.34173     15.45831
     6.78697      0.02885      1.89447      0.34898     15.59661
     6.79699      0.02965      1.90617      0.35646     15.73784
     6.80702      0.03049      1.91820      0.36419     15.88212
     6.81704      0.03137      1.93057      0.37218     16.02953
     6.82707      0.03228      1.94330      0.38044     16.18019
     6.83709      0.03323      1.95640      0.38897     16.33422
     6.84712      0.03423      1.96989      0.39780     16.49171
     6.85714      0.03527      1.98378      0.40694     16.65279
     6.86717      0.03636      1.99810      0.41639     16.81758
     6.87719      0.03750      2.01286      0.42619     16.98622
     6.88722      0.03869      2.02809      0.43634     17.15885
     6.89724      0.03994      2.04380      0.44686     17.33560
     6.90727      0.04125      2.06003      0.45777     17.51664
     6.91729      0.04263      2.07679      0.46909     17.70211
     6.92732      0.04408      2.09411      0.48084     17.89218
     6.93734      0.04561      2.11202      0.49305     18.08704
     6.94737      0.04721      2.13056      0.50573     18.28688
     6.95739      0.04890      2.14976      0.51891     18.49187
     6.96742      0.05068      2.16964      0.53262     18.70224
     6.97744      0.05256      2.19025      0.54690     18.91819
     6.98747      0.05455      2.21163      0.56176     19.13995
     6.99749      0.05666      2.23383      0.57724     19.36777
     7.00752      0.05888      2.25688      0.59338     19.60189
     7.01754      0.06124      2.28085      0.61022     19.84260
     7.02757      0.06375      2.30578      0.62780     20.09017
     7.03759      0.06641      2.33173      0.64616     20.34488
     7.04762      0.06924      2.35877      0.66536     20.60710
     7.05764      0.07225      2.38697      0.68543     20.87715
     7.06767      0.07547      2.41641      0.70644     21.15539
     7.07769      0.07890      2.44716      0.72845     21.44220
     7.08772      0.08258      2.47932      0.75153     21.73798
     7.09774      0.08651      2.51299      0.77573     22.04319
     7.10777      0.09074      2.54827      0.80115     22.35827
     7.11779      0.09528      2.58527      0.82786     22.68373
     7.12782      0.10017      2.62414      0.85595     23.02010
     7.13785      0.10545      2.66502      0.88552     23.36794
     7.14787      0.11115      2.70805      0.91669     23.72786
     7.15790      0.11732      2.75343      0.94956     24.10051
     7.16792      0.12403      2.80134      0.98426     24.48660
     7.17795      0.13132      2.85199      1.02095     24.88687
     7.18797      0.13928      2.90564      1.05976     25.30213
     7.19800      0.14798      2.96255      1.10088     25.73327
     7.20802      0.15752      3.02303      1.14449     26.18123
     7.21804      0.16801      3.08741      1.19079     26.64698
     7.22807      0.17958      3.15609      1.24003     27.13172
     7.23810      0.19239      3.22952      1.29246     27.63660
     7.24812      0.20661      3.30820      1.34835     28.16295
     7.25815      0.22246      3.39269      1.40804     28.71216
     7.26817      0.24020      3.48368      1.47187     29.28584
     7.27820      0.26015      3.58191      1.54024     29.88564
     7.28822      0.28268      3.68830      1.61361     30.51344
     7.29825      0.30825      3.80387      1.69248     31.17131
     7.30827      0.33744      3.92986      1.77741     31.86148
     7.31830      0.37096      4.06772      1.86906     32.58646
     7.32832      0.40970      4.21917      1.96817     33.34899
     7.33835      0.45481      4.38627      2.07557     34.15209
     7.34837      0.50775      4.57155      2.19225     34.99926
     7.35840      0.57044      4.77804      2.31931     35.89426
     7.36842      0.64540      5.00949      2.45804     36.84134
     7.37845      0.73605      5.27052      2.60994     37.84529
     7.38847      0.84703      5.56693      2.77677     38.91148
     7.39850      0.98488      5.90595      2.96056     40.04602
     7.40852      1.15889      6.29667      3.16374     41.25586
     7.41855      1.38246      6.75034      3.38918     42.54887
     7.42857      1.67472      7.28089      3.64030     43.93414
     7.43860      2.06354      7.90739      3.92122     45.42212
     7.44862      2.59602      8.65663      4.23693     47.02488
     7.45865      3.35446      9.55662      4.59350     48.75650
     7.46867      4.47677     10.62578      4.99840     50.63345
     7.47870      6.20143     11.84212      5.46093     52.67513
     7.48872      8.93785     13.03155      5.99271     54.90456
     7.49875     13.27579     13.53282      6.60848     57.34927
     7.50877     19.38000     11.50875      7.32714     60.04234
     7.51880     24.56071      4.45996      8.17325     63.02392
     7.52882     23.43270     -5.09319      9.17917     66.34319
     7.53885     17.39783    -10.48956     10.38809     70.06055
     7.54887     11.74719    -11.45548     11.85923     74.25231
     7.55890      7.96057    -10.61978     13.67449     79.01334
     7.56892      5.58798     -9.38537     15.95038     84.46429
     7.57895      4.07938     -8.20654     18.85650     90.75914
     7.58897      3.08490     -7.18936     22.64667     98.09448
      7.5990       2.4037      -6.3359      27.7127     106.7189
      7.6090       1.9204      -5.6228      34.6795     116.9345
      7.6190       1.5667      -5.0239      44.5835     129.0730
      7.6291       1.3009      -4.5168      59.1966     143.3592
      7.6391       1.0966      -4.0836      81.6197     159.4426
      7.6491       0.9363      -3.7102     117.1350     174.8447
      7.6591       0.8084      -3.3856     173.0109     180.4162
      7.6692       0.7049      -3.1012     249.3437     151.8200
      7.6792       0.6198      -2.8501     307.5150      60.9309
      7.6892       0.5492      -2.6271     284.9653     -51.0432
      7.6992       0.4899      -2.4277     210.5064    -107.0620
      7.7093       0.4397      -2.2485     145.4663    -112.1864
      7.7193       0.3968      -2.0866     103.4746     -97.6361
     7.72932      0.35981     -1.93965     78.53656    -78.62363
     7.73935      0.32776     -1.80572     64.53709    -59.80726
     7.74937      0.29980     -1.68317     58.03291    -42.10941
     7.75940      0.27525     -1.57062     57.71675    -25.45590
     7.76942      0.25359     -1.46691     64.00020     -9.95427
     7.77945      0.23439     -1.37105     78.93112      2.77649
      7.7895       0.2173      -1.2822     105.0407       6.6606
      7.7995       0.2020      -1.1996     137.4140     -11.8784
      7.8095       0.1882      -1.1226     149.6255     -57.8136
      7.8195       0.1758      -1.0507     124.4580     -98.2907
      7.8296       0.1646      -0.9835      88.4472    -110.6874
      7.8396       0.1544      -0.9203      61.3057    -106.4771
     7.84962      0.14516     -0.86102     43.82019    -97.39182
     7.85965      0.13671     -0.80516     32.66893    -88.00670
     7.86967      0.12897     -0.75248     25.32479    -79.57470
     7.87970      0.12187     -0.70271     20.28926    -72.27455
     7.88972      0.11533     -0.65562     16.70286    -65.99184
     7.89975      0.10931     -0.61100     14.06262    -60.55797
     7.90977      0.10375     -0.56866     12.06405    -55.81728
     7.91980      0.09860     -0.52843     10.51542    -51.63970
     7.92982      0.09382     -0.49016      9.29245    -47.92210
     7.93985      0.08939     -0.45370      8.31167    -44.58216
     7.94987      0.08526     -0.41894      7.51553    -41.55424
     7.95990      0.08140     -0.38576      6.86347    -38.78540
     7.96992      0.07781     -0.35405      6.32633    -36.23251
     7.97995      0.07444     -0.32371      5.88284    -33.85985
     7.98997      0.07129     -0.29467      5.51736    -31.63736
     8.00000      0.06834     -0.26683      5.21840    -29.53931
# 
# 10/19/2017 at 14:17 YAMBO @ 1oO-367 [start]
# 10/19/2017 at 14:17                 [end]
#  
# Timing   [Min/Max/Average]: 11s/11s/11s
#
# .-Input file : yambo.in
# | optics                         # [R OPT] Optics
# | bse                            # [R BSE] Bethe Salpeter Equation.
# | bsk                            # [R BSK] Bethe Salpeter Equation kernel
# | bss                            # [R BSS] Bethe Salpeter Equation solver
# | em1s                           # [R Xs] Static Inverse Dielectric Matrix
# | BoseTemp= 0.000000     eV      # Bosonic Temperature
# | FFTGvecs=  3473        RL      # [FFT] Plane-waves
# | Chimod= "hartree"              # [X] IP/Hartree/ALDA/LRC/BSfxc
# | BSEmod= "retarded"             # [BSE] resonant/retarded/coupling
# | BSKmod= "SEX"                  # [BSE] IP/Hartree/HF/ALDA/SEX/BSfxc
# | BSSmod= "s"                    # [BSS] (h)aydock/(d)iagonalization/(i)nversion/(t)ddft`
# | BSENGexx=  51          RL      # [BSK] Exchange components
# | BSENGBlk=  51          RL      # [BSK] Screened interaction block size
# | #WehCpl                        # [BSK] eh interaction included also in coupling
# | % KfnQP_E
# |  2.400000 | 1.000000 | 1.000000 |        # [EXTQP BSK BSS] E parameters  (c/v) eV|adim|adim
# | %
# | % BEnRange
# |  4.000000 | 8.000000 | eV      # [BSS] Energy range
# | %
# | % BDmRange
# |   0.02500 |  0.02500 | eV      # [BSS] Damping range
# | %
# | BEnSteps=  400                 # [BSS] Energy steps
# | % BLongDir
# | 0.5774E-5 |0.5774E-5 |0.5774E-5 |        # [BSS] [cc] Electric Field
# | %
# | % BSEBands
# |   7 | 10 |                     # [BSK] Bands range
# | %
# | BSSNEig=  5                    # [SLEPC] Number of eigenvalues to compute
# | BSSEnTarget= 7.500000  eV      # [SLEPC] Target energy to find eigenvalues
# | % BndsRnXs
# |    1 |  60 |                   # [Xs] Polarization function bands
# | %
# | NGsBlkXs=  51          RL      # [Xs] Response block size
# | % DmRngeXs
# | 0.1000E-2 |0.1000E-2 | eV      # [Xs] Damping range
# | %
# | % LongDrXs
# | 0.1000E-4 | 0.000    | 0.000    |        # [Xs] [cc] Electric Field
# | %
