#                                                           
# :::   :::   :::     ::::    ::::  :::::::::   ::::::::    
# :+:   :+: :+: :+:   +:+:+: :+:+:+ :+:    :+: :+:    :+:   
#  +:+ +:+ +:+   +:+  +:+ +:+:+ +:+ +:+    +:+ +:+    +:+   
#   +#++: +#++:++#++: +#+  +:+  +#+ +#++:++#+  +#+    +:+   
#    +#+  +#+     +#+ +#+       +#+ +#+    +#+ +#+    +#+   
#    #+#  #+#     #+# #+#       #+# #+#    #+# #+#    #+#   
#    ###  ###     ### ###       ### #########   ########    
#                                                           
#                                                           
#        Version 4.3.0 Revision 15338 Hash 3cdf17c          
#                      MPI+SLK Build                        
#                http://www.yambo-code.org                  
#
# Absorption @ Q(3) [iku] : 0.0000000  0.0000000  0.4999999
#
#
# - Energies      are Teter 93(XC)
# - Wavefunctions are Teter 93(XC)
#
# - The Green`s function is Resonant -
#
#    E/ev[1]       EPS-Im[2]     EPS-Re[3]
#
   -10.000       0.15385E-2     1.2910   
   -9.9900       0.15402E-2     1.2911   
   -9.9800       0.15419E-2     1.2913   
   -9.9700       0.15436E-2     1.2914   
   -9.9600       0.15453E-2     1.2916   
   -9.9500       0.15470E-2     1.2917   
   -9.9400       0.15487E-2     1.2919   
   -9.9300       0.15504E-2     1.2920   
   -9.9200       0.15521E-2     1.2922   
   -9.9100       0.15539E-2     1.2923   
   -9.9000       0.15556E-2     1.2925   
   -9.8900       0.15573E-2     1.2927   
   -9.8800       0.15591E-2     1.2928   
   -9.8700       0.15608E-2     1.2930   
   -9.8600       0.15625E-2     1.2931   
   -9.8500       0.15643E-2     1.2933   
   -9.8400       0.15660E-2     1.2934   
   -9.8300       0.15678E-2     1.2936   
   -9.8200       0.15695E-2     1.2938   
   -9.8100       0.15713E-2     1.2939   
   -9.8000       0.15730E-2     1.2941   
   -9.7900       0.15748E-2     1.2942   
   -9.7800       0.15765E-2     1.2944   
   -9.7700       0.15783E-2     1.2945   
   -9.7600       0.15801E-2     1.2947   
   -9.7500       0.15818E-2     1.2949   
   -9.7400       0.15836E-2     1.2950   
   -9.7300       0.15854E-2     1.2952   
   -9.7200       0.15872E-2     1.2953   
   -9.7100       0.15890E-2     1.2955   
   -9.7000       0.15907E-2     1.2956   
   -9.6900       0.15925E-2     1.2958   
   -9.6800       0.15943E-2     1.2960   
   -9.6700       0.15961E-2     1.2961   
   -9.6600       0.15979E-2     1.2963   
   -9.6500       0.15997E-2     1.2964   
   -9.6400       0.16015E-2     1.2966   
   -9.6300       0.16033E-2     1.2968   
   -9.6200       0.16052E-2     1.2969   
   -9.6100       0.16070E-2     1.2971   
   -9.6000       0.16088E-2     1.2972   
   -9.5900       0.16106E-2     1.2974   
   -9.5800       0.16124E-2     1.2976   
   -9.5700       0.16143E-2     1.2977   
   -9.5600       0.16161E-2     1.2979   
   -9.5500       0.16179E-2     1.2981   
   -9.5400       0.16198E-2     1.2982   
   -9.5300       0.16216E-2     1.2984   
   -9.5200       0.16235E-2     1.2985   
   -9.5100       0.16253E-2     1.2987   
   -9.5000       0.16272E-2     1.2989   
   -9.4900       0.16290E-2     1.2990   
   -9.4800       0.16309E-2     1.2992   
   -9.4700       0.16327E-2     1.2994   
   -9.4600       0.16346E-2     1.2995   
   -9.4500       0.16365E-2     1.2997   
   -9.4400       0.16383E-2     1.2998   
   -9.4300       0.16402E-2     1.3000   
   -9.4200       0.16421E-2     1.3002   
   -9.4100       0.16440E-2     1.3003   
   -9.4000       0.16458E-2     1.3005   
   -9.3900       0.16477E-2     1.3007   
   -9.3800       0.16496E-2     1.3008   
   -9.3700       0.16515E-2     1.3010   
   -9.3600       0.16534E-2     1.3012   
   -9.3500       0.16553E-2     1.3013   
   -9.3400       0.16572E-2     1.3015   
   -9.3300       0.16591E-2     1.3017   
   -9.3200       0.16610E-2     1.3018   
   -9.3100       0.16630E-2     1.3020   
   -9.3000       0.16649E-2     1.3022   
   -9.2900       0.16668E-2     1.3023   
   -9.2800       0.16687E-2     1.3025   
   -9.2700       0.16707E-2     1.3027   
   -9.2600       0.16726E-2     1.3028   
   -9.2500       0.16745E-2     1.3030   
   -9.2400       0.16765E-2     1.3032   
   -9.2300       0.16784E-2     1.3033   
   -9.2200       0.16804E-2     1.3035   
   -9.2100       0.16823E-2     1.3037   
   -9.2000       0.16843E-2     1.3038   
   -9.1900       0.16862E-2     1.3040   
   -9.1800       0.16882E-2     1.3042   
   -9.1700       0.16901E-2     1.3043   
   -9.1600       0.16921E-2     1.3045   
   -9.1500       0.16941E-2     1.3047   
   -9.1400       0.16961E-2     1.3048   
   -9.1300       0.16980E-2     1.3050   
   -9.1200       0.17000E-2     1.3052   
   -9.1100       0.17020E-2     1.3054   
   -9.1000       0.17040E-2     1.3055   
   -9.0900       0.17060E-2     1.3057   
   -9.0800       0.17080E-2     1.3059   
   -9.0700       0.17100E-2     1.3060   
   -9.0600       0.17120E-2     1.3062   
   -9.0500       0.17140E-2     1.3064   
   -9.0400       0.17160E-2     1.3066   
   -9.0300       0.17180E-2     1.3067   
   -9.0200       0.17201E-2     1.3069   
   -9.0100       0.17221E-2     1.3071   
   -9.0000       0.17241E-2     1.3072   
   -8.9900       0.17261E-2     1.3074   
   -8.9800       0.17282E-2     1.3076   
   -8.9700       0.17302E-2     1.3078   
   -8.9600       0.17323E-2     1.3079   
   -8.9500       0.17343E-2     1.3081   
   -8.9400       0.17363E-2     1.3083   
   -8.9300       0.17384E-2     1.3085   
   -8.9200       0.17405E-2     1.3086   
   -8.9100       0.17425E-2     1.3088   
   -8.9000       0.17446E-2     1.3090   
   -8.8900       0.17467E-2     1.3091   
   -8.8800       0.17487E-2     1.3093   
   -8.8700       0.17508E-2     1.3095   
   -8.8600       0.17529E-2     1.3097   
   -8.8500       0.17550E-2     1.3098   
   -8.8400       0.17571E-2     1.3100   
   -8.8300       0.17591E-2     1.3102   
   -8.8200       0.17612E-2     1.3104   
   -8.8100       0.17633E-2     1.3106   
   -8.8000       0.17654E-2     1.3107   
   -8.7900       0.17676E-2     1.3109   
   -8.7800       0.17697E-2     1.3111   
   -8.7700       0.17718E-2     1.3113   
   -8.7600       0.17739E-2     1.3114   
   -8.7500       0.17760E-2     1.3116   
   -8.7400       0.17782E-2     1.3118   
   -8.7300       0.17803E-2     1.3120   
   -8.7200       0.17824E-2     1.3121   
   -8.7100       0.17846E-2     1.3123   
   -8.7000       0.17867E-2     1.3125   
   -8.6900       0.17889E-2     1.3127   
   -8.6800       0.17910E-2     1.3129   
   -8.6700       0.17932E-2     1.3130   
   -8.6600       0.17953E-2     1.3132   
   -8.6500       0.17975E-2     1.3134   
   -8.6400       0.17997E-2     1.3136   
   -8.6300       0.18018E-2     1.3138   
   -8.6200       0.18040E-2     1.3139   
   -8.6100       0.18062E-2     1.3141   
   -8.6000       0.18084E-2     1.3143   
   -8.5900       0.18106E-2     1.3145   
   -8.5800       0.18127E-2     1.3147   
   -8.5700       0.18149E-2     1.3148   
   -8.5600       0.18171E-2     1.3150   
   -8.5500       0.18194E-2     1.3152   
   -8.5400       0.18216E-2     1.3154   
   -8.5300       0.18238E-2     1.3156   
   -8.5200       0.18260E-2     1.3158   
   -8.5100       0.18282E-2     1.3159   
   -8.5000       0.18304E-2     1.3161   
   -8.4900       0.18327E-2     1.3163   
   -8.4800       0.18349E-2     1.3165   
   -8.4700       0.18371E-2     1.3167   
   -8.4600       0.18394E-2     1.3169   
   -8.4500       0.18416E-2     1.3170   
   -8.4400       0.18439E-2     1.3172   
   -8.4300       0.18462E-2     1.3174   
   -8.4200       0.18484E-2     1.3176   
   -8.4100       0.18507E-2     1.3178   
   -8.4000       0.18529E-2     1.3180   
   -8.3900       0.18552E-2     1.3181   
   -8.3800       0.18575E-2     1.3183   
   -8.3700       0.18598E-2     1.3185   
   -8.3600       0.18621E-2     1.3187   
   -8.3500       0.18644E-2     1.3189   
   -8.3400       0.18667E-2     1.3191   
   -8.3300       0.18690E-2     1.3193   
   -8.3200       0.18713E-2     1.3195   
   -8.3100       0.18736E-2     1.3196   
   -8.3000       0.18759E-2     1.3198   
   -8.2900       0.18782E-2     1.3200   
   -8.2800       0.18805E-2     1.3202   
   -8.2700       0.18829E-2     1.3204   
   -8.2600       0.18852E-2     1.3206   
   -8.2500       0.18875E-2     1.3208   
   -8.2400       0.18899E-2     1.3210   
   -8.2300       0.18922E-2     1.3211   
   -8.2200       0.18946E-2     1.3213   
   -8.2100       0.18969E-2     1.3215   
   -8.2000       0.18993E-2     1.3217   
   -8.1900       0.19016E-2     1.3219   
   -8.1800       0.19040E-2     1.3221   
   -8.1700       0.19064E-2     1.3223   
   -8.1600       0.19088E-2     1.3225   
   -8.1500       0.19112E-2     1.3227   
   -8.1400       0.19135E-2     1.3229   
   -8.1300       0.19159E-2     1.3230   
   -8.1200       0.19183E-2     1.3232   
   -8.1100       0.19207E-2     1.3234   
   -8.1000       0.19231E-2     1.3236   
   -8.0900       0.19256E-2     1.3238   
   -8.0800       0.19280E-2     1.3240   
   -8.0700       0.19304E-2     1.3242   
   -8.0600       0.19328E-2     1.3244   
   -8.0500       0.19352E-2     1.3246   
   -8.0400       0.19377E-2     1.3248   
   -8.0300       0.19401E-2     1.3250   
   -8.0200       0.19426E-2     1.3252   
   -8.0100       0.19450E-2     1.3254   
   -8.0000       0.19475E-2     1.3256   
   -7.9900       0.19499E-2     1.3258   
   -7.9800       0.19524E-2     1.3259   
   -7.9700       0.19549E-2     1.3261   
   -7.9600       0.19573E-2     1.3263   
   -7.9500       0.19598E-2     1.3265   
   -7.9400       0.19623E-2     1.3267   
   -7.9300       0.19648E-2     1.3269   
   -7.9200       0.19673E-2     1.3271   
   -7.9100       0.19698E-2     1.3273   
   -7.9000       0.19723E-2     1.3275   
   -7.8900       0.19748E-2     1.3277   
   -7.8800       0.19773E-2     1.3279   
   -7.8700       0.19798E-2     1.3281   
   -7.8600       0.19824E-2     1.3283   
   -7.8500       0.19849E-2     1.3285   
   -7.8400       0.19874E-2     1.3287   
   -7.8300       0.19900E-2     1.3289   
   -7.8200       0.19925E-2     1.3291   
   -7.8100       0.19951E-2     1.3293   
   -7.8000       0.19976E-2     1.3295   
   -7.7900       0.20002E-2     1.3297   
   -7.7800       0.20027E-2     1.3299   
   -7.7700       0.20053E-2     1.3301   
   -7.7600       0.20079E-2     1.3303   
   -7.7500       0.20105E-2     1.3305   
   -7.7400       0.20131E-2     1.3307   
   -7.7300       0.20157E-2     1.3309   
   -7.7200       0.20182E-2     1.3311   
   -7.7100       0.20209E-2     1.3313   
   -7.7000       0.20235E-2     1.3315   
   -7.6900       0.20261E-2     1.3317   
   -7.6800       0.20287E-2     1.3319   
   -7.6700       0.20313E-2     1.3321   
   -7.6600       0.20339E-2     1.3323   
   -7.6500       0.20366E-2     1.3325   
   -7.6400       0.20392E-2     1.3327   
   -7.6300       0.20419E-2     1.3329   
   -7.6200       0.20445E-2     1.3331   
   -7.6100       0.20472E-2     1.3333   
   -7.6000       0.20498E-2     1.3336   
   -7.5900       0.20525E-2     1.3338   
   -7.5800       0.20552E-2     1.3340   
   -7.5700       0.20579E-2     1.3342   
   -7.5600       0.20605E-2     1.3344   
   -7.5500       0.20632E-2     1.3346   
   -7.5400       0.20659E-2     1.3348   
   -7.5300       0.20686E-2     1.3350   
   -7.5200       0.20713E-2     1.3352   
   -7.5100       0.20740E-2     1.3354   
   -7.5000       0.20768E-2     1.3356   
   -7.4900       0.20795E-2     1.3358   
   -7.4800       0.20822E-2     1.3360   
   -7.4700       0.20849E-2     1.3362   
   -7.4600       0.20877E-2     1.3364   
   -7.4500       0.20904E-2     1.3367   
   -7.4400       0.20932E-2     1.3369   
   -7.4300       0.20959E-2     1.3371   
   -7.4200       0.20987E-2     1.3373   
   -7.4100       0.21015E-2     1.3375   
   -7.4000       0.21042E-2     1.3377   
   -7.3900       0.21070E-2     1.3379   
   -7.3800       0.21098E-2     1.3381   
   -7.3700       0.21126E-2     1.3383   
   -7.3600       0.21154E-2     1.3385   
   -7.3500       0.21182E-2     1.3388   
   -7.3400       0.21210E-2     1.3390   
   -7.3300       0.21238E-2     1.3392   
   -7.3200       0.21266E-2     1.3394   
   -7.3100       0.21295E-2     1.3396   
   -7.3000       0.21323E-2     1.3398   
   -7.2900       0.21351E-2     1.3400   
   -7.2800       0.21380E-2     1.3402   
   -7.2700       0.21408E-2     1.3405   
   -7.2600       0.21437E-2     1.3407   
   -7.2500       0.21466E-2     1.3409   
   -7.2400       0.21494E-2     1.3411   
   -7.2300       0.21523E-2     1.3413   
   -7.2200       0.21552E-2     1.3415   
   -7.2100       0.21581E-2     1.3418   
   -7.2000       0.21610E-2     1.3420   
   -7.1900       0.21639E-2     1.3422   
   -7.1800       0.21668E-2     1.3424   
   -7.1700       0.21697E-2     1.3426   
   -7.1600       0.21726E-2     1.3428   
   -7.1500       0.21755E-2     1.3431   
   -7.1400       0.21784E-2     1.3433   
   -7.1300       0.21814E-2     1.3435   
   -7.1200       0.21843E-2     1.3437   
   -7.1100       0.21873E-2     1.3439   
   -7.1000       0.21902E-2     1.3441   
   -7.0900       0.21932E-2     1.3444   
   -7.0800       0.21962E-2     1.3446   
   -7.0700       0.21991E-2     1.3448   
   -7.0600       0.22021E-2     1.3450   
   -7.0500       0.22051E-2     1.3452   
   -7.0400       0.22081E-2     1.3455   
   -7.0300       0.22111E-2     1.3457   
   -7.0200       0.22141E-2     1.3459   
   -7.0100       0.22171E-2     1.3461   
   -7.0000       0.22201E-2     1.3463   
   -6.9900       0.22232E-2     1.3466   
   -6.9800       0.22262E-2     1.3468   
   -6.9700       0.22292E-2     1.3470   
   -6.9600       0.22323E-2     1.3472   
   -6.9500       0.22353E-2     1.3475   
   -6.9400       0.22384E-2     1.3477   
   -6.9300       0.22415E-2     1.3479   
   -6.9200       0.22445E-2     1.3481   
   -6.9100       0.22476E-2     1.3484   
   -6.9000       0.22507E-2     1.3486   
   -6.8900       0.22538E-2     1.3488   
   -6.8800       0.22569E-2     1.3490   
   -6.8700       0.22600E-2     1.3493   
   -6.8600       0.22631E-2     1.3495   
   -6.8500       0.22662E-2     1.3497   
   -6.8400       0.22694E-2     1.3499   
   -6.8300       0.22725E-2     1.3502   
   -6.8200       0.22756E-2     1.3504   
   -6.8100       0.22788E-2     1.3506   
   -6.8000       0.22819E-2     1.3508   
   -6.7900       0.22851E-2     1.3511   
   -6.7800       0.22883E-2     1.3513   
   -6.7700       0.22914E-2     1.3515   
   -6.7600       0.22946E-2     1.3518   
   -6.7500       0.22978E-2     1.3520   
   -6.7400       0.23010E-2     1.3522   
   -6.7300       0.23042E-2     1.3525   
   -6.7200       0.23074E-2     1.3527   
   -6.7100       0.23106E-2     1.3529   
   -6.7000       0.23139E-2     1.3531   
   -6.6900       0.23171E-2     1.3534   
   -6.6800       0.23203E-2     1.3536   
   -6.6700       0.23236E-2     1.3538   
   -6.6600       0.23268E-2     1.3541   
   -6.6500       0.23301E-2     1.3543   
   -6.6400       0.23334E-2     1.3545   
   -6.6300       0.23366E-2     1.3548   
   -6.6200       0.23399E-2     1.3550   
   -6.6100       0.23432E-2     1.3552   
   -6.6000       0.23465E-2     1.3555   
   -6.5900       0.23498E-2     1.3557   
   -6.5800       0.23531E-2     1.3559   
   -6.5700       0.23564E-2     1.3562   
   -6.5600       0.23598E-2     1.3564   
   -6.5500       0.23631E-2     1.3567   
   -6.5400       0.23664E-2     1.3569   
   -6.5300       0.23698E-2     1.3571   
   -6.5200       0.23732E-2     1.3574   
   -6.5100       0.23765E-2     1.3576   
   -6.5000       0.23799E-2     1.3578   
   -6.4900       0.23833E-2     1.3581   
   -6.4800       0.23867E-2     1.3583   
   -6.4700       0.23901E-2     1.3586   
   -6.4600       0.23935E-2     1.3588   
   -6.4500       0.23969E-2     1.3590   
   -6.4400       0.24003E-2     1.3593   
   -6.4300       0.24037E-2     1.3595   
   -6.4200       0.24071E-2     1.3598   
   -6.4100       0.24106E-2     1.3600   
   -6.4000       0.24140E-2     1.3602   
   -6.3900       0.24175E-2     1.3605   
   -6.3800       0.24210E-2     1.3607   
   -6.3700       0.24244E-2     1.3610   
   -6.3600       0.24279E-2     1.3612   
   -6.3500       0.24314E-2     1.3614   
   -6.3400       0.24349E-2     1.3617   
   -6.3300       0.24384E-2     1.3619   
   -6.3200       0.24419E-2     1.3622   
   -6.3100       0.24454E-2     1.3624   
   -6.3000       0.24490E-2     1.3627   
   -6.2900       0.24525E-2     1.3629   
   -6.2800       0.24560E-2     1.3632   
   -6.2700       0.24596E-2     1.3634   
   -6.2600       0.24632E-2     1.3637   
   -6.2500       0.24667E-2     1.3639   
   -6.2400       0.24703E-2     1.3641   
   -6.2300       0.24739E-2     1.3644   
   -6.2200       0.24775E-2     1.3646   
   -6.2100       0.24811E-2     1.3649   
   -6.2000       0.24847E-2     1.3651   
   -6.1900       0.24883E-2     1.3654   
   -6.1800       0.24920E-2     1.3656   
   -6.1700       0.24956E-2     1.3659   
   -6.1600       0.24992E-2     1.3661   
   -6.1500       0.25029E-2     1.3664   
   -6.1400       0.25066E-2     1.3666   
   -6.1300       0.25102E-2     1.3669   
   -6.1200       0.25139E-2     1.3671   
   -6.1100       0.25176E-2     1.3674   
   -6.1000       0.25213E-2     1.3676   
   -6.0900       0.25250E-2     1.3679   
   -6.0800       0.25287E-2     1.3681   
   -6.0700       0.25324E-2     1.3684   
   -6.0600       0.25362E-2     1.3686   
   -6.0500       0.25399E-2     1.3689   
   -6.0400       0.25436E-2     1.3692   
   -6.0300       0.25474E-2     1.3694   
   -6.0200       0.25512E-2     1.3697   
   -6.0100       0.25549E-2     1.3699   
   -6.0000       0.25587E-2     1.3702   
   -5.9900       0.25625E-2     1.3704   
   -5.9800       0.25663E-2     1.3707   
   -5.9700       0.25701E-2     1.3709   
   -5.9600       0.25740E-2     1.3712   
   -5.9500       0.25778E-2     1.3715   
   -5.9400       0.25816E-2     1.3717   
   -5.9300       0.25855E-2     1.3720   
   -5.9200       0.25893E-2     1.3722   
   -5.9100       0.25932E-2     1.3725   
   -5.9000       0.25971E-2     1.3728   
   -5.8900       0.26010E-2     1.3730   
   -5.8800       0.26049E-2     1.3733   
   -5.8700       0.26088E-2     1.3735   
   -5.8600       0.26127E-2     1.3738   
   -5.8500       0.26166E-2     1.3741   
   -5.8400       0.26205E-2     1.3743   
   -5.8300       0.26245E-2     1.3746   
   -5.8200       0.26284E-2     1.3748   
   -5.8100       0.26324E-2     1.3751   
   -5.8000       0.26363E-2     1.3754   
   -5.7900       0.26403E-2     1.3756   
   -5.7800       0.26443E-2     1.3759   
   -5.7700       0.26483E-2     1.3762   
   -5.7600       0.26523E-2     1.3764   
   -5.7500       0.26563E-2     1.3767   
   -5.7400       0.26604E-2     1.3770   
   -5.7300       0.26644E-2     1.3772   
   -5.7200       0.26684E-2     1.3775   
   -5.7100       0.26725E-2     1.3778   
   -5.7000       0.26766E-2     1.3780   
   -5.6900       0.26806E-2     1.3783   
   -5.6800       0.26847E-2     1.3786   
   -5.6700       0.26888E-2     1.3788   
   -5.6600       0.26929E-2     1.3791   
   -5.6500       0.26970E-2     1.3794   
   -5.6400       0.27012E-2     1.3796   
   -5.6300       0.27053E-2     1.3799   
   -5.6200       0.27095E-2     1.3802   
   -5.6100       0.27136E-2     1.3805   
   -5.6000       0.27178E-2     1.3807   
   -5.5900       0.27220E-2     1.3810   
   -5.5800       0.27261E-2     1.3813   
   -5.5700       0.27303E-2     1.3815   
   -5.5600       0.27346E-2     1.3818   
   -5.5500       0.27388E-2     1.3821   
   -5.5400       0.27430E-2     1.3824   
   -5.5300       0.27472E-2     1.3826   
   -5.5200       0.27515E-2     1.3829   
   -5.5100       0.27557E-2     1.3832   
   -5.5000       0.27600E-2     1.3835   
   -5.4900       0.27643E-2     1.3837   
   -5.4800       0.27686E-2     1.3840   
   -5.4700       0.27729E-2     1.3843   
   -5.4600       0.27772E-2     1.3846   
   -5.4500       0.27815E-2     1.3848   
   -5.4400       0.27859E-2     1.3851   
   -5.4300       0.27902E-2     1.3854   
   -5.4200       0.27946E-2     1.3857   
   -5.4100       0.27989E-2     1.3860   
   -5.4000       0.28033E-2     1.3862   
   -5.3900       0.28077E-2     1.3865   
   -5.3800       0.28121E-2     1.3868   
   -5.3700       0.28165E-2     1.3871   
   -5.3600       0.28209E-2     1.3874   
   -5.3500       0.28254E-2     1.3876   
   -5.3400       0.28298E-2     1.3879   
   -5.3300       0.28343E-2     1.3882   
   -5.3200       0.28387E-2     1.3885   
   -5.3100       0.28432E-2     1.3888   
   -5.3000       0.28477E-2     1.3891   
   -5.2900       0.28522E-2     1.3894   
   -5.2800       0.28567E-2     1.3896   
   -5.2700       0.28613E-2     1.3899   
   -5.2600       0.28658E-2     1.3902   
   -5.2500       0.28703E-2     1.3905   
   -5.2400       0.28749E-2     1.3908   
   -5.2300       0.28795E-2     1.3911   
   -5.2200       0.28841E-2     1.3914   
   -5.2100       0.28887E-2     1.3916   
   -5.2000       0.28933E-2     1.3919   
   -5.1900       0.28979E-2     1.3922   
   -5.1800       0.29025E-2     1.3925   
   -5.1700       0.29071E-2     1.3928   
   -5.1600       0.29118E-2     1.3931   
   -5.1500       0.29165E-2     1.3934   
   -5.1400       0.29211E-2     1.3937   
   -5.1300       0.29258E-2     1.3940   
   -5.1200       0.29305E-2     1.3943   
   -5.1100       0.29352E-2     1.3946   
   -5.1000       0.29400E-2     1.3949   
   -5.0900       0.29447E-2     1.3951   
   -5.0800       0.29495E-2     1.3954   
   -5.0700       0.29542E-2     1.3957   
   -5.0600       0.29590E-2     1.3960   
   -5.0500       0.29638E-2     1.3963   
   -5.0400       0.29686E-2     1.3966   
   -5.0300       0.29734E-2     1.3969   
   -5.0200       0.29782E-2     1.3972   
   -5.0100       0.29831E-2     1.3975   
   -5.0000       0.29879E-2     1.3978   
   -4.9900       0.29928E-2     1.3981   
   -4.9800       0.29977E-2     1.3984   
   -4.9700       0.30025E-2     1.3987   
   -4.9600       0.30074E-2     1.3990   
   -4.9500       0.30124E-2     1.3993   
   -4.9400       0.30173E-2     1.3996   
   -4.9300       0.30222E-2     1.3999   
   -4.9200       0.30272E-2     1.4002   
   -4.9100       0.30321E-2     1.4005   
   -4.9000       0.30371E-2     1.4008   
   -4.8900       0.30421E-2     1.4011   
   -4.8800       0.30471E-2     1.4014   
   -4.8700       0.30521E-2     1.4017   
   -4.8600       0.30572E-2     1.4020   
   -4.8500       0.30622E-2     1.4024   
   -4.8400       0.30673E-2     1.4027   
   -4.8300       0.30724E-2     1.4030   
   -4.8200       0.30774E-2     1.4033   
   -4.8100       0.30825E-2     1.4036   
   -4.8000       0.30877E-2     1.4039   
   -4.7900       0.30928E-2     1.4042   
   -4.7800       0.30979E-2     1.4045   
   -4.7700       0.31031E-2     1.4048   
   -4.7600       0.31082E-2     1.4051   
   -4.7500       0.31134E-2     1.4054   
   -4.7400       0.31186E-2     1.4058   
   -4.7300       0.31238E-2     1.4061   
   -4.7200       0.31291E-2     1.4064   
   -4.7100       0.31343E-2     1.4067   
   -4.7000       0.31395E-2     1.4070   
   -4.6900       0.31448E-2     1.4073   
   -4.6800       0.31501E-2     1.4076   
   -4.6700       0.31554E-2     1.4079   
   -4.6600       0.31607E-2     1.4083   
   -4.6500       0.31660E-2     1.4086   
   -4.6400       0.31714E-2     1.4089   
   -4.6300       0.31767E-2     1.4092   
   -4.6200       0.31821E-2     1.4095   
   -4.6100       0.31875E-2     1.4099   
   -4.6000       0.31929E-2     1.4102   
   -4.5900       0.31983E-2     1.4105   
   -4.5800       0.32037E-2     1.4108   
   -4.5700       0.32091E-2     1.4111   
   -4.5600       0.32146E-2     1.4115   
   -4.5500       0.32201E-2     1.4118   
   -4.5400       0.32256E-2     1.4121   
   -4.5300       0.32311E-2     1.4124   
   -4.5200       0.32366E-2     1.4127   
   -4.5100       0.32421E-2     1.4131   
   -4.5000       0.32477E-2     1.4134   
   -4.4900       0.32532E-2     1.4137   
   -4.4800       0.32588E-2     1.4140   
   -4.4700       0.32644E-2     1.4144   
   -4.4600       0.32700E-2     1.4147   
   -4.4500       0.32756E-2     1.4150   
   -4.4400       0.32813E-2     1.4153   
   -4.4300       0.32869E-2     1.4157   
   -4.4200       0.32926E-2     1.4160   
   -4.4100       0.32983E-2     1.4163   
   -4.4000       0.33040E-2     1.4167   
   -4.3900       0.33097E-2     1.4170   
   -4.3800       0.33154E-2     1.4173   
   -4.3700       0.33212E-2     1.4177   
   -4.3600       0.33269E-2     1.4180   
   -4.3500       0.33327E-2     1.4183   
   -4.3400       0.33385E-2     1.4187   
   -4.3300       0.33443E-2     1.4190   
   -4.3200       0.33502E-2     1.4193   
   -4.3100       0.33560E-2     1.4197   
   -4.3000       0.33619E-2     1.4200   
   -4.2900       0.33678E-2     1.4203   
   -4.2800       0.33737E-2     1.4207   
   -4.2700       0.33796E-2     1.4210   
   -4.2600       0.33855E-2     1.4213   
   -4.2500       0.33915E-2     1.4217   
   -4.2400       0.33974E-2     1.4220   
   -4.2300       0.34034E-2     1.4224   
   -4.2200       0.34094E-2     1.4227   
   -4.2100       0.34154E-2     1.4230   
   -4.2000       0.34215E-2     1.4234   
   -4.1900       0.34275E-2     1.4237   
   -4.1800       0.34336E-2     1.4241   
   -4.1700       0.34397E-2     1.4244   
   -4.1600       0.34458E-2     1.4248   
   -4.1500       0.34519E-2     1.4251   
   -4.1400       0.34580E-2     1.4255   
   -4.1300       0.34642E-2     1.4258   
   -4.1200       0.34704E-2     1.4261   
   -4.1100       0.34766E-2     1.4265   
   -4.1000       0.34828E-2     1.4268   
   -4.0900       0.34890E-2     1.4272   
   -4.0800       0.34952E-2     1.4275   
   -4.0700       0.35015E-2     1.4279   
   -4.0600       0.35078E-2     1.4282   
   -4.0500       0.35141E-2     1.4286   
   -4.0400       0.35204E-2     1.4289   
   -4.0300       0.35267E-2     1.4293   
   -4.0200       0.35331E-2     1.4296   
   -4.0100       0.35395E-2     1.4300   
   -4.0000       0.35459E-2     1.4304   
   -3.9900       0.35523E-2     1.4307   
   -3.9800       0.35587E-2     1.4311   
   -3.9700       0.35652E-2     1.4314   
   -3.9600       0.35716E-2     1.4318   
   -3.9500       0.35781E-2     1.4321   
   -3.9400       0.35846E-2     1.4325   
   -3.9300       0.35911E-2     1.4329   
   -3.9200       0.35977E-2     1.4332   
   -3.9100       0.36043E-2     1.4336   
   -3.9000       0.36108E-2     1.4339   
   -3.8900       0.36174E-2     1.4343   
   -3.8800       0.36241E-2     1.4347   
   -3.8700       0.36307E-2     1.4350   
   -3.8600       0.36374E-2     1.4354   
   -3.8500       0.36440E-2     1.4357   
   -3.8400       0.36507E-2     1.4361   
   -3.8300       0.36575E-2     1.4365   
   -3.8200       0.36642E-2     1.4368   
   -3.8100       0.36710E-2     1.4372   
   -3.8000       0.36778E-2     1.4376   
   -3.7900       0.36846E-2     1.4379   
   -3.7800       0.36914E-2     1.4383   
   -3.7700       0.36982E-2     1.4387   
   -3.7600       0.37051E-2     1.4391   
   -3.7500       0.37120E-2     1.4394   
   -3.7400       0.37189E-2     1.4398   
   -3.7300       0.37258E-2     1.4402   
     -3.72000       0.00373       1.44054
     -3.71000       0.00374       1.44091
     -3.70000       0.00375       1.44129
     -3.69000       0.00375       1.44166
     -3.68000       0.00376       1.44204
     -3.67000       0.00377       1.44241
     -3.66000       0.00377       1.44279
     -3.65000       0.00378       1.44317
     -3.64000       0.00379       1.44355
     -3.63000       0.00380       1.44392
     -3.62000       0.00380       1.44430
     -3.61000       0.00381       1.44469
     -3.60000       0.00382       1.44507
     -3.59000       0.00383       1.44545
     -3.58000       0.00383       1.44583
     -3.57000       0.00384       1.44621
     -3.56000       0.00385       1.44660
     -3.55000       0.00385       1.44698
     -3.54000       0.00386       1.44737
     -3.53000       0.00387       1.44776
     -3.52000       0.00388       1.44814
     -3.51000       0.00388       1.44853
     -3.50000       0.00389       1.44892
     -3.49000       0.00390       1.44931
     -3.48000       0.00391       1.44970
     -3.47000       0.00391       1.45009
     -3.46000       0.00392       1.45048
     -3.45000       0.00393       1.45087
     -3.44000       0.00394       1.45127
     -3.43000       0.00394       1.45166
     -3.42000       0.00395       1.45206
     -3.41000       0.00396       1.45245
     -3.40000       0.00397       1.45285
     -3.39000       0.00397       1.45325
     -3.38000       0.00398       1.45364
     -3.37000       0.00399       1.45404
     -3.36000       0.00400       1.45444
     -3.35000       0.00401       1.45484
     -3.34000       0.00401       1.45524
     -3.33000       0.00402       1.45564
     -3.32000       0.00403       1.45605
     -3.31000       0.00404       1.45645
     -3.30000       0.00404       1.45685
     -3.29000       0.00405       1.45726
     -3.28000       0.00406       1.45766
     -3.27000       0.00407       1.45807
     -3.26000       0.00408       1.45848
     -3.25000       0.00408       1.45888
     -3.24000       0.00409       1.45929
     -3.23000       0.00410       1.45970
     -3.22000       0.00411       1.46011
     -3.21000       0.00412       1.46052
     -3.20000       0.00413       1.46094
     -3.19000       0.00413       1.46135
     -3.18000       0.00414       1.46176
     -3.17000       0.00415       1.46218
     -3.16000       0.00416       1.46259
     -3.15000       0.00417       1.46301
     -3.14000       0.00417       1.46343
     -3.13000       0.00418       1.46384
     -3.12000       0.00419       1.46426
     -3.11000       0.00420       1.46468
     -3.10000       0.00421       1.46510
     -3.09000       0.00422       1.46552
     -3.08000       0.00423       1.46595
     -3.07000       0.00423       1.46637
     -3.06000       0.00424       1.46679
     -3.05000       0.00425       1.46722
     -3.04000       0.00426       1.46764
     -3.03000       0.00427       1.46807
     -3.02000       0.00428       1.46850
     -3.01000       0.00429       1.46892
     -3.00000       0.00429       1.46935
     -2.99000       0.00430       1.46978
     -2.98000       0.00431       1.47021
     -2.97000       0.00432       1.47065
     -2.96000       0.00433       1.47108
     -2.95000       0.00434       1.47151
     -2.94000       0.00435       1.47195
     -2.93000       0.00436       1.47238
     -2.92000       0.00437       1.47282
     -2.91000       0.00437       1.47325
     -2.90000       0.00438       1.47369
     -2.89000       0.00439       1.47413
     -2.88000       0.00440       1.47457
     -2.87000       0.00441       1.47501
     -2.86000       0.00442       1.47545
     -2.85000       0.00443       1.47589
     -2.84000       0.00444       1.47634
     -2.83000       0.00445       1.47678
     -2.82000       0.00446       1.47723
     -2.81000       0.00447       1.47767
     -2.80000       0.00448       1.47812
     -2.79000       0.00448       1.47857
     -2.78000       0.00449       1.47902
     -2.77000       0.00450       1.47947
     -2.76000       0.00451       1.47992
     -2.75000       0.00452       1.48037
     -2.74000       0.00453       1.48082
     -2.73000       0.00454       1.48127
     -2.72000       0.00455       1.48173
     -2.71000       0.00456       1.48218
     -2.70000       0.00457       1.48264
     -2.69000       0.00458       1.48310
     -2.68000       0.00459       1.48356
     -2.67000       0.00460       1.48402
     -2.66000       0.00461       1.48448
     -2.65000       0.00462       1.48494
     -2.64000       0.00463       1.48540
     -2.63000       0.00464       1.48586
     -2.62000       0.00465       1.48633
     -2.61000       0.00466       1.48679
     -2.60000       0.00467       1.48726
     -2.59000       0.00468       1.48773
     -2.58000       0.00469       1.48819
     -2.57000       0.00470       1.48866
     -2.56000       0.00471       1.48913
     -2.55000       0.00472       1.48961
     -2.54000       0.00473       1.49008
     -2.53000       0.00474       1.49055
     -2.52000       0.00475       1.49103
     -2.51000       0.00476       1.49150
     -2.50000       0.00477       1.49198
     -2.49000       0.00478       1.49246
     -2.48000       0.00479       1.49293
     -2.47000       0.00480       1.49341
     -2.46000       0.00481       1.49389
     -2.45000       0.00482       1.49438
     -2.44000       0.00483       1.49486
     -2.43000       0.00484       1.49534
     -2.42000       0.00486       1.49583
     -2.41000       0.00487       1.49631
     -2.40000       0.00488       1.49680
     -2.39000       0.00489       1.49729
     -2.38000       0.00490       1.49778
     -2.37000       0.00491       1.49827
     -2.36000       0.00492       1.49876
     -2.35000       0.00493       1.49925
     -2.34000       0.00494       1.49975
     -2.33000       0.00495       1.50024
     -2.32000       0.00496       1.50074
     -2.31000       0.00498       1.50123
     -2.30000       0.00499       1.50173
     -2.29000       0.00500       1.50223
     -2.28000       0.00501       1.50273
     -2.27000       0.00502       1.50323
     -2.26000       0.00503       1.50373
     -2.25000       0.00504       1.50424
     -2.24000       0.00505       1.50474
     -2.23000       0.00507       1.50525
     -2.22000       0.00508       1.50576
     -2.21000       0.00509       1.50626
     -2.20000       0.00510       1.50677
     -2.19000       0.00511       1.50728
     -2.18000       0.00512       1.50779
     -2.17000       0.00514       1.50831
     -2.16000       0.00515       1.50882
     -2.15000       0.00516       1.50934
     -2.14000       0.00517       1.50985
     -2.13000       0.00518       1.51037
     -2.12000       0.00519       1.51089
     -2.11000       0.00521       1.51141
     -2.10000       0.00522       1.51193
     -2.09000       0.00523       1.51245
     -2.08000       0.00524       1.51298
     -2.07000       0.00526       1.51350
     -2.06000       0.00527       1.51403
     -2.05000       0.00528       1.51455
     -2.04000       0.00529       1.51508
     -2.03000       0.00530       1.51561
     -2.02000       0.00532       1.51614
     -2.01000       0.00533       1.51668
     -2.00000       0.00534       1.51721
     -1.99000       0.00535       1.51774
     -1.98000       0.00537       1.51828
     -1.97000       0.00538       1.51882
     -1.96000       0.00539       1.51935
     -1.95000       0.00540       1.51989
     -1.94000       0.00542       1.52044
     -1.93000       0.00543       1.52098
     -1.92000       0.00544       1.52152
     -1.91000       0.00546       1.52207
     -1.90000       0.00547       1.52261
     -1.89000       0.00548       1.52316
     -1.88000       0.00550       1.52371
     -1.87000       0.00551       1.52426
     -1.86000       0.00552       1.52481
     -1.85000       0.00553       1.52536
     -1.84000       0.00555       1.52592
     -1.83000       0.00556       1.52647
     -1.82000       0.00557       1.52703
     -1.81000       0.00559       1.52759
     -1.80000       0.00560       1.52815
     -1.79000       0.00562       1.52871
     -1.78000       0.00563       1.52927
     -1.77000       0.00564       1.52983
     -1.76000       0.00566       1.53040
     -1.75000       0.00567       1.53096
     -1.74000       0.00568       1.53153
     -1.73000       0.00570       1.53210
     -1.72000       0.00571       1.53267
     -1.71000       0.00573       1.53324
     -1.70000       0.00574       1.53381
     -1.69000       0.00575       1.53439
     -1.68000       0.00577       1.53496
     -1.67000       0.00578       1.53554
     -1.66000       0.00580       1.53612
     -1.65000       0.00581       1.53670
     -1.64000       0.00583       1.53728
     -1.63000       0.00584       1.53786
     -1.62000       0.00585       1.53845
     -1.61000       0.00587       1.53904
     -1.60000       0.00588       1.53962
     -1.59000       0.00590       1.54021
     -1.58000       0.00591       1.54080
     -1.57000       0.00593       1.54139
     -1.56000       0.00594       1.54199
     -1.55000       0.00596       1.54258
     -1.54000       0.00597       1.54318
     -1.53000       0.00599       1.54378
     -1.52000       0.00600       1.54438
     -1.51000       0.00602       1.54498
     -1.50000       0.00603       1.54558
     -1.49000       0.00605       1.54618
     -1.48000       0.00606       1.54679
     -1.47000       0.00608       1.54739
     -1.46000       0.00610       1.54800
     -1.45000       0.00611       1.54861
     -1.44000       0.00613       1.54923
     -1.43000       0.00614       1.54984
     -1.42000       0.00616       1.55045
     -1.41000       0.00617       1.55107
     -1.40000       0.00619       1.55169
     -1.39000       0.00621       1.55231
     -1.38000       0.00622       1.55293
     -1.37000       0.00624       1.55355
     -1.36000       0.00625       1.55418
     -1.35000       0.00627       1.55480
     -1.34000       0.00629       1.55543
     -1.33000       0.00630       1.55606
     -1.32000       0.00632       1.55669
     -1.31000       0.00634       1.55732
     -1.30000       0.00635       1.55796
     -1.29000       0.00637       1.55859
     -1.28000       0.00639       1.55923
     -1.27000       0.00640       1.55987
     -1.26000       0.00642       1.56051
     -1.25000       0.00644       1.56115
     -1.24000       0.00645       1.56180
     -1.23000       0.00647       1.56244
     -1.22000       0.00649       1.56309
     -1.21000       0.00651       1.56374
     -1.20000       0.00652       1.56439
     -1.19000       0.00654       1.56504
     -1.18000       0.00656       1.56570
     -1.17000       0.00658       1.56635
     -1.16000       0.00659       1.56701
     -1.15000       0.00661       1.56767
     -1.14000       0.00663       1.56833
     -1.13000       0.00665       1.56900
     -1.12000       0.00667       1.56966
     -1.11000       0.00668       1.57033
     -1.10000       0.00670       1.57100
     -1.09000       0.00672       1.57167
     -1.08000       0.00674       1.57234
     -1.07000       0.00676       1.57302
     -1.06000       0.00677       1.57369
     -1.05000       0.00679       1.57437
     -1.04000       0.00681       1.57505
     -1.03000       0.00683       1.57573
     -1.02000       0.00685       1.57642
     -1.01000       0.00687       1.57710
     -1.00000       0.00689       1.57779
     -0.99000       0.00691       1.57848
     -0.98000       0.00693       1.57917
     -0.97000       0.00695       1.57987
     -0.96000       0.00696       1.58056
     -0.95000       0.00698       1.58126
     -0.94000       0.00700       1.58196
     -0.93000       0.00702       1.58266
     -0.92000       0.00704       1.58336
     -0.91000       0.00706       1.58407
     -0.90000       0.00708       1.58477
     -0.89000       0.00710       1.58548
     -0.88000       0.00712       1.58619
     -0.87000       0.00714       1.58691
     -0.86000       0.00716       1.58762
     -0.85000       0.00718       1.58834
     -0.84000       0.00720       1.58906
     -0.83000       0.00723       1.58978
     -0.82000       0.00725       1.59050
     -0.81000       0.00727       1.59123
     -0.80000       0.00729       1.59195
     -0.79000       0.00731       1.59268
     -0.78000       0.00733       1.59341
     -0.77000       0.00735       1.59415
     -0.76000       0.00737       1.59488
     -0.75000       0.00739       1.59562
     -0.74000       0.00741       1.59636
     -0.73000       0.00744       1.59710
     -0.72000       0.00746       1.59785
     -0.71000       0.00748       1.59860
     -0.70000       0.00750       1.59934
     -0.69000       0.00752       1.60010
     -0.68000       0.00755       1.60085
     -0.67000       0.00757       1.60160
     -0.66000       0.00759       1.60236
     -0.65000       0.00761       1.60312
     -0.64000       0.00764       1.60388
     -0.63000       0.00766       1.60465
     -0.62000       0.00768       1.60541
     -0.61000       0.00770       1.60618
     -0.60000       0.00773       1.60695
     -0.59000       0.00775       1.60773
     -0.58000       0.00777       1.60850
     -0.57000       0.00780       1.60928
     -0.56000       0.00782       1.61006
     -0.55000       0.00784       1.61084
     -0.54000       0.00787       1.61163
     -0.53000       0.00789       1.61242
     -0.52000       0.00792       1.61321
     -0.51000       0.00794       1.61400
     -0.50000       0.00796       1.61479
     -0.49000       0.00799       1.61559
     -0.48000       0.00801       1.61639
     -0.47000       0.00804       1.61719
     -0.46000       0.00806       1.61800
     -0.45000       0.00809       1.61881
     -0.44000       0.00811       1.61961
     -0.43000       0.00814       1.62043
     -0.42000       0.00816       1.62124
     -0.41000       0.00819       1.62206
     -0.40000       0.00821       1.62288
     -0.39000       0.00824       1.62370
     -0.38000       0.00826       1.62453
     -0.37000       0.00829       1.62535
     -0.36000       0.00832       1.62618
     -0.35000       0.00834       1.62701
     -0.34000       0.00837       1.62785
     -0.33000       0.00840       1.62869
     -0.32000       0.00842       1.62953
     -0.31000       0.00845       1.63037
     -0.30000       0.00848       1.63122
     -0.29000       0.00850       1.63207
     -0.28000       0.00853       1.63292
     -0.27000       0.00856       1.63377
     -0.26000       0.00858       1.63463
     -0.25000       0.00861       1.63549
     -0.24000       0.00864       1.63635
     -0.23000       0.00867       1.63721
     -0.22000       0.00870       1.63808
     -0.21000       0.00872       1.63895
     -0.20000       0.00875       1.63983
     -0.19000       0.00878       1.64070
     -0.18000       0.00881       1.64158
     -0.17000       0.00884       1.64246
     -0.16000       0.00887       1.64335
     -0.15000       0.00890       1.64423
     -0.14000       0.00893       1.64513
     -0.13000       0.00896       1.64602
     -0.12000       0.00899       1.64692
     -0.11000       0.00902       1.64781
     -0.10000       0.00905       1.64872
     -0.09000       0.00908       1.64962
     -0.08000       0.00911       1.65053
     -0.07000       0.00914       1.65144
     -0.06000       0.00917       1.65236
     -0.05000       0.00920       1.65327
     -0.04000       0.00923       1.65420
     -0.03000       0.00926       1.65512
     -0.02000       0.00929       1.65605
     -0.01000       0.00932       1.65698
      0.00000       0.00935       1.65791
      0.01000       0.00939       1.65885
      0.02000       0.00942       1.65979
      0.03000       0.00945       1.66073
      0.04000       0.00948       1.66167
      0.05000       0.00952       1.66262
      0.06000       0.00955       1.66358
      0.07000       0.00958       1.66453
      0.08000       0.00961       1.66549
      0.09000       0.00965       1.66645
      0.10000       0.00968       1.66742
      0.11000       0.00971       1.66839
      0.12000       0.00975       1.66936
      0.13000       0.00978       1.67034
      0.14000       0.00982       1.67132
      0.15000       0.00985       1.67230
      0.16000       0.00989       1.67329
      0.17000       0.00992       1.67428
      0.18000       0.00996       1.67527
      0.19000       0.00999       1.67627
     0.200000      0.010028      1.677265
     0.210000      0.010064      1.678269
     0.220000      0.010100      1.679277
     0.230000      0.010136      1.680288
     0.240000      0.010173      1.681303
     0.250000      0.010209      1.682321
     0.260000      0.010246      1.683343
     0.270000      0.010283      1.684369
     0.280000      0.010321      1.685398
     0.290000      0.010358      1.686431
     0.300000      0.010396      1.687468
     0.310000      0.010434      1.688509
     0.320000      0.010472      1.689554
     0.330000      0.010511      1.690602
     0.340000      0.010550      1.691654
     0.350000      0.010589      1.692710
     0.360000      0.010628      1.693770
     0.370000      0.010668      1.694834
     0.380000      0.010707      1.695902
     0.390000      0.010747      1.696974
     0.400000      0.010788      1.698050
     0.410000      0.010828      1.699130
     0.420000      0.010869      1.700214
     0.430001      0.010910      1.701302
     0.440001      0.010951      1.702394
     0.450001      0.010993      1.703490
     0.460001      0.011034      1.704591
     0.470001      0.011076      1.705696
     0.480001      0.011119      1.706805
     0.490001      0.011161      1.707917
     0.500001      0.011204      1.709035
     0.510000      0.011247      1.710156
     0.520000      0.011291      1.711283
     0.530000      0.011335      1.712413
     0.540000      0.011379      1.713547
     0.550000      0.011423      1.714687
     0.560000      0.011467      1.715830
     0.570000      0.011512      1.716978
     0.580000      0.011557      1.718131
     0.590000      0.011603      1.719288
     0.600000      0.011649      1.720449
     0.610000      0.011695      1.721615
     0.620000      0.011741      1.722786
     0.630000      0.011788      1.723962
     0.640000      0.011835      1.725142
     0.650000      0.011882      1.726326
     0.660000      0.011930      1.727516
     0.670000      0.011978      1.728710
     0.680000      0.012026      1.729909
     0.690000      0.012075      1.731113
     0.700000      0.012124      1.732322
     0.710000      0.012173      1.733536
     0.720000      0.012222      1.734754
     0.730000      0.012272      1.735978
     0.740000      0.012323      1.737207
     0.750000      0.012373      1.738441
     0.760000      0.012424      1.739679
     0.770000      0.012476      1.740923
     0.780000      0.012527      1.742172
     0.790001      0.012579      1.743426
     0.800001      0.012632      1.744685
     0.810001      0.012685      1.745950
     0.820001      0.012738      1.747220
     0.830001      0.012791      1.748495
     0.840001      0.012845      1.749776
     0.850001      0.012900      1.751061
     0.860000      0.012954      1.752353
     0.870000      0.013009      1.753650
     0.880000      0.013065      1.754952
     0.890000      0.013121      1.756260
     0.900000      0.013177      1.757574
     0.910000      0.013234      1.758893
     0.920000      0.013291      1.760218
     0.930000      0.013348      1.761548
     0.940000      0.013406      1.762884
     0.950000      0.013465      1.764226
     0.960000      0.013523      1.765575
     0.970000      0.013583      1.766928
     0.980000      0.013642      1.768288
     0.990000      0.013702      1.769654
     1.000000      0.013763      1.771026
     1.010000      0.013824      1.772403
     1.020000      0.013885      1.773787
     1.030000      0.013947      1.775177
     1.040000      0.014009      1.776574
     1.050000      0.014072      1.777976
     1.060000      0.014136      1.779385
     1.070000      0.014199      1.780800
     1.080000      0.014264      1.782222
     1.090000      0.014328      1.783649
     1.100000      0.014394      1.785084
     1.110000      0.014459      1.786525
     1.120000      0.014526      1.787972
     1.130000      0.014592      1.789427
     1.140000      0.014660      1.790888
     1.150000      0.014727      1.792355
     1.160001      0.014796      1.793830
     1.170001      0.014865      1.795311
     1.180001      0.014934      1.796799
     1.190001      0.015004      1.798294
     1.200001      0.015074      1.799796
     1.210001      0.015145      1.801305
     1.220001      0.015217      1.802821
     1.230000      0.015289      1.804345
     1.240000      0.015362      1.805875
     1.250000      0.015435      1.807413
     1.260000      0.015509      1.808959
     1.270000      0.015584      1.810511
     1.280000      0.015659      1.812071
     1.290000      0.015735      1.813639
     1.300000      0.015811      1.815214
     1.310000      0.015888      1.816797
     1.320000      0.015966      1.818388
     1.330000      0.016044      1.819986
     1.340000      0.016123      1.821592
     1.350000      0.016202      1.823206
     1.360000      0.016283      1.824828
     1.370000      0.016363      1.826458
     1.380000      0.016445      1.828096
     1.390000      0.016527      1.829743
     1.400000      0.016610      1.831397
     1.410000      0.016694      1.833060
     1.420000      0.016778      1.834731
     1.430000      0.016863      1.836411
     1.440000      0.016949      1.838099
     1.450000      0.017035      1.839796
     1.460000      0.017123      1.841501
     1.470000      0.017211      1.843215
     1.480000      0.017299      1.844938
     1.490000      0.017389      1.846670
     1.500000      0.017479      1.848411
     1.510000      0.017570      1.850161
     1.520001      0.017662      1.851920
     1.530001      0.017755      1.853688
     1.540001      0.017848      1.855465
     1.550001      0.017943      1.857252
     1.560001      0.018038      1.859048
     1.570001      0.018134      1.860854
     1.580001      0.018231      1.862669
     1.590001      0.018328      1.864494
     1.600001      0.018427      1.866329
     1.610000      0.018527      1.868174
     1.620000      0.018627      1.870028
     1.630000      0.018728      1.871893
     1.640000      0.018831      1.873768
     1.650000      0.018934      1.875653
     1.660000      0.019038      1.877548
     1.670000      0.019143      1.879454
     1.680000      0.019249      1.881370
     1.690000      0.019356      1.883297
     1.700000      0.019464      1.885235
     1.710000      0.019573      1.887183
     1.720000      0.019683      1.889143
     1.730000      0.019794      1.891113
     1.740000      0.019907      1.893095
     1.750000      0.020020      1.895087
     1.760000      0.020134      1.897091
     1.770000      0.020250      1.899107
     1.780000      0.020366      1.901134
     1.790000      0.020484      1.903173
     1.800000      0.020603      1.905223
     1.810000      0.020722      1.907285
     1.820000      0.020844      1.909360
     1.830000      0.020966      1.911446
     1.840000      0.021089      1.913545
     1.850000      0.021214      1.915656
     1.860000      0.021340      1.917779
     1.870000      0.021467      1.919916
     1.880000      0.021596      1.922065
     1.890001      0.021726      1.924227
     1.900001      0.021857      1.926401
     1.910001      0.021989      1.928589
     1.920001      0.022123      1.930790
     1.930001      0.022258      1.933004
     1.940001      0.022394      1.935232
     1.950001      0.022532      1.937474
     1.960001      0.022671      1.939729
     1.970001      0.022812      1.941999
     1.980000      0.022954      1.944282
     1.990000      0.023098      1.946580
     2.000000      0.023243      1.948892
     2.010000      0.023390      1.951218
     2.020000      0.023538      1.953559
     2.030000      0.023688      1.955915
     2.040000      0.023839      1.958286
     2.050000      0.023992      1.960673
     2.060000      0.024147      1.963074
     2.070000      0.024303      1.965491
     2.080000      0.024461      1.967923
     2.090000      0.024621      1.970372
     2.100000      0.024783      1.972836
     2.110000      0.024946      1.975317
     2.120000      0.025111      1.977813
     2.130000      0.025278      1.980327
     2.140000      0.025447      1.982857
     2.150000      0.025617      1.985404
     2.160000      0.025790      1.987967
     2.170000      0.025964      1.990548
     2.180000      0.026140      1.993147
     2.190000      0.026319      1.995763
     2.200000      0.026499      1.998397
     2.210000      0.026682      2.001050
     2.220000      0.026866      2.003720
     2.230000      0.027053      2.006409
     2.240000      0.027242      2.009116
     2.250000      0.027433      2.011842
     2.260001      0.027626      2.014588
     2.270001      0.027822      2.017353
     2.280001      0.028020      2.020137
     2.290001      0.028220      2.022941
     2.300001      0.028422      2.025765
     2.310001      0.028627      2.028609
     2.320000      0.028835      2.031474
     2.330000      0.029045      2.034360
     2.340000      0.029257      2.037266
     2.350000      0.029472      2.040194
     2.360000      0.029690      2.043143
     2.370000      0.029910      2.046114
     2.380000      0.030134      2.049107
     2.390000      0.030359      2.052123
     2.400000      0.030588      2.055161
     2.410000      0.030820      2.058222
     2.420000      0.031054      2.061305
     2.430000      0.031291      2.064412
     2.440000      0.031532      2.067544
     2.450000      0.031775      2.070698
     2.460000      0.032022      2.073878
     2.470000      0.032272      2.077082
     2.480000      0.032525      2.080310
     2.490000      0.032781      2.083565
     2.500000      0.033040      2.086844
     2.510000      0.033303      2.090150
     2.520000      0.033570      2.093482
     2.530000      0.033840      2.096841
     2.540000      0.034114      2.100226
     2.550000      0.034391      2.103639
     2.560000      0.034672      2.107080
     2.570000      0.034957      2.110548
     2.580000      0.035245      2.114045
     2.590000      0.035538      2.117571
     2.600000      0.035834      2.121126
     2.610000      0.036135      2.124711
     2.620001      0.036440      2.128325
     2.630001      0.036749      2.131970
     2.640001      0.037063      2.135647
     2.650001      0.037381      2.139354
     2.660001      0.037703      2.143093
     2.670001      0.038030      2.146864
     2.680001      0.038361      2.150667
     2.690001      0.038698      2.154504
     2.700001      0.039039      2.158374
     2.710001      0.039385      2.162279
     2.720001      0.039737      2.166218
     2.730000      0.040093      2.170192
     2.740000      0.040455      2.174201
     2.750000      0.040822      2.178247
     2.760000      0.041194      2.182329
     2.770000      0.041573      2.186449
     2.780000      0.041956      2.190606
     2.790000      0.042346      2.194801
     2.800000      0.042742      2.199036
     2.810000      0.043143      2.203309
     2.820000      0.043551      2.207623
     2.830000      0.043966      2.211977
     2.840000      0.044386      2.216373
     2.850000      0.044814      2.220810
     2.860000      0.045248      2.225291
     2.870000      0.045689      2.229814
     2.880000      0.046137      2.234381
     2.890000      0.046592      2.238993
     2.900000      0.047055      2.243651
     2.910000      0.047525      2.248354
     2.920000      0.048003      2.253104
     2.930000      0.048488      2.257902
     2.940000      0.048982      2.262748
     2.950000      0.049484      2.267644
     2.960000      0.049995      2.272589
     2.970000      0.050514      2.277585
     2.980000      0.051041      2.282633
     2.990001      0.051578      2.287734
     3.000001      0.052124      2.292888
     3.010001      0.052680      2.298096
     3.020001      0.053245      2.303360
     3.030000      0.053820      2.308679
     3.040000      0.054406      2.314055
     3.050000      0.055001      2.319491
     3.060000      0.055607      2.324985
     3.070000      0.056225      2.330540
     3.080000      0.056853      2.336156
     3.090000      0.057493      2.341834
     3.100000      0.058144      2.347576
     3.110000      0.058808      2.353382
     3.120000      0.059484      2.359255
     3.130000      0.060172      2.365195
     3.140000      0.060873      2.371203
     3.150000      0.061588      2.377281
     3.160000      0.062317      2.383430
     3.170000      0.063059      2.389651
     3.180000      0.063816      2.395946
     3.190000      0.064587      2.402315
     3.200000      0.065374      2.408762
     3.210000      0.066176      2.415287
     3.220000      0.066994      2.421890
     3.230000      0.067829      2.428576
     3.240000      0.068680      2.435344
     3.250000      0.069549      2.442196
     3.260000      0.070435      2.449134
     3.270000      0.071340      2.456161
     3.280000      0.072264      2.463277
     3.290000      0.073207      2.470484
     3.300000      0.074170      2.477785
     3.310000      0.075153      2.485181
     3.320000      0.076157      2.492675
     3.330000      0.077184      2.500268
     3.340000      0.078232      2.507963
     3.350001      0.079303      2.515761
     3.360001      0.080399      2.523666
     3.370001      0.081518      2.531678
     3.380001      0.082663      2.539801
     3.390001      0.083833      2.548037
     3.400001      0.085030      2.556389
     3.410001      0.086255      2.564859
     3.420001      0.087508      2.573450
     3.430001      0.088791      2.582165
     3.440001      0.090103      2.591006
     3.450001      0.091447      2.599977
     3.460001      0.092823      2.609080
     3.470001      0.094233      2.618319
     3.480000      0.095676      2.627696
     3.490000      0.097156      2.637216
     3.500000      0.098672      2.646882
    3.5100002     0.1002254     2.6566968
    3.5200002     0.1018185     2.6666639
    3.5300002     0.1034521     2.6767886
    3.5400002     0.1051278     2.6870732
    3.5500002     0.1068468     2.6975222
    3.5600002     0.1086108     2.7081411
    3.5700002     0.1104215     2.7189326
    3.5800002     0.1122804     2.7299018
    3.5900002     0.1141893     2.7410526
    3.6000001     0.1161500     2.7523913
    3.6100001     0.1181645     2.7639222
    3.6200008     0.1202349     2.7756510
    3.6300001     0.1223629     2.7875803
    3.6400008     0.1245513     2.7997203
    3.6500001     0.1268017     2.8120718
    3.6600008     0.1291172     2.8246453
    3.6699998     0.1314997     2.8374424
    3.6800008     0.1339526     2.8504744
    3.6899998     0.1364778     2.8637433
    3.7000008     0.1390792     2.8772612
    3.7099998     0.1417589     2.8910286
    3.7200007     0.1445211     2.9050605
    3.7299998     0.1473683     2.9193578
    3.7400005     0.1503051     2.9339342
    3.7499998     0.1533342     2.9487939
    3.7600005     0.1564606     2.9639487
    3.7699997     0.1596875     2.9794044
    3.7800004     0.1630204     2.9951756
    3.7899997     0.1664628     3.0112658
    3.8000004     0.1700209     3.0276914
    3.8099997     0.1736987     3.0444579
    3.8200004     0.1775029     3.0615811
    3.8299997     0.1814382     3.0790684
    3.8400004     0.1855119     3.0969367
    3.8499997     0.1897293     3.1151943
    3.8600004     0.1940987     3.1338589
    3.8699994     0.1986262     3.1529396
    3.8800004     0.2033208     3.1724567
    3.8899994     0.2081895     3.1924191
    3.9000003     0.2132427     3.2128494
    3.9100010     0.2184888     3.2337613
    3.9200003     0.2239371     3.2551687
    3.9300010     0.2296000     3.2770975
    3.9400001     0.2354869     3.2995591
    3.9500010     0.2416120     3.3225815
    3.9600000     0.2479860     3.3461795
    3.9700010     0.2546251     3.3703814
    3.9800000     0.2615416     3.3952043
    3.9900010     0.2687539     3.4206803
    4.0000000     0.2762765     3.4468281
    4.0100007     0.2841301     3.4736826
    4.0200000     0.2923316     3.5012643
    4.0300007     0.3009048     3.5296142
    4.0400000     0.3098694     3.5587528
    4.0500007     0.3192528     3.5887251
    4.0599999     0.3290782     3.6195574
    4.0700006     0.3393769     3.6512961
    4.0799999     0.3501767     3.6839724
    4.0900006     0.3615138     3.7176397
    4.0999999     0.3734207     3.7523301
    4.1100006     0.3859398     3.7881033
    4.1199999     0.3991098     3.8249989
    4.1300006     0.4129806     3.8630812
    4.1399999     0.4275980     3.9023948
    4.1500006     0.4430210     3.9430120
    4.1599998     0.4593044     3.9849854
    4.1700006     0.4765185     4.0283928
    4.1799998     0.4947289     4.0732951
    4.1900005     0.5140197     4.1197824
    4.1999998     0.5344708     4.1679201
    4.2100005     0.5561830     4.2178116
    4.2199993     0.5792536     4.2695332
    4.2300005     0.6038048     4.3231974
    4.2399993     0.6299559     4.3788919
    4.2500005     0.6578559     4.4367476
    4.2599993     0.6876523     4.4968596
    4.2700005     0.7195287     4.5593743
    4.2800012     0.7536735     4.6244144
    4.2900000     0.7902973     4.6921115
    4.3000011     0.8296537     4.7626319
    4.3099999     0.8720012     4.8361130
    4.3200011     0.9176582     4.9127421
    4.3299999     0.9669531     4.9926686
    4.3400011     1.0202891     5.0760975
    4.3499999     1.0780869     5.1631894
    4.3600006     1.1408619     5.2541628
    4.3699999     1.2091577     5.3491826
    4.3800006     1.2836390     5.4484744
    4.3899999     1.3650141     5.5521908
    4.4000006     1.4541488     5.6605387
    4.4099998     1.5519729     5.7736397
    4.4200006     1.6596206     5.8916483
    4.4299998     1.7783231     6.0145917
    4.4400005     1.9095740     6.1425033
    4.4499998     2.0550065     6.2752237
    4.4600005     2.2165945     6.4125366
    4.4699998     2.3964970     6.5539207
    4.4800005     2.5973065     6.6986732
    4.4899998     2.8218415     6.8456078
    4.5000005     3.0734370     6.9931149
    4.5099998     3.3556509     7.1387973
    4.5200005     3.6725669     7.2794442
    4.5299997     4.0283318     7.4105530
    4.5400004     4.4273868     7.5261779
    4.5499997     4.8736715     7.6183896
    4.5600004     5.3706055     7.6770196
    4.5699997     5.9196696     7.6892319
    4.5800004     6.5198808     7.6395011
    4.5899997     7.1655550     7.5099788
    4.6000004     7.8453703     7.2815399
    4.6099997     8.5399942     6.9362063
    4.6200004     9.2223454     6.4602370
    4.6300011     9.8580208     5.8486581
     4.640000     10.409376      5.108949
     4.650001     10.841770      4.262159
     4.660000     11.129552      3.341645
     4.670001     11.261083      2.386235
     4.680000     11.238632      1.434159
     4.690001     11.074770      0.516354
     4.700000     10.786908     -0.344019
     4.710001     10.393050     -1.131018
    4.7200003     9.9109497    -1.8319938
    4.7300010     9.3586302    -2.4370356
    4.7399998     8.7562265    -2.9385555
    4.7500010     8.1251535    -3.3336749
    4.7599998     7.4872146    -3.6247706
    4.7700009     6.8615389    -3.8198366
    4.7799997     6.2635932    -3.9306908
    4.7900009     5.7036591    -3.9712696
    4.7999997     5.1878343    -3.9556684
    4.8100004     4.7181468    -3.8969183
    4.8199997     4.2942371    -3.8063107
    4.8300004     3.9137087    -3.6931076
    4.8399997     3.5734420    -3.5647316
    4.8500004     3.2696483    -3.4268475
    4.8599997     2.9986649    -3.2838078
    4.8700004     2.7567863    -3.1387568
    4.8799996     2.5407336    -2.9940565
    4.8900003     2.3473935    -2.8513026
    4.8999996     2.1741128    -2.7116771
    4.9100003     2.0184374    -2.5758913
    4.9199996     1.8783141    -2.4444654
    4.9300003     1.7518575    -2.3176281
    4.9399996     1.6375073    -2.1955423
    4.9500003     1.5338300    -2.0781827
    4.9599996     1.4396452    -1.9655278
    4.9700003     1.3538634    -1.8574283
    4.9799995     1.2755901    -1.7537737
    4.9900002     1.2039932    -1.6543591
    5.0000010     1.1383808    -1.5590222
    5.0100002     1.0781437    -1.4675877
    5.0200009     1.0227194    -1.3798385
    5.0300002     0.9716476    -1.2956142
    5.0400009     0.9244899    -1.2147055
    5.0500002     0.8808893    -1.1369610
    5.0600009     0.8405006    -1.0621867
    5.0700002     0.8030444    -0.9902431
    5.0800009     0.7682471    -0.9209538
    5.0900002     0.7358871    -0.8541934
    5.1000009     0.7057469    -0.7898020
    5.1100001     0.6776498    -0.7276686
    5.1200008     0.6514193    -0.6676495
    5.1300001     0.6269149    -0.6096464
    5.1400008     0.6039934    -0.5535306
    5.1500001     0.5825406    -0.4992163
    5.1600008     0.5624399    -0.4465871
    5.1700001     0.5435984    -0.3955680
    5.1800008     0.5259203    -0.3460549
    5.1899996     0.5093299    -0.2979810
    5.2000008     0.4937479    -0.2512530
    5.2099996     0.4791120    -0.2058120
    5.2200007     0.4653568    -0.1615739
    5.2299995     0.4524310    -0.1184864
     5.240001      0.440280     -0.076473
     5.250000      0.428861     -0.035488
    5.2600       0.41813       0.45384E-2
     5.270000      0.408051      0.043648
     5.280000      0.398586      0.081904
    5.2899995     0.3897066     0.1193430
    5.3000002     0.3813818     0.1560246
    5.3099995     0.3735878     0.1919819
    5.3200002     0.3662987     0.2272691
    5.3299994     0.3594958     0.2619172
    5.3400002     0.3531576     0.2959765
    5.3499994     0.3472693     0.3294751
    5.3600001     0.3418140     0.3624612
    5.3700008     0.3367792     0.3949656
    5.3800001     0.3321545     0.4270183
    5.3900008     0.3279287     0.4586645
    5.4000001     0.3240948     0.4899272
    5.4100008     0.3206453     0.5208499
    5.4200001     0.3175765     0.5514548
    5.4300008     0.3148839     0.5817841
    5.4400001     0.3125673     0.6118595
    5.4500008     0.3106255     0.6417223
    5.4600000     0.3090611     0.6713945
    5.4700007     0.3078770     0.7009166
    5.4800000     0.3070789     0.7303112
    5.4900007     0.3066739     0.7596185
    5.5000000     0.3066714     0.7888616
    5.5100007     0.3070827     0.8180821
    5.5200000     0.3079218     0.8473035
    5.5300007     0.3092052     0.8765685
    5.5400000     0.3109517     0.9059019
    5.5500007     0.3131844     0.9353482
    5.5599999     0.3159283     0.9649337
    5.5700006     0.3192137     0.9947050
    5.5799999     0.3230735     1.0246905
    5.5900006     0.3275473     1.0549392
    5.5999999     0.3326777     1.0854818
    5.6100006     0.3385164     1.1163704
    5.6199999     0.3451183     1.1476378
    5.6300006     0.3525501     1.1793393
    5.6399994     0.3608831     1.2115102
    5.6500006     0.3702039     1.2442082
    5.6599994     0.3806049     1.2774704
    5.6700006     0.3921989     1.3113563
    5.6799994     0.4051064     1.3459030
    5.6900005     0.4194748     1.3811693
    5.6999993     0.4354631     1.4171891
    5.7100005     0.4532644     1.4540155
    5.7199993     0.4730889     1.4916723
    5.7300000     0.4951920     1.5301979
    5.7400012     0.5198575     1.5695994
    5.7500000     0.5474112     1.6098640
    5.7600012     0.5782435     1.6509722
    5.7700000     0.6127833     1.6928403
    5.7800012     0.6515472     1.7353612
    5.7900000     0.6951014     1.7783296
    5.8000007     0.7441198     1.8214746
    5.8099999     0.7993323     1.8643695
    5.8200006     0.8615884     1.9064465
    5.8299999     0.9317771     1.9468855
    5.8400006     1.0108842     1.9846013
    5.8499999     1.0998549     2.0181065
    5.8600006     1.1996139     2.0454655
    5.8699999     1.3108095     2.0641541
    5.8800006     1.4337351     2.0710104
    5.8899999     1.5678811     2.0621824
    5.9000006     1.7116940     2.0332217
    5.9099998     1.8619344     1.9793799
    5.9200006     2.0134194     1.8961474
    5.9299998     2.1585970     1.7802525
    5.9400005     2.2879727     1.6307571
    5.9499998     2.3908916     1.4504168
    5.9600005     2.4574327     1.2461938
    5.9699998     2.4804385     1.0291497
    5.9800005     2.4574194     0.8125924
    5.9899998     2.3912168     0.6098886
    6.0000005     2.2891977     0.4317629
    6.0099998     2.1614683     0.2850301
    6.0200005     2.0186005     0.1721060
     6.030000      1.870098      0.091950
     6.040000      1.723303      0.041137
     6.050000      1.583384      0.015162
      6.06000       1.45340       0.00927
     6.070000      1.334950      0.019063
     6.080000      1.228430      0.040743
     6.089999      1.133620      0.071190
    6.1000004     1.0498295     0.1079485
    6.1100011     0.9762117     0.1491158
    6.1200004     0.9118500     0.1932505
    6.1300011     0.8558134     0.2393062
    6.1400003     0.8072735     0.2864954
    6.1500010     0.7654526     0.3342835
    6.1600003     0.7296971     0.3822716
    6.1700010     0.6994240     0.4302166
    6.1799998     0.6741630     0.4779378
    6.1900010     0.6535125     0.5253519
    6.1999998     0.6371667     0.5723941
    6.2100010     0.6248832     0.6190616
    6.2199998     0.6164999     0.6653442
    6.2300010     0.6119152     0.7112709
    6.2399998     0.6110985     0.7568433
    6.2500005     0.6140811     0.8020853
    6.2599998     0.6209602     0.8469755
    6.2700005     0.6319019     0.8914928
    6.2799997     0.6471360     0.9355489
    6.2900004     0.6669731     0.9790258
    6.2999997     0.6917837     1.0217012
    6.3100004     0.7220277     1.0632749
    6.3199997     0.7582144     1.1032830
    6.3300004     0.8009307     1.1411045
    6.3399997     0.8507689     1.1758579
    6.3500004     0.9083335     1.2063886
    6.3599997     0.9741018     1.2311534
    6.3700004     1.0483741     1.2481971
    6.3799996     1.1310066     1.2550800
    6.3900003     1.2212604     1.2489164
    6.3999996     1.3173857     1.2264968
    6.4100003     1.4164125     1.1845801
    6.4199996     1.5137810     1.1204584
    6.4300003     1.6034648     1.0326663
    6.4399996     1.6782750     0.9219332
    6.4500003     1.7309529     0.7917607
    6.4600010     1.7554877     0.6486598
    6.4700003     1.7486103     0.5013778
    6.4800010     1.7106465     0.3593185
    6.4900002     1.6454422     0.2309296
    6.5000010     1.5592930     0.1221426
     6.510000      1.459550      0.035969
     6.520001      1.353161     -0.027383
     6.530000      1.245917     -0.069649
     6.540001      1.141982     -0.093721
    6.5500002     1.0440933    -0.1028664
    6.5600009     0.9536939    -0.1002752
     6.570000      0.871392     -0.088774
     6.580001      0.797142     -0.070726
     6.590000      0.730581     -0.048039
     6.600001      0.671108     -0.022191
    6.6100       0.61808       0.56776E-2
     6.620001      0.570796      0.034726
     6.630000      0.528631      0.064319
     6.640001      0.490967      0.094010
    6.6499996     0.4572772     0.1234646
    6.6600008     0.4270677     0.1524652
    6.6699996     0.3999246     0.1808481
    6.6800008     0.3754686     0.2085217
    6.6899996     0.3533842     0.2354163
    6.7000003     0.3333831     0.2615079
    6.7099996     0.3152280     0.2867774
    6.7200003     0.2987009     0.3112352
    6.7299995     0.2836228     0.3348878
    6.7400002     0.2698281     0.3577631
    6.7499995     0.2571821     0.3798792
    6.7600002     0.2455579     0.4012714
    6.7699995     0.2348527     0.4219626
    6.7800002     0.2249693     0.4419897
    6.7899995     0.2158286     0.4613773
    6.8000002     0.2073549     0.4801611
    6.8099995     0.1994870     0.4983643
    6.8200002     0.1921658     0.5160210
    6.8300009     0.1853421     0.5331553
    6.8400002     0.1789723     0.5497901
    6.8500009     0.1730145     0.5659556
    6.8600001     0.1674350     0.5816696
    6.8700008     0.1622002     0.5969596
    6.8800001     0.1572832     0.6118411
    6.8900008     0.1526568     0.6263388
    6.9000001     0.1482995     0.6404666
    6.9100008     0.1441888     0.6542465
    6.9200001     0.1403074     0.6676906
    6.9300008     0.1366369     0.6808188
    6.9400001     0.1331629     0.6936416
    6.9500008     0.1298704     0.7061770
    6.9600000     0.1267475     0.7184337
    6.9700007     0.1237816     0.7304286
    6.9800000     0.1209629     0.7421690
    6.9900007     0.1182807     0.7536699
    7.0000000     0.1157270     0.7649378
    7.0100007     0.1132927     0.7759861
    7.0200000     0.1109711     0.7868208
    7.0300007     0.1087543     0.7974539
    7.0400000     0.1066369     0.8078904
    7.0500007     0.1046121     0.8181416
    7.0599999     0.1026752     0.8282116
    7.0700006     0.1008204     0.8381109
     7.079999      0.099044      0.847843
     7.090001      0.097340      0.857417
     7.099999      0.095706      0.866836
     7.110001      0.094138      0.876110
     7.119999      0.092632      0.885239
     7.130001      0.091185      0.894234
     7.139999      0.089794      0.903096
     7.150000      0.088455      0.911832
     7.159999      0.087168      0.920444
     7.170000      0.085928      0.928939
     7.179999      0.084734      0.937320
     7.190000      0.083583      0.945591
     7.200001      0.082473      0.953757
     7.210000      0.081404      0.961818
     7.220001      0.080372      0.969782
     7.230000      0.079376      0.977648
     7.240001      0.078414      0.985424
     7.250000      0.077486      0.993108
     7.260001      0.076589      1.000708
     7.270000      0.075722      1.008222
     7.280001      0.074884      1.015656
     7.290000      0.074074      1.023011
     7.300001      0.073291      1.030292
     7.310000      0.072533      1.037497
     7.320001      0.071800      1.044632
     7.330000      0.071091      1.051698
     7.340001      0.070404      1.058697
     7.350000      0.069740      1.065631
     7.360001      0.069096      1.072503
     7.370000      0.068473      1.079314
     7.380001      0.067869      1.086066
     7.390000      0.067284      1.092760
     7.400001      0.066718      1.099400
     7.410000      0.066169      1.105985
     7.420001      0.065637      1.112520
     7.430000      0.065122      1.119002
     7.440001      0.064622      1.125437
     7.450000      0.064139      1.131823
     7.460001      0.063669      1.138164
     7.470000      0.063215      1.144460
     7.480000      0.062774      1.150714
     7.490000      0.062347      1.156924
     7.500000      0.061934      1.163095
     7.510000      0.061533      1.169225
     7.520000      0.061144      1.175318
     7.529999      0.060768      1.181373
     7.540000      0.060403      1.187393
     7.549999      0.060050      1.193377
     7.560000      0.059707      1.199329
     7.570001      0.059376      1.205248
     7.580000      0.059055      1.211134
     7.590001      0.058744      1.216990
     7.600000      0.058444      1.222816
     7.610001      0.058153      1.228614
     7.620000      0.057871      1.234383
     7.630001      0.057599      1.240126
     7.640000      0.057336      1.245842
     7.650001      0.057081      1.251534
     7.660000      0.056836      1.257201
     7.670001      0.056598      1.262845
     7.680000      0.056369      1.268465
     7.690001      0.056148      1.274065
     7.700000      0.055935      1.279642
     7.710001      0.055730      1.285200
     7.720000      0.055532      1.290738
     7.730000      0.055342      1.296257
     7.740000      0.055159      1.301757
     7.750000      0.054983      1.307241
     7.760000      0.054814      1.312707
     7.770000      0.054652      1.318158
     7.780000      0.054496      1.323592
     7.790000      0.054348      1.329013
     7.800000      0.054206      1.334418
     7.810000      0.054070      1.339811
     7.820000      0.053940      1.345190
     7.830000      0.053817      1.350558
     7.840000      0.053700      1.355913
     7.850000      0.053589      1.361258
     7.860000      0.053484      1.366591
     7.870000      0.053385      1.371915
     7.880000      0.053291      1.377230
     7.890000      0.053204      1.382536
     7.900000      0.053121      1.387833
     7.910000      0.053045      1.393123
     7.920000      0.052974      1.398405
     7.930000      0.052908      1.403682
     7.940001      0.052848      1.408952
     7.950000      0.052793      1.414216
     7.960001      0.052743      1.419476
     7.970000      0.052698      1.424730
     7.980001      0.052659      1.429981
     7.990000      0.052625      1.435228
     8.000001      0.052596      1.440472
     8.010000      0.052571      1.445713
     8.020000      0.052552      1.450953
     8.030000      0.052538      1.456191
     8.040001      0.052529      1.461428
     8.050000      0.052524      1.466664
     8.060000      0.052525      1.471901
     8.070000      0.052530      1.477137
     8.080001      0.052540      1.482374
     8.090000      0.052554      1.487613
     8.100000      0.052574      1.492854
     8.110000      0.052598      1.498096
     8.120001      0.052627      1.503342
     8.130000      0.052661      1.508590
     8.140000      0.052699      1.513843
     8.150000      0.052742      1.519099
     8.160001      0.052790      1.524360
     8.170000      0.052843      1.529626
     8.180000      0.052900      1.534898
     8.190000      0.052961      1.540175
     8.200001      0.053028      1.545459
     8.210000      0.053099      1.550749
     8.220000      0.053174      1.556048
     8.230000      0.053255      1.561353
     8.240001      0.053340      1.566668
     8.249999      0.053429      1.571990
     8.260000      0.053524      1.577323
     8.270000      0.053623      1.582664
     8.280001      0.053727      1.588016
     8.290001      0.053835      1.593378
     8.300000      0.053948      1.598751
     8.310001      0.054066      1.604137
     8.320000      0.054189      1.609532
     8.330001      0.054317      1.614942
     8.340000      0.054449      1.620364
     8.350001      0.054586      1.625800
     8.360000      0.054728      1.631249
     8.370001      0.054875      1.636713
     8.380000      0.055027      1.642191
     8.390000      0.055184      1.647685
     8.400000      0.055346      1.653194
     8.410001      0.055513      1.658721
     8.420000      0.055685      1.664263
     8.430000      0.055862      1.669824
     8.440000      0.056045      1.675402
     8.450001      0.056232      1.680998
     8.460000      0.056425      1.686613
     8.470000      0.056623      1.692248
     8.480000      0.056827      1.697902
     8.490001      0.057035      1.703577
     8.500000      0.057250      1.709272
     8.510000      0.057470      1.714990
     8.520000      0.057695      1.720729
     8.530001      0.057926      1.726491
     8.540000      0.058163      1.732276
     8.550000      0.058406      1.738086
     8.559999      0.058654      1.743918
     8.570001      0.058909      1.749777
     8.580000      0.059169      1.755660
     8.590000      0.059436      1.761570
     8.599999      0.059709      1.767506
     8.610001      0.059988      1.773470
     8.620000      0.060273      1.779462
     8.630000      0.060565      1.785482
     8.639999      0.060863      1.791531
     8.650001      0.061168      1.797611
     8.660001      0.061479      1.803721
     8.670000      0.061798      1.809861
     8.680001      0.062123      1.816034
     8.690001      0.062456      1.822239
     8.700001      0.062795      1.828478
     8.710000      0.063142      1.834749
     8.720001      0.063496      1.841057
     8.730000      0.063858      1.847399
     8.740001      0.064227      1.853778
     8.750000      0.064604      1.860192
     8.760001      0.064989      1.866646
     8.770000      0.065383      1.873137
     8.780001      0.065784      1.879668
     8.790000      0.066194      1.886238
     8.800001      0.066612      1.892850
     8.809999      0.067038      1.899502
     8.820001      0.067474      1.906199
     8.830000      0.067919      1.912937
     8.840000      0.068373      1.919721
     8.849999      0.068836      1.926549
     8.860001      0.069309      1.933424
     8.870000      0.069791      1.940346
     8.880000      0.070284      1.947316
     8.889999      0.070786      1.954334
     8.900001      0.071299      1.961405
     8.910000      0.071823      1.968524
     8.920000      0.072357      1.975698
     8.929999      0.072903      1.982922
     8.940001      0.073460      1.990203
     8.950000      0.074028      1.997537
     8.960000      0.074608      2.004929
     8.969999      0.075200      2.012378
     8.980000      0.075805      2.019887
     8.990000      0.076422      2.027454
     9.000000      0.077053      2.035085
     9.009999      0.077696      2.042776
     9.020000      0.078353      2.050533
     9.030001      0.079024      2.058355
     9.040000      0.079709      2.066243
     9.050001      0.080409      2.074200
     9.060000      0.081124      2.082225
     9.070001      0.081854      2.090322
     9.080000      0.082600      2.098490
     9.090001      0.083362      2.106734
     9.100000      0.084140      2.115052
     9.110001      0.084936      2.123449
     9.120000      0.085749      2.131923
     9.130001      0.086580      2.140479
     9.140000      0.087429      2.149116
     9.150001      0.088297      2.157838
     9.160000      0.089185      2.166646
     9.170001      0.090093      2.175542
     9.180000      0.091021      2.184527
     9.190001      0.091970      2.193605
     9.200000      0.092941      2.202776
     9.210001      0.093935      2.212044
     9.219999      0.094951      2.221409
     9.230000      0.095991      2.230876
     9.240000      0.097055      2.240444
     9.250001      0.098145      2.250118
     9.259999      0.099261      2.259900
    9.2700005     0.1004029     2.2697926
    9.2799997     0.1015726     2.2797961
    9.2900000     0.1027708     2.2899163
    9.2999992     0.1039981     2.3001540
    9.3100004     0.1052559     2.3105137
    9.3199997     0.1065447     2.3209963
    9.3299999     0.1078658     2.3316069
    9.3399992     0.1092201     2.3423462
    9.3500004     0.1106090     2.3532200
    9.3599997     0.1120332     2.3642302
    9.3699999     0.1134944     2.3753815
    9.3799992     0.1149934     2.3866735
    9.3900003     0.1165319     2.3981159
    9.4000006     0.1181112     2.4097090
    9.4099998     0.1197324     2.4214549
    9.4200010     0.1213975     2.4333625
    9.4300003     0.1231076     2.4454312
    9.4400005     0.1248649     2.4576688
    9.4499998     0.1266705     2.4700770
    9.4600010     0.1285269     2.4826646
    9.4700003     0.1304354     2.4954314
    9.4800005     0.1323984     2.5083871
    9.4899998     0.1344176     2.5215316
    9.5000010     0.1364957     2.5348754
    9.5100002     0.1386346     2.5484204
    9.5200005     0.1408371     2.5621762
    9.5299997     0.1431051     2.5761452
    9.5400009     0.1454421     2.5903363
    9.5500002     0.1478502     2.6047518
    9.5600004     0.1503331     2.6194043
    9.5699997     0.1528933     2.6342964
    9.5800009     0.1555344     2.6494389
    9.5900002     0.1582597     2.6648338
    9.6000004     0.1610734     2.6804962
    9.6099997     0.1639785     2.6964295
    9.6200008     0.1669800     2.7126431
    9.6300001     0.1700816     2.7291474
    9.6400003     0.1732884     2.7459517
    9.6499996     0.1766047     2.7630618
    9.6600008     0.1800363     2.7804949
    9.6699991     0.1835879     2.7982550
    9.6800003     0.1872663     2.8163590
    9.6899996     0.1910765     2.8348117
    9.7000008     0.1950260     2.8536325
    9.7099991     0.1991209     2.8728271
    9.7200003     0.2033696     2.8924174
    9.7299995     0.2077789     2.9124084
    9.7399998     0.2123580     2.9328208
    9.7500010     0.2171159     2.9536705
    9.7600002     0.2220609     2.9749665
    9.7700014     0.2272049     2.9967330
    9.7799997     0.2325571     3.0189838
    9.7900009     0.2381308     3.0417407
    9.8000002     0.2439370     3.0650184
    9.8100004     0.2499905     3.0888450
    9.8199997     0.2563040     3.1132326
    9.8300009     0.2628949     3.1382143
    9.8400002     0.2697779     3.1638057
    9.8500004     0.2769727     3.1900403
    9.8599997     0.2844962     3.2169371
    9.8700008     0.2923718     3.2445309
    9.8800001     0.3006193     3.2728429
    9.8900003     0.3092655     3.3019173
    9.8999996     0.3183339     3.3317766
    9.9100008     0.3278556     3.3624647
    9.9200001     0.3378587     3.3940094
    9.9300003     0.3483794     3.4264629
    9.9399996     0.3594510     3.4598539
    9.9500008     0.3711167     3.4942393
    9.9600000     0.3834159     3.5296543
    9.9700003     0.3963996     3.5661626
    9.9799995     0.4101151     3.6038053
    9.9900007     0.4246236     3.6426513
    10.000000      0.439983      3.682747
# 
# 04/08/2018 at 00:57 YAMBO @ narro [start]
# 04/08/2018 at 00:57               [end]
#  
# Timing   [Min/Max/Average]: 05s/05s/05s
#
# .-Input file : yambo.in
# | optics                         # [R OPT] Optics
# | chi                            # [R CHI] Dyson equation for Chi.
# | BoseTemp= 0.000000     eV      # Bosonic Temperature
# | FFTGvecs=  3473        RL      # [FFT] Plane-waves
# | Chimod= "IP"                   # [X] IP/Hartree/ALDA/LRC/BSfxc
# | NGsBlkXd= 1            RL      # [Xd] Response block size
# | % QpntsRXd
# |   1 |  4 |                     # [Xd] Transferred momenta
# | %
# | % BndsRnXd
# |   1 | 10 |                     # [Xd] Polarization function bands
# | %
# | GrFnTpXd= "r"                  # [Xd] Green`s function (T)ordered,(R)etarded,(r)senant,(a)ntiresonant [T, R, r, Ta, Ra]
# | % EnRngeXd
# | -10.00000 | 10.00000 | eV      # [Xd] Energy range
# | %
# | % DmRngeXd
# |   0.10000 |  0.10000 | eV      # [Xd] Damping range
# | %
# | CGrdSpXd= 0.000000             # [Xd] [o/o] Coarse grid controller
# | ETStpsXd= 2001                 # [Xd] Total Energy steps
# | % LongDrXd
# | 0.1000E-4 | 0.000    | 0.000    |        # [Xd] [cc] Electric Field
# | %
