#                                                           
#  **    **    **     ****     ****  ******     *******     
# //**  **    ****   /**/**   **/** /*////**   **/////**    
#  //****    **//**  /**//** ** /** /*   /**  **     //**   
#   //**    **  //** /** //***  /** /******  /**      /**   
#    /**   **********/**  //*   /** /*//// **/**      /**   
#    /**  /**//////**/**   /    /** /*    /**//**     **    
#    /**  /**     /**/**        /** /*******  //*******     
#    //   //      // //         //  ///////    ///////      
#                                                           
#        Version 4.3.0 Revision 15338 Hash 3cdf17c          
#                      MPI+SLK Build                        
#                http://www.yambo-code.org                  
#
# Absorption @ Q(3) [iku] : 0.000000  0.000000  0.500000
#
#
#
# - The Green`s function is Resonant -
#
#
#    E/ev[1]      EPS-Im[2]    EPS-Re[3]
#
   -10.00       0.1538E-2     1.291   
   -9.990       0.1540E-2     1.291   
   -9.980       0.1542E-2     1.291   
   -9.970       0.1544E-2     1.291   
   -9.960       0.1545E-2     1.292   
   -9.950       0.1547E-2     1.292   
   -9.940       0.1549E-2     1.292   
   -9.930       0.1550E-2     1.292   
   -9.920       0.1552E-2     1.292   
   -9.910       0.1554E-2     1.292   
   -9.900       0.1556E-2     1.293   
   -9.890       0.1557E-2     1.293   
   -9.880       0.1559E-2     1.293   
   -9.870       0.1561E-2     1.293   
   -9.860       0.1563E-2     1.293   
   -9.850       0.1564E-2     1.293   
   -9.840       0.1566E-2     1.293   
   -9.830       0.1568E-2     1.294   
   -9.820       0.1570E-2     1.294   
   -9.810       0.1571E-2     1.294   
   -9.800       0.1573E-2     1.294   
   -9.790       0.1575E-2     1.294   
   -9.780       0.1577E-2     1.294   
   -9.770       0.1578E-2     1.295   
   -9.760       0.1580E-2     1.295   
   -9.750       0.1582E-2     1.295   
   -9.740       0.1584E-2     1.295   
   -9.730       0.1585E-2     1.295   
   -9.720       0.1587E-2     1.295   
   -9.710       0.1589E-2     1.295   
   -9.700       0.1591E-2     1.296   
   -9.690       0.1593E-2     1.296   
   -9.680       0.1594E-2     1.296   
   -9.670       0.1596E-2     1.296   
   -9.660       0.1598E-2     1.296   
   -9.650       0.1600E-2     1.296   
   -9.640       0.1602E-2     1.297   
   -9.630       0.1603E-2     1.297   
   -9.620       0.1605E-2     1.297   
   -9.610       0.1607E-2     1.297   
   -9.600       0.1609E-2     1.297   
   -9.590       0.1611E-2     1.297   
   -9.580       0.1612E-2     1.298   
   -9.570       0.1614E-2     1.298   
   -9.560       0.1616E-2     1.298   
   -9.550       0.1618E-2     1.298   
   -9.540       0.1620E-2     1.298   
   -9.530       0.1622E-2     1.298   
   -9.520       0.1623E-2     1.299   
   -9.510       0.1625E-2     1.299   
   -9.500       0.1627E-2     1.299   
   -9.490       0.1629E-2     1.299   
   -9.480       0.1631E-2     1.299   
   -9.470       0.1633E-2     1.299   
   -9.460       0.1635E-2     1.300   
   -9.450       0.1636E-2     1.300   
   -9.440       0.1638E-2     1.300   
   -9.430       0.1640E-2     1.300   
   -9.420       0.1642E-2     1.300   
   -9.410       0.1644E-2     1.300   
   -9.400       0.1646E-2     1.301   
   -9.390       0.1648E-2     1.301   
   -9.380       0.1650E-2     1.301   
   -9.370       0.1652E-2     1.301   
   -9.360       0.1653E-2     1.301   
   -9.350       0.1655E-2     1.301   
   -9.340       0.1657E-2     1.301   
   -9.330       0.1659E-2     1.302   
   -9.320       0.1661E-2     1.302   
   -9.310       0.1663E-2     1.302   
   -9.300       0.1665E-2     1.302   
   -9.290       0.1667E-2     1.302   
   -9.280       0.1669E-2     1.302   
   -9.270       0.1671E-2     1.303   
   -9.260       0.1673E-2     1.303   
   -9.250       0.1675E-2     1.303   
   -9.240       0.1676E-2     1.303   
   -9.230       0.1678E-2     1.303   
   -9.220       0.1680E-2     1.303   
   -9.210       0.1682E-2     1.304   
   -9.200       0.1684E-2     1.304   
   -9.190       0.1686E-2     1.304   
   -9.180       0.1688E-2     1.304   
   -9.170       0.1690E-2     1.304   
   -9.160       0.1692E-2     1.305   
   -9.150       0.1694E-2     1.305   
   -9.140       0.1696E-2     1.305   
   -9.130       0.1698E-2     1.305   
   -9.120       0.1700E-2     1.305   
   -9.110       0.1702E-2     1.305   
   -9.100       0.1704E-2     1.306   
   -9.090       0.1706E-2     1.306   
   -9.080       0.1708E-2     1.306   
   -9.070       0.1710E-2     1.306   
   -9.060       0.1712E-2     1.306   
   -9.050       0.1714E-2     1.306   
   -9.040       0.1716E-2     1.307   
   -9.030       0.1718E-2     1.307   
   -9.020       0.1720E-2     1.307   
   -9.010       0.1722E-2     1.307   
   -9.000       0.1724E-2     1.307   
   -8.990       0.1726E-2     1.307   
   -8.980       0.1728E-2     1.308   
   -8.970       0.1730E-2     1.308   
   -8.960       0.1732E-2     1.308   
   -8.950       0.1734E-2     1.308   
   -8.940       0.1736E-2     1.308   
   -8.930       0.1738E-2     1.308   
   -8.920       0.1740E-2     1.309   
   -8.910       0.1743E-2     1.309   
   -8.900       0.1745E-2     1.309   
   -8.890       0.1747E-2     1.309   
   -8.880       0.1749E-2     1.309   
   -8.870       0.1751E-2     1.309   
   -8.860       0.1753E-2     1.310   
   -8.850       0.1755E-2     1.310   
   -8.840       0.1757E-2     1.310   
   -8.830       0.1759E-2     1.310   
   -8.820       0.1761E-2     1.310   
   -8.810       0.1763E-2     1.311   
   -8.800       0.1765E-2     1.311   
   -8.790       0.1768E-2     1.311   
   -8.780       0.1770E-2     1.311   
   -8.770       0.1772E-2     1.311   
   -8.760       0.1774E-2     1.311   
   -8.750       0.1776E-2     1.312   
   -8.740       0.1778E-2     1.312   
   -8.730       0.1780E-2     1.312   
   -8.720       0.1782E-2     1.312   
   -8.710       0.1785E-2     1.312   
   -8.700       0.1787E-2     1.313   
   -8.690       0.1789E-2     1.313   
   -8.680       0.1791E-2     1.313   
   -8.670       0.1793E-2     1.313   
   -8.660       0.1795E-2     1.313   
   -8.650       0.1797E-2     1.313   
   -8.640       0.1800E-2     1.314   
   -8.630       0.1802E-2     1.314   
   -8.620       0.1804E-2     1.314   
   -8.610       0.1806E-2     1.314   
   -8.600       0.1808E-2     1.314   
   -8.590       0.1811E-2     1.314   
   -8.580       0.1813E-2     1.315   
   -8.570       0.1815E-2     1.315   
   -8.560       0.1817E-2     1.315   
   -8.550       0.1819E-2     1.315   
   -8.540       0.1822E-2     1.315   
   -8.530       0.1824E-2     1.316   
   -8.520       0.1826E-2     1.316   
   -8.510       0.1828E-2     1.316   
   -8.500       0.1830E-2     1.316   
   -8.490       0.1833E-2     1.316   
   -8.480       0.1835E-2     1.316   
   -8.470       0.1837E-2     1.317   
   -8.460       0.1839E-2     1.317   
   -8.450       0.1842E-2     1.317   
   -8.440       0.1844E-2     1.317   
   -8.430       0.1846E-2     1.317   
   -8.420       0.1848E-2     1.318   
   -8.410       0.1851E-2     1.318   
   -8.400       0.1853E-2     1.318   
   -8.390       0.1855E-2     1.318   
   -8.380       0.1858E-2     1.318   
   -8.370       0.1860E-2     1.319   
   -8.360       0.1862E-2     1.319   
   -8.350       0.1864E-2     1.319   
   -8.340       0.1867E-2     1.319   
   -8.330       0.1869E-2     1.319   
   -8.320       0.1871E-2     1.319   
   -8.310       0.1874E-2     1.320   
   -8.300       0.1876E-2     1.320   
   -8.290       0.1878E-2     1.320   
   -8.280       0.1881E-2     1.320   
   -8.270       0.1883E-2     1.320   
   -8.260       0.1885E-2     1.321   
   -8.250       0.1888E-2     1.321   
   -8.240       0.1890E-2     1.321   
   -8.230       0.1892E-2     1.321   
   -8.220       0.1895E-2     1.321   
   -8.210       0.1897E-2     1.322   
   -8.200       0.1899E-2     1.322   
   -8.190       0.1902E-2     1.322   
   -8.180       0.1904E-2     1.322   
   -8.170       0.1906E-2     1.322   
   -8.160       0.1909E-2     1.322   
   -8.150       0.1911E-2     1.323   
   -8.140       0.1914E-2     1.323   
   -8.130       0.1916E-2     1.323   
   -8.120       0.1918E-2     1.323   
   -8.110       0.1921E-2     1.323   
   -8.100       0.1923E-2     1.324   
   -8.090       0.1926E-2     1.324   
   -8.080       0.1928E-2     1.324   
   -8.070       0.1930E-2     1.324   
   -8.060       0.1933E-2     1.324   
   -8.050       0.1935E-2     1.325   
   -8.040       0.1938E-2     1.325   
   -8.030       0.1940E-2     1.325   
   -8.020       0.1943E-2     1.325   
   -8.010       0.1945E-2     1.325   
   -8.000       0.1947E-2     1.326   
   -7.990       0.1950E-2     1.326   
   -7.980       0.1952E-2     1.326   
   -7.970       0.1955E-2     1.326   
   -7.960       0.1957E-2     1.326   
   -7.950       0.1960E-2     1.327   
   -7.940       0.1962E-2     1.327   
   -7.930       0.1965E-2     1.327   
   -7.920       0.1967E-2     1.327   
   -7.910       0.1970E-2     1.327   
   -7.900       0.1972E-2     1.328   
   -7.890       0.1975E-2     1.328   
   -7.880       0.1977E-2     1.328   
   -7.870       0.1980E-2     1.328   
   -7.860       0.1982E-2     1.328   
   -7.850       0.1985E-2     1.329   
   -7.840       0.1987E-2     1.329   
   -7.830       0.1990E-2     1.329   
   -7.820       0.1993E-2     1.329   
   -7.810       0.1995E-2     1.329   
   -7.800       0.1998E-2     1.330   
   -7.790       0.2000E-2     1.330   
   -7.780       0.2003E-2     1.330   
   -7.770       0.2005E-2     1.330   
   -7.760       0.2008E-2     1.330   
   -7.750       0.2010E-2     1.331   
   -7.740       0.2013E-2     1.331   
   -7.730       0.2016E-2     1.331   
   -7.720       0.2018E-2     1.331   
   -7.710       0.2021E-2     1.331   
   -7.700       0.2023E-2     1.332   
   -7.690       0.2026E-2     1.332   
   -7.680       0.2029E-2     1.332   
   -7.670       0.2031E-2     1.332   
   -7.660       0.2034E-2     1.332   
   -7.650       0.2037E-2     1.333   
   -7.640       0.2039E-2     1.333   
   -7.630       0.2042E-2     1.333   
   -7.620       0.2045E-2     1.333   
   -7.610       0.2047E-2     1.333   
   -7.600       0.2050E-2     1.334   
   -7.590       0.2052E-2     1.334   
   -7.580       0.2055E-2     1.334   
   -7.570       0.2058E-2     1.334   
   -7.560       0.2061E-2     1.334   
   -7.550       0.2063E-2     1.335   
   -7.540       0.2066E-2     1.335   
   -7.530       0.2069E-2     1.335   
   -7.520       0.2071E-2     1.335   
   -7.510       0.2074E-2     1.335   
   -7.500       0.2077E-2     1.336   
   -7.490       0.2079E-2     1.336   
   -7.480       0.2082E-2     1.336   
   -7.470       0.2085E-2     1.336   
   -7.460       0.2088E-2     1.336   
   -7.450       0.2090E-2     1.337   
   -7.440       0.2093E-2     1.337   
   -7.430       0.2096E-2     1.337   
   -7.420       0.2099E-2     1.337   
   -7.410       0.2101E-2     1.337   
   -7.400       0.2104E-2     1.338   
   -7.390       0.2107E-2     1.338   
   -7.380       0.2110E-2     1.338   
   -7.370       0.2113E-2     1.338   
   -7.360       0.2115E-2     1.339   
   -7.350       0.2118E-2     1.339   
   -7.340       0.2121E-2     1.339   
   -7.330       0.2124E-2     1.339   
   -7.320       0.2127E-2     1.339   
   -7.310       0.2129E-2     1.340   
   -7.300       0.2132E-2     1.340   
   -7.290       0.2135E-2     1.340   
   -7.280       0.2138E-2     1.340   
   -7.270       0.2141E-2     1.340   
   -7.260       0.2144E-2     1.341   
   -7.250       0.2147E-2     1.341   
   -7.240       0.2149E-2     1.341   
   -7.230       0.2152E-2     1.341   
   -7.220       0.2155E-2     1.342   
   -7.210       0.2158E-2     1.342   
   -7.200       0.2161E-2     1.342   
   -7.190       0.2164E-2     1.342   
   -7.180       0.2167E-2     1.342   
   -7.170       0.2170E-2     1.343   
   -7.160       0.2173E-2     1.343   
   -7.150       0.2176E-2     1.343   
   -7.140       0.2178E-2     1.343   
   -7.130       0.2181E-2     1.343   
   -7.120       0.2184E-2     1.344   
   -7.110       0.2187E-2     1.344   
   -7.100       0.2190E-2     1.344   
   -7.090       0.2193E-2     1.344   
   -7.080       0.2196E-2     1.345   
   -7.070       0.2199E-2     1.345   
   -7.060       0.2202E-2     1.345   
   -7.050       0.2205E-2     1.345   
   -7.040       0.2208E-2     1.345   
   -7.030       0.2211E-2     1.346   
   -7.020       0.2214E-2     1.346   
   -7.010       0.2217E-2     1.346   
   -7.000       0.2220E-2     1.346   
   -6.990       0.2223E-2     1.347   
   -6.980       0.2226E-2     1.347   
   -6.970       0.2229E-2     1.347   
   -6.960       0.2232E-2     1.347   
   -6.950       0.2235E-2     1.347   
   -6.940       0.2238E-2     1.348   
   -6.930       0.2241E-2     1.348   
   -6.920       0.2245E-2     1.348   
   -6.910       0.2248E-2     1.348   
   -6.900       0.2251E-2     1.349   
   -6.890       0.2254E-2     1.349   
   -6.880       0.2257E-2     1.349   
   -6.870       0.2260E-2     1.349   
   -6.860       0.2263E-2     1.349   
   -6.850       0.2266E-2     1.350   
   -6.840       0.2269E-2     1.350   
   -6.830       0.2272E-2     1.350   
   -6.820       0.2276E-2     1.350   
   -6.810       0.2279E-2     1.351   
   -6.800       0.2282E-2     1.351   
   -6.790       0.2285E-2     1.351   
   -6.780       0.2288E-2     1.351   
   -6.770       0.2291E-2     1.352   
   -6.760       0.2295E-2     1.352   
   -6.750       0.2298E-2     1.352   
   -6.740       0.2301E-2     1.352   
   -6.730       0.2304E-2     1.352   
   -6.720       0.2307E-2     1.353   
   -6.710       0.2311E-2     1.353   
   -6.700       0.2314E-2     1.353   
   -6.690       0.2317E-2     1.353   
   -6.680       0.2320E-2     1.354   
   -6.670       0.2324E-2     1.354   
   -6.660       0.2327E-2     1.354   
   -6.650       0.2330E-2     1.354   
   -6.640       0.2333E-2     1.355   
   -6.630       0.2337E-2     1.355   
   -6.620       0.2340E-2     1.355   
   -6.610       0.2343E-2     1.355   
   -6.600       0.2347E-2     1.355   
   -6.590       0.2350E-2     1.356   
   -6.580       0.2353E-2     1.356   
   -6.570       0.2356E-2     1.356   
   -6.560       0.2360E-2     1.356   
   -6.550       0.2363E-2     1.357   
   -6.540       0.2366E-2     1.357   
   -6.530       0.2370E-2     1.357   
   -6.520       0.2373E-2     1.357   
   -6.510       0.2377E-2     1.358   
   -6.500       0.2380E-2     1.358   
   -6.490       0.2383E-2     1.358   
   -6.480       0.2387E-2     1.358   
   -6.470       0.2390E-2     1.359   
   -6.460       0.2393E-2     1.359   
   -6.450       0.2397E-2     1.359   
   -6.440       0.2400E-2     1.359   
   -6.430       0.2404E-2     1.360   
   -6.420       0.2407E-2     1.360   
   -6.410       0.2411E-2     1.360   
   -6.400       0.2414E-2     1.360   
   -6.390       0.2417E-2     1.360   
   -6.380       0.2421E-2     1.361   
   -6.370       0.2424E-2     1.361   
   -6.360       0.2428E-2     1.361   
   -6.350       0.2431E-2     1.361   
   -6.340       0.2435E-2     1.362   
   -6.330       0.2438E-2     1.362   
   -6.320       0.2442E-2     1.362   
   -6.310       0.2445E-2     1.362   
   -6.300       0.2449E-2     1.363   
   -6.290       0.2453E-2     1.363   
   -6.280       0.2456E-2     1.363   
   -6.270       0.2460E-2     1.363   
   -6.260       0.2463E-2     1.364   
   -6.250       0.2467E-2     1.364   
   -6.240       0.2470E-2     1.364   
   -6.230       0.2474E-2     1.364   
   -6.220       0.2477E-2     1.365   
   -6.210       0.2481E-2     1.365   
   -6.200       0.2485E-2     1.365   
   -6.190       0.2488E-2     1.365   
   -6.180       0.2492E-2     1.366   
   -6.170       0.2496E-2     1.366   
   -6.160       0.2499E-2     1.366   
   -6.150       0.2503E-2     1.366   
   -6.140       0.2507E-2     1.367   
   -6.130       0.2510E-2     1.367   
   -6.120       0.2514E-2     1.367   
   -6.110       0.2518E-2     1.367   
   -6.100       0.2521E-2     1.368   
   -6.090       0.2525E-2     1.368   
   -6.080       0.2529E-2     1.368   
   -6.070       0.2532E-2     1.368   
   -6.060       0.2536E-2     1.369   
   -6.050       0.2540E-2     1.369   
   -6.040       0.2544E-2     1.369   
   -6.030       0.2547E-2     1.369   
   -6.020       0.2551E-2     1.370   
   -6.010       0.2555E-2     1.370   
   -6.000       0.2559E-2     1.370   
   -5.990       0.2563E-2     1.370   
   -5.980       0.2566E-2     1.371   
   -5.970       0.2570E-2     1.371   
   -5.960       0.2574E-2     1.371   
   -5.950       0.2578E-2     1.371   
   -5.940       0.2582E-2     1.372   
   -5.930       0.2585E-2     1.372   
   -5.920       0.2589E-2     1.372   
   -5.910       0.2593E-2     1.372   
   -5.900       0.2597E-2     1.373   
   -5.890       0.2601E-2     1.373   
   -5.880       0.2605E-2     1.373   
   -5.870       0.2609E-2     1.374   
   -5.860       0.2613E-2     1.374   
   -5.850       0.2617E-2     1.374   
   -5.840       0.2621E-2     1.374   
   -5.830       0.2624E-2     1.375   
   -5.820       0.2628E-2     1.375   
   -5.810       0.2632E-2     1.375   
   -5.800       0.2636E-2     1.375   
   -5.790       0.2640E-2     1.376   
   -5.780       0.2644E-2     1.376   
   -5.770       0.2648E-2     1.376   
   -5.760       0.2652E-2     1.376   
   -5.750       0.2656E-2     1.377   
   -5.740       0.2660E-2     1.377   
   -5.730       0.2664E-2     1.377   
   -5.720       0.2668E-2     1.377   
   -5.710       0.2672E-2     1.378   
   -5.700       0.2677E-2     1.378   
   -5.690       0.2681E-2     1.378   
   -5.680       0.2685E-2     1.379   
   -5.670       0.2689E-2     1.379   
   -5.660       0.2693E-2     1.379   
   -5.650       0.2697E-2     1.379   
   -5.640       0.2701E-2     1.380   
   -5.630       0.2705E-2     1.380   
   -5.620       0.2709E-2     1.380   
   -5.610       0.2714E-2     1.380   
   -5.600       0.2718E-2     1.381   
   -5.590       0.2722E-2     1.381   
   -5.580       0.2726E-2     1.381   
   -5.570       0.2730E-2     1.382   
   -5.560       0.2735E-2     1.382   
   -5.550       0.2739E-2     1.382   
   -5.540       0.2743E-2     1.382   
   -5.530       0.2747E-2     1.383   
   -5.520       0.2751E-2     1.383   
   -5.510       0.2756E-2     1.383   
   -5.500       0.2760E-2     1.383   
   -5.490       0.2764E-2     1.384   
   -5.480       0.2769E-2     1.384   
   -5.470       0.2773E-2     1.384   
   -5.460       0.2777E-2     1.385   
   -5.450       0.2782E-2     1.385   
   -5.440       0.2786E-2     1.385   
   -5.430       0.2790E-2     1.385   
   -5.420       0.2795E-2     1.386   
   -5.410       0.2799E-2     1.386   
   -5.400       0.2803E-2     1.386   
   -5.390       0.2808E-2     1.387   
   -5.380       0.2812E-2     1.387   
   -5.370       0.2817E-2     1.387   
   -5.360       0.2821E-2     1.387   
   -5.350       0.2825E-2     1.388   
   -5.340       0.2830E-2     1.388   
   -5.330       0.2834E-2     1.388   
   -5.320       0.2839E-2     1.388   
   -5.310       0.2843E-2     1.389   
   -5.300       0.2848E-2     1.389   
   -5.290       0.2852E-2     1.389   
   -5.280       0.2857E-2     1.390   
   -5.270       0.2861E-2     1.390   
   -5.260       0.2866E-2     1.390   
   -5.250       0.2870E-2     1.390   
   -5.240       0.2875E-2     1.391   
   -5.230       0.2879E-2     1.391   
   -5.220       0.2884E-2     1.391   
   -5.210       0.2889E-2     1.392   
   -5.200       0.2893E-2     1.392   
   -5.190       0.2898E-2     1.392   
   -5.180       0.2903E-2     1.393   
   -5.170       0.2907E-2     1.393   
   -5.160       0.2912E-2     1.393   
   -5.150       0.2916E-2     1.393   
   -5.140       0.2921E-2     1.394   
   -5.130       0.2926E-2     1.394   
   -5.120       0.2931E-2     1.394   
   -5.110       0.2935E-2     1.395   
   -5.100       0.2940E-2     1.395   
   -5.090       0.2945E-2     1.395   
   -5.080       0.2949E-2     1.395   
   -5.070       0.2954E-2     1.396   
   -5.060       0.2959E-2     1.396   
   -5.050       0.2964E-2     1.396   
   -5.040       0.2969E-2     1.397   
   -5.030       0.2973E-2     1.397   
   -5.020       0.2978E-2     1.397   
   -5.010       0.2983E-2     1.398   
   -5.000       0.2988E-2     1.398   
   -4.990       0.2993E-2     1.398   
   -4.980       0.2998E-2     1.398   
   -4.970       0.3003E-2     1.399   
   -4.960       0.3007E-2     1.399   
   -4.950       0.3012E-2     1.399   
   -4.940       0.3017E-2     1.400   
   -4.930       0.3022E-2     1.400   
   -4.920       0.3027E-2     1.400   
   -4.910       0.3032E-2     1.401   
   -4.900       0.3037E-2     1.401   
   -4.890       0.3042E-2     1.401   
   -4.880       0.3047E-2     1.401   
   -4.870       0.3052E-2     1.402   
   -4.860       0.3057E-2     1.402   
   -4.850       0.3062E-2     1.402   
   -4.840       0.3067E-2     1.403   
   -4.830       0.3072E-2     1.403   
   -4.820       0.3077E-2     1.403   
   -4.810       0.3083E-2     1.404   
   -4.800       0.3088E-2     1.404   
   -4.790       0.3093E-2     1.404   
   -4.780       0.3098E-2     1.405   
   -4.770       0.3103E-2     1.405   
   -4.760       0.3108E-2     1.405   
   -4.750       0.3113E-2     1.405   
   -4.740       0.3119E-2     1.406   
   -4.730       0.3124E-2     1.406   
   -4.720       0.3129E-2     1.406   
   -4.710       0.3134E-2     1.407   
   -4.700       0.3140E-2     1.407   
   -4.690       0.3145E-2     1.407   
   -4.680       0.3150E-2     1.408   
   -4.670       0.3155E-2     1.408   
   -4.660       0.3161E-2     1.408   
   -4.650       0.3166E-2     1.409   
   -4.640       0.3171E-2     1.409   
   -4.630       0.3177E-2     1.409   
   -4.620       0.3182E-2     1.410   
   -4.610       0.3187E-2     1.410   
   -4.600       0.3193E-2     1.410   
   -4.590       0.3198E-2     1.410   
   -4.580       0.3204E-2     1.411   
   -4.570       0.3209E-2     1.411   
   -4.560       0.3215E-2     1.411   
   -4.550       0.3220E-2     1.412   
   -4.540       0.3226E-2     1.412   
   -4.530       0.3231E-2     1.412   
   -4.520       0.3237E-2     1.413   
   -4.510       0.3242E-2     1.413   
   -4.500       0.3248E-2     1.413   
   -4.490       0.3253E-2     1.414   
   -4.480       0.3259E-2     1.414   
   -4.470       0.3264E-2     1.414   
   -4.460       0.3270E-2     1.415   
   -4.450       0.3276E-2     1.415   
   -4.440       0.3281E-2     1.415   
   -4.430       0.3287E-2     1.416   
   -4.420       0.3293E-2     1.416   
   -4.410       0.3298E-2     1.416   
   -4.400       0.3304E-2     1.417   
   -4.390       0.3310E-2     1.417   
   -4.380       0.3315E-2     1.417   
   -4.370       0.3321E-2     1.418   
   -4.360       0.3327E-2     1.418   
   -4.350       0.3333E-2     1.418   
   -4.340       0.3339E-2     1.419   
   -4.330       0.3344E-2     1.419   
   -4.320       0.3350E-2     1.419   
   -4.310       0.3356E-2     1.420   
   -4.300       0.3362E-2     1.420   
   -4.290       0.3368E-2     1.420   
   -4.280       0.3374E-2     1.421   
   -4.270       0.3380E-2     1.421   
   -4.260       0.3386E-2     1.421   
   -4.250       0.3391E-2     1.422   
   -4.240       0.3397E-2     1.422   
   -4.230       0.3403E-2     1.422   
   -4.220       0.3409E-2     1.423   
   -4.210       0.3415E-2     1.423   
   -4.200       0.3421E-2     1.423   
   -4.190       0.3428E-2     1.424   
   -4.180       0.3434E-2     1.424   
   -4.170       0.3440E-2     1.424   
   -4.160       0.3446E-2     1.425   
   -4.150       0.3452E-2     1.425   
   -4.140       0.3458E-2     1.425   
   -4.130       0.3464E-2     1.426   
   -4.120       0.3470E-2     1.426   
   -4.110       0.3477E-2     1.426   
   -4.100       0.3483E-2     1.427   
   -4.090       0.3489E-2     1.427   
   -4.080       0.3495E-2     1.428   
   -4.070       0.3502E-2     1.428   
   -4.060       0.3508E-2     1.428   
   -4.050       0.3514E-2     1.429   
   -4.040       0.3520E-2     1.429   
   -4.030       0.3527E-2     1.429   
   -4.020       0.3533E-2     1.430   
   -4.010       0.3539E-2     1.430   
   -4.000       0.3546E-2     1.430   
   -3.990       0.3552E-2     1.431   
   -3.980       0.3559E-2     1.431   
   -3.970       0.3565E-2     1.431   
   -3.960       0.3572E-2     1.432   
   -3.950       0.3578E-2     1.432   
   -3.940       0.3585E-2     1.432   
   -3.930       0.3591E-2     1.433   
   -3.920       0.3598E-2     1.433   
   -3.910       0.3604E-2     1.434   
   -3.900       0.3611E-2     1.434   
   -3.890       0.3617E-2     1.434   
   -3.880       0.3624E-2     1.435   
   -3.870       0.3631E-2     1.435   
   -3.860       0.3637E-2     1.435   
   -3.850       0.3644E-2     1.436   
   -3.840       0.3651E-2     1.436   
   -3.830       0.3657E-2     1.436   
   -3.820       0.3664E-2     1.437   
   -3.810       0.3671E-2     1.437   
   -3.800       0.3678E-2     1.438   
   -3.790       0.3685E-2     1.438   
   -3.780       0.3691E-2     1.438   
   -3.770       0.3698E-2     1.439   
   -3.760       0.3705E-2     1.439   
   -3.750       0.3712E-2     1.439   
   -3.740       0.3719E-2     1.440   
   -3.730       0.3726E-2     1.440   
     -3.7200       0.0037       1.4405
     -3.7100       0.0037       1.4409
     -3.7000       0.0037       1.4413
     -3.6900       0.0038       1.4417
     -3.6800       0.0038       1.4420
     -3.6700       0.0038       1.4424
     -3.6600       0.0038       1.4428
     -3.6500       0.0038       1.4432
     -3.6400       0.0038       1.4435
     -3.6300       0.0038       1.4439
     -3.6200       0.0038       1.4443
     -3.6100       0.0038       1.4447
     -3.6000       0.0038       1.4451
     -3.5900       0.0038       1.4454
     -3.5800       0.0038       1.4458
     -3.5700       0.0038       1.4462
     -3.5600       0.0038       1.4466
     -3.5500       0.0039       1.4470
     -3.5400       0.0039       1.4474
     -3.5300       0.0039       1.4478
     -3.5200       0.0039       1.4481
     -3.5100       0.0039       1.4485
     -3.5000       0.0039       1.4489
     -3.4900       0.0039       1.4493
     -3.4800       0.0039       1.4497
     -3.4700       0.0039       1.4501
     -3.4600       0.0039       1.4505
     -3.4500       0.0039       1.4509
     -3.4400       0.0039       1.4513
     -3.4300       0.0039       1.4517
     -3.4200       0.0040       1.4521
     -3.4100       0.0040       1.4525
     -3.4000       0.0040       1.4528
     -3.3900       0.0040       1.4532
     -3.3800       0.0040       1.4536
     -3.3700       0.0040       1.4540
     -3.3600       0.0040       1.4544
     -3.3500       0.0040       1.4548
     -3.3400       0.0040       1.4552
     -3.3300       0.0040       1.4556
     -3.3200       0.0040       1.4560
     -3.3100       0.0040       1.4564
     -3.3000       0.0040       1.4569
     -3.2900       0.0041       1.4573
     -3.2800       0.0041       1.4577
     -3.2700       0.0041       1.4581
     -3.2600       0.0041       1.4585
     -3.2500       0.0041       1.4589
     -3.2400       0.0041       1.4593
     -3.2300       0.0041       1.4597
     -3.2200       0.0041       1.4601
     -3.2100       0.0041       1.4605
     -3.2000       0.0041       1.4609
     -3.1900       0.0041       1.4613
     -3.1800       0.0041       1.4618
     -3.1700       0.0042       1.4622
     -3.1600       0.0042       1.4626
     -3.1500       0.0042       1.4630
     -3.1400       0.0042       1.4634
     -3.1300       0.0042       1.4638
     -3.1200       0.0042       1.4643
     -3.1100       0.0042       1.4647
     -3.1000       0.0042       1.4651
     -3.0900       0.0042       1.4655
     -3.0800       0.0042       1.4659
     -3.0700       0.0042       1.4664
     -3.0600       0.0042       1.4668
     -3.0500       0.0043       1.4672
     -3.0400       0.0043       1.4676
     -3.0300       0.0043       1.4681
     -3.0200       0.0043       1.4685
     -3.0100       0.0043       1.4689
     -3.0000       0.0043       1.4694
     -2.9900       0.0043       1.4698
     -2.9800       0.0043       1.4702
     -2.9700       0.0043       1.4706
     -2.9600       0.0043       1.4711
     -2.9500       0.0043       1.4715
     -2.9400       0.0043       1.4719
     -2.9300       0.0044       1.4724
     -2.9200       0.0044       1.4728
     -2.9100       0.0044       1.4733
     -2.9000       0.0044       1.4737
     -2.8900       0.0044       1.4741
     -2.8800       0.0044       1.4746
     -2.8700       0.0044       1.4750
     -2.8600       0.0044       1.4755
     -2.8500       0.0044       1.4759
     -2.8400       0.0044       1.4763
     -2.8300       0.0044       1.4768
     -2.8200       0.0045       1.4772
     -2.8100       0.0045       1.4777
     -2.8000       0.0045       1.4781
     -2.7900       0.0045       1.4786
     -2.7800       0.0045       1.4790
     -2.7700       0.0045       1.4795
     -2.7600       0.0045       1.4799
     -2.7500       0.0045       1.4804
     -2.7400       0.0045       1.4808
     -2.7300       0.0045       1.4813
     -2.7200       0.0046       1.4817
     -2.7100       0.0046       1.4822
     -2.7000       0.0046       1.4826
     -2.6900       0.0046       1.4831
     -2.6800       0.0046       1.4836
     -2.6700       0.0046       1.4840
     -2.6600       0.0046       1.4845
     -2.6500       0.0046       1.4849
     -2.6400       0.0046       1.4854
     -2.6300       0.0046       1.4859
     -2.6200       0.0046       1.4863
     -2.6100       0.0047       1.4868
     -2.6000       0.0047       1.4873
     -2.5900       0.0047       1.4877
     -2.5800       0.0047       1.4882
     -2.5700       0.0047       1.4887
     -2.5600       0.0047       1.4891
     -2.5500       0.0047       1.4896
     -2.5400       0.0047       1.4901
     -2.5300       0.0047       1.4906
     -2.5200       0.0048       1.4910
     -2.5100       0.0048       1.4915
     -2.5000       0.0048       1.4920
     -2.4900       0.0048       1.4925
     -2.4800       0.0048       1.4929
     -2.4700       0.0048       1.4934
     -2.4600       0.0048       1.4939
     -2.4500       0.0048       1.4944
     -2.4400       0.0048       1.4949
     -2.4300       0.0048       1.4953
     -2.4200       0.0049       1.4958
     -2.4100       0.0049       1.4963
     -2.4000       0.0049       1.4968
     -2.3900       0.0049       1.4973
     -2.3800       0.0049       1.4978
     -2.3700       0.0049       1.4983
     -2.3600       0.0049       1.4988
     -2.3500       0.0049       1.4993
     -2.3400       0.0049       1.4997
     -2.3300       0.0050       1.5002
     -2.3200       0.0050       1.5007
     -2.3100       0.0050       1.5012
     -2.3000       0.0050       1.5017
     -2.2900       0.0050       1.5022
     -2.2800       0.0050       1.5027
     -2.2700       0.0050       1.5032
     -2.2600       0.0050       1.5037
     -2.2500       0.0050       1.5042
     -2.2400       0.0051       1.5047
     -2.2300       0.0051       1.5052
     -2.2200       0.0051       1.5058
     -2.2100       0.0051       1.5063
     -2.2000       0.0051       1.5068
     -2.1900       0.0051       1.5073
     -2.1800       0.0051       1.5078
     -2.1700       0.0051       1.5083
     -2.1600       0.0051       1.5088
     -2.1500       0.0052       1.5093
     -2.1400       0.0052       1.5099
     -2.1300       0.0052       1.5104
     -2.1200       0.0052       1.5109
     -2.1100       0.0052       1.5114
     -2.1000       0.0052       1.5119
     -2.0900       0.0052       1.5125
     -2.0800       0.0052       1.5130
     -2.0700       0.0053       1.5135
     -2.0600       0.0053       1.5140
     -2.0500       0.0053       1.5146
     -2.0400       0.0053       1.5151
     -2.0300       0.0053       1.5156
     -2.0200       0.0053       1.5161
     -2.0100       0.0053       1.5167
     -2.0000       0.0053       1.5172
     -1.9900       0.0054       1.5177
     -1.9800       0.0054       1.5183
     -1.9700       0.0054       1.5188
     -1.9600       0.0054       1.5194
     -1.9500       0.0054       1.5199
     -1.9400       0.0054       1.5204
     -1.9300       0.0054       1.5210
     -1.9200       0.0054       1.5215
     -1.9100       0.0055       1.5221
     -1.9000       0.0055       1.5226
     -1.8900       0.0055       1.5232
     -1.8800       0.0055       1.5237
     -1.8700       0.0055       1.5243
     -1.8600       0.0055       1.5248
     -1.8500       0.0055       1.5254
     -1.8400       0.0055       1.5259
     -1.8300       0.0056       1.5265
     -1.8200       0.0056       1.5270
     -1.8100       0.0056       1.5276
     -1.8000       0.0056       1.5281
     -1.7900       0.0056       1.5287
     -1.7800       0.0056       1.5293
     -1.7700       0.0056       1.5298
     -1.7600       0.0057       1.5304
     -1.7500       0.0057       1.5310
     -1.7400       0.0057       1.5315
     -1.7300       0.0057       1.5321
     -1.7200       0.0057       1.5327
     -1.7100       0.0057       1.5332
     -1.7000       0.0057       1.5338
     -1.6900       0.0058       1.5344
     -1.6800       0.0058       1.5350
     -1.6700       0.0058       1.5355
     -1.6600       0.0058       1.5361
     -1.6500       0.0058       1.5367
     -1.6400       0.0058       1.5373
     -1.6300       0.0058       1.5379
     -1.6200       0.0059       1.5384
     -1.6100       0.0059       1.5390
     -1.6000       0.0059       1.5396
     -1.5900       0.0059       1.5402
     -1.5800       0.0059       1.5408
     -1.5700       0.0059       1.5414
     -1.5600       0.0059       1.5420
     -1.5500       0.0060       1.5426
     -1.5400       0.0060       1.5432
     -1.5300       0.0060       1.5438
     -1.5200       0.0060       1.5444
     -1.5100       0.0060       1.5450
     -1.5000       0.0060       1.5456
     -1.4900       0.0060       1.5462
     -1.4800       0.0061       1.5468
     -1.4700       0.0061       1.5474
     -1.4600       0.0061       1.5480
     -1.4500       0.0061       1.5486
     -1.4400       0.0061       1.5492
     -1.4300       0.0061       1.5498
     -1.4200       0.0062       1.5505
     -1.4100       0.0062       1.5511
     -1.4000       0.0062       1.5517
     -1.3900       0.0062       1.5523
     -1.3800       0.0062       1.5529
     -1.3700       0.0062       1.5536
     -1.3600       0.0063       1.5542
     -1.3500       0.0063       1.5548
     -1.3400       0.0063       1.5554
     -1.3300       0.0063       1.5561
     -1.3200       0.0063       1.5567
     -1.3100       0.0063       1.5573
     -1.3000       0.0064       1.5580
     -1.2900       0.0064       1.5586
     -1.2800       0.0064       1.5592
     -1.2700       0.0064       1.5599
     -1.2600       0.0064       1.5605
     -1.2500       0.0064       1.5612
     -1.2400       0.0065       1.5618
     -1.2300       0.0065       1.5624
     -1.2200       0.0065       1.5631
     -1.2100       0.0065       1.5637
     -1.2000       0.0065       1.5644
     -1.1900       0.0065       1.5650
     -1.1800       0.0066       1.5657
     -1.1700       0.0066       1.5664
     -1.1600       0.0066       1.5670
     -1.1500       0.0066       1.5677
     -1.1400       0.0066       1.5683
     -1.1300       0.0066       1.5690
     -1.1200       0.0067       1.5697
     -1.1100       0.0067       1.5703
     -1.1000       0.0067       1.5710
     -1.0900       0.0067       1.5717
     -1.0800       0.0067       1.5723
     -1.0700       0.0068       1.5730
     -1.0600       0.0068       1.5737
     -1.0500       0.0068       1.5744
     -1.0400       0.0068       1.5751
     -1.0300       0.0068       1.5757
     -1.0200       0.0068       1.5764
     -1.0100       0.0069       1.5771
     -1.0000       0.0069       1.5778
     -0.9900       0.0069       1.5785
     -0.9800       0.0069       1.5792
     -0.9700       0.0069       1.5799
     -0.9600       0.0070       1.5806
     -0.9500       0.0070       1.5813
     -0.9400       0.0070       1.5820
     -0.9300       0.0070       1.5827
     -0.9200       0.0070       1.5834
     -0.9100       0.0071       1.5841
     -0.9000       0.0071       1.5848
     -0.8900       0.0071       1.5855
     -0.8800       0.0071       1.5862
     -0.8700       0.0071       1.5869
     -0.8600       0.0072       1.5876
     -0.8500       0.0072       1.5883
     -0.8400       0.0072       1.5891
     -0.8300       0.0072       1.5898
     -0.8200       0.0072       1.5905
     -0.8100       0.0073       1.5912
     -0.8000       0.0073       1.5920
     -0.7900       0.0073       1.5927
     -0.7800       0.0073       1.5934
     -0.7700       0.0074       1.5941
     -0.7600       0.0074       1.5949
     -0.7500       0.0074       1.5956
     -0.7400       0.0074       1.5964
     -0.7300       0.0074       1.5971
     -0.7200       0.0075       1.5978
     -0.7100       0.0075       1.5986
     -0.7000       0.0075       1.5993
     -0.6900       0.0075       1.6001
     -0.6800       0.0075       1.6008
     -0.6700       0.0076       1.6016
     -0.6600       0.0076       1.6024
     -0.6500       0.0076       1.6031
     -0.6400       0.0076       1.6039
     -0.6300       0.0077       1.6046
     -0.6200       0.0077       1.6054
     -0.6100       0.0077       1.6062
     -0.6000       0.0077       1.6070
     -0.5900       0.0078       1.6077
     -0.5800       0.0078       1.6085
     -0.5700       0.0078       1.6093
     -0.5600       0.0078       1.6101
     -0.5500       0.0078       1.6108
     -0.5400       0.0079       1.6116
     -0.5300       0.0079       1.6124
     -0.5200       0.0079       1.6132
     -0.5100       0.0079       1.6140
     -0.5000       0.0080       1.6148
     -0.4900       0.0080       1.6156
     -0.4800       0.0080       1.6164
     -0.4700       0.0080       1.6172
     -0.4600       0.0081       1.6180
     -0.4500       0.0081       1.6188
     -0.4400       0.0081       1.6196
     -0.4300       0.0081       1.6204
     -0.4200       0.0082       1.6212
     -0.4100       0.0082       1.6221
     -0.4000       0.0082       1.6229
     -0.3900       0.0082       1.6237
     -0.3800       0.0083       1.6245
     -0.3700       0.0083       1.6254
     -0.3600       0.0083       1.6262
     -0.3500       0.0083       1.6270
     -0.3400       0.0084       1.6279
     -0.3300       0.0084       1.6287
     -0.3200       0.0084       1.6295
     -0.3100       0.0084       1.6304
     -0.3000       0.0085       1.6312
     -0.2900       0.0085       1.6321
     -0.2800       0.0085       1.6329
     -0.2700       0.0086       1.6338
     -0.2600       0.0086       1.6346
     -0.2500       0.0086       1.6355
     -0.2400       0.0086       1.6363
     -0.2300       0.0087       1.6372
     -0.2200       0.0087       1.6381
     -0.2100       0.0087       1.6390
     -0.2000       0.0088       1.6398
     -0.1900       0.0088       1.6407
     -0.1800       0.0088       1.6416
     -0.1700       0.0088       1.6425
     -0.1600       0.0089       1.6433
     -0.1500       0.0089       1.6442
     -0.1400       0.0089       1.6451
     -0.1300       0.0090       1.6460
     -0.1200       0.0090       1.6469
     -0.1100       0.0090       1.6478
     -0.1000       0.0090       1.6487
     -0.0900       0.0091       1.6496
     -0.0800       0.0091       1.6505
     -0.0700       0.0091       1.6514
     -0.0600       0.0092       1.6524
     -0.0500       0.0092       1.6533
     -0.0400       0.0092       1.6542
     -0.0300       0.0093       1.6551
     -0.0200       0.0093       1.6560
     -0.0100       0.0093       1.6570
      0.0000       0.0094       1.6579
      0.0100       0.0094       1.6588
      0.0200       0.0094       1.6598
      0.0300       0.0095       1.6607
      0.0400       0.0095       1.6617
      0.0500       0.0095       1.6626
      0.0600       0.0095       1.6636
      0.0700       0.0096       1.6645
      0.0800       0.0096       1.6655
      0.0900       0.0096       1.6665
      0.1000       0.0097       1.6674
      0.1100       0.0097       1.6684
      0.1200       0.0097       1.6694
      0.1300       0.0098       1.6703
      0.1400       0.0098       1.6713
      0.1500       0.0099       1.6723
      0.1600       0.0099       1.6733
      0.1700       0.0099       1.6743
      0.1800       0.0100       1.6753
      0.1900       0.0100       1.6763
     0.20000      0.01003      1.67727
     0.21000      0.01006      1.67827
     0.22000      0.01010      1.67928
     0.23000      0.01014      1.68029
     0.24000      0.01017      1.68130
     0.25000      0.01021      1.68232
     0.26000      0.01025      1.68334
     0.27000      0.01028      1.68437
     0.28000      0.01032      1.68540
     0.29000      0.01036      1.68643
     0.30000      0.01040      1.68747
     0.31000      0.01043      1.68851
     0.32000      0.01047      1.68955
     0.33000      0.01051      1.69060
     0.34000      0.01055      1.69165
     0.35000      0.01059      1.69271
     0.36000      0.01063      1.69377
     0.37000      0.01067      1.69483
     0.38000      0.01071      1.69590
     0.39000      0.01075      1.69697
     0.40000      0.01079      1.69805
     0.41000      0.01083      1.69913
     0.42000      0.01087      1.70021
     0.43000      0.01091      1.70130
     0.44000      0.01095      1.70239
     0.45000      0.01099      1.70349
     0.46000      0.01103      1.70459
     0.47000      0.01108      1.70570
     0.48000      0.01112      1.70680
     0.49000      0.01116      1.70792
     0.50000      0.01120      1.70903
     0.51000      0.01125      1.71016
     0.52000      0.01129      1.71128
     0.53000      0.01133      1.71241
     0.54000      0.01138      1.71355
     0.55000      0.01142      1.71469
     0.56000      0.01147      1.71583
     0.57000      0.01151      1.71698
     0.58000      0.01156      1.71813
     0.59000      0.01160      1.71929
     0.60000      0.01165      1.72045
     0.61000      0.01169      1.72162
     0.62000      0.01174      1.72279
     0.63000      0.01179      1.72396
     0.64000      0.01183      1.72514
     0.65000      0.01188      1.72633
     0.66000      0.01193      1.72752
     0.67000      0.01198      1.72871
     0.68000      0.01203      1.72991
     0.69000      0.01207      1.73111
     0.70000      0.01212      1.73232
     0.71000      0.01217      1.73354
     0.72000      0.01222      1.73475
     0.73000      0.01227      1.73598
     0.74000      0.01232      1.73721
     0.75000      0.01237      1.73844
     0.76000      0.01242      1.73968
     0.77000      0.01248      1.74092
     0.78000      0.01253      1.74217
     0.79000      0.01258      1.74343
     0.80000      0.01263      1.74469
     0.81000      0.01268      1.74595
     0.82000      0.01274      1.74722
     0.83000      0.01279      1.74849
     0.84000      0.01285      1.74978
     0.85000      0.01290      1.75106
     0.86000      0.01295      1.75235
     0.87000      0.01301      1.75365
     0.88000      0.01306      1.75495
     0.89000      0.01312      1.75626
     0.90000      0.01318      1.75757
     0.91000      0.01323      1.75889
     0.92000      0.01329      1.76022
     0.93000      0.01335      1.76155
     0.94000      0.01341      1.76288
     0.95000      0.01346      1.76423
     0.96000      0.01352      1.76557
     0.97000      0.01358      1.76693
     0.98000      0.01364      1.76829
     0.99000      0.01370      1.76965
     1.00000      0.01376      1.77103
     1.01000      0.01382      1.77240
     1.02000      0.01389      1.77379
     1.03000      0.01395      1.77518
     1.04000      0.01401      1.77657
     1.05000      0.01407      1.77798
     1.06000      0.01414      1.77939
     1.07000      0.01420      1.78080
     1.08000      0.01426      1.78222
     1.09000      0.01433      1.78365
     1.10000      0.01439      1.78508
     1.11000      0.01446      1.78652
     1.12000      0.01453      1.78797
     1.13000      0.01459      1.78943
     1.14000      0.01466      1.79089
     1.15000      0.01473      1.79236
     1.16000      0.01480      1.79383
     1.17000      0.01486      1.79531
     1.18000      0.01493      1.79680
     1.19000      0.01500      1.79829
     1.20000      0.01507      1.79980
     1.21000      0.01515      1.80131
     1.22000      0.01522      1.80282
     1.23000      0.01529      1.80434
     1.24000      0.01536      1.80588
     1.25000      0.01544      1.80741
     1.26000      0.01551      1.80896
     1.27000      0.01558      1.81051
     1.28000      0.01566      1.81207
     1.29000      0.01573      1.81364
     1.30000      0.01581      1.81521
     1.31000      0.01589      1.81680
     1.32000      0.01597      1.81839
     1.33000      0.01604      1.81999
     1.34000      0.01612      1.82159
     1.35000      0.01620      1.82321
     1.36000      0.01628      1.82483
     1.37000      0.01636      1.82646
     1.38000      0.01644      1.82810
     1.39000      0.01653      1.82974
     1.40000      0.01661      1.83140
     1.41000      0.01669      1.83306
     1.42000      0.01678      1.83473
     1.43000      0.01686      1.83641
     1.44000      0.01695      1.83810
     1.45000      0.01704      1.83980
     1.46000      0.01712      1.84150
     1.47000      0.01721      1.84322
     1.48000      0.01730      1.84494
     1.49000      0.01739      1.84667
     1.50000      0.01748      1.84841
     1.51000      0.01757      1.85016
     1.52000      0.01766      1.85192
     1.53000      0.01775      1.85369
     1.54000      0.01785      1.85547
     1.55000      0.01794      1.85725
     1.56000      0.01804      1.85905
     1.57000      0.01813      1.86085
     1.58000      0.01823      1.86267
     1.59000      0.01833      1.86449
     1.60000      0.01843      1.86633
     1.61000      0.01853      1.86817
     1.62000      0.01863      1.87003
     1.63000      0.01873      1.87189
     1.64000      0.01883      1.87377
     1.65000      0.01893      1.87565
     1.66000      0.01904      1.87755
     1.67000      0.01914      1.87945
     1.68000      0.01925      1.88137
     1.69000      0.01936      1.88330
     1.70000      0.01946      1.88523
     1.71000      0.01957      1.88718
     1.72000      0.01968      1.88914
     1.73000      0.01979      1.89111
     1.74000      0.01991      1.89309
     1.75000      0.02002      1.89509
     1.76000      0.02013      1.89709
     1.77000      0.02025      1.89911
     1.78000      0.02037      1.90113
     1.79000      0.02048      1.90317
     1.80000      0.02060      1.90522
     1.81000      0.02072      1.90729
     1.82000      0.02084      1.90936
     1.83000      0.02097      1.91145
     1.84000      0.02109      1.91355
     1.85000      0.02121      1.91566
     1.86000      0.02134      1.91778
     1.87000      0.02147      1.91992
     1.88000      0.02160      1.92206
     1.89000      0.02173      1.92423
     1.90000      0.02186      1.92640
     1.91000      0.02199      1.92859
     1.92000      0.02212      1.93079
     1.93000      0.02226      1.93300
     1.94000      0.02239      1.93523
     1.95000      0.02253      1.93747
     1.96000      0.02267      1.93973
     1.97000      0.02281      1.94200
     1.98000      0.02295      1.94428
     1.99000      0.02310      1.94658
     2.00000      0.02324      1.94889
     2.01000      0.02339      1.95122
     2.02000      0.02354      1.95356
     2.03000      0.02369      1.95592
     2.04000      0.02384      1.95829
     2.05000      0.02399      1.96067
     2.06000      0.02415      1.96307
     2.07000      0.02430      1.96549
     2.08000      0.02446      1.96792
     2.09000      0.02462      1.97037
     2.10000      0.02478      1.97284
     2.11000      0.02495      1.97532
     2.12000      0.02511      1.97781
     2.13000      0.02528      1.98033
     2.14000      0.02545      1.98286
     2.15000      0.02562      1.98540
     2.16000      0.02579      1.98797
     2.17000      0.02596      1.99055
     2.18000      0.02614      1.99315
     2.19000      0.02632      1.99576
     2.20000      0.02650      1.99840
     2.21000      0.02668      2.00105
     2.22000      0.02687      2.00372
     2.23000      0.02705      2.00641
     2.24000      0.02724      2.00912
     2.25000      0.02743      2.01184
     2.26000      0.02763      2.01459
     2.27000      0.02782      2.01735
     2.28000      0.02802      2.02014
     2.29000      0.02822      2.02294
     2.30000      0.02842      2.02577
     2.31000      0.02863      2.02861
     2.32000      0.02883      2.03147
     2.33000      0.02904      2.03436
     2.34000      0.02926      2.03727
     2.35000      0.02947      2.04019
     2.36000      0.02969      2.04314
     2.37000      0.02991      2.04611
     2.38000      0.03013      2.04911
     2.39000      0.03036      2.05212
     2.40000      0.03059      2.05516
     2.41000      0.03082      2.05822
     2.42000      0.03105      2.06131
     2.43000      0.03129      2.06441
     2.44000      0.03153      2.06754
     2.45000      0.03178      2.07070
     2.46000      0.03202      2.07388
     2.47000      0.03227      2.07708
     2.48000      0.03252      2.08031
     2.49000      0.03278      2.08356
     2.50000      0.03304      2.08684
     2.51000      0.03330      2.09015
     2.52000      0.03357      2.09348
     2.53000      0.03384      2.09684
     2.54000      0.03411      2.10023
     2.55000      0.03439      2.10364
     2.56000      0.03467      2.10708
     2.57000      0.03496      2.11055
     2.58000      0.03525      2.11404
     2.59000      0.03554      2.11757
     2.60000      0.03583      2.12113
     2.61000      0.03614      2.12471
     2.62000      0.03644      2.12832
     2.63000      0.03675      2.13197
     2.64000      0.03706      2.13565
     2.65000      0.03738      2.13935
     2.66000      0.03770      2.14309
     2.67000      0.03803      2.14686
     2.68000      0.03836      2.15067
     2.69000      0.03870      2.15450
     2.70000      0.03904      2.15837
     2.71000      0.03939      2.16228
     2.72000      0.03974      2.16622
     2.73000      0.04009      2.17019
     2.74000      0.04045      2.17420
     2.75000      0.04082      2.17825
     2.76000      0.04119      2.18233
     2.77000      0.04157      2.18645
     2.78000      0.04196      2.19061
     2.79000      0.04235      2.19480
     2.80000      0.04274      2.19904
     2.81000      0.04314      2.20331
     2.82000      0.04355      2.20762
     2.83000      0.04397      2.21198
     2.84000      0.04439      2.21637
     2.85000      0.04481      2.22081
     2.86000      0.04525      2.22529
     2.87000      0.04569      2.22981
     2.88000      0.04614      2.23438
     2.89000      0.04659      2.23899
     2.90000      0.04705      2.24365
     2.91000      0.04752      2.24835
     2.92000      0.04800      2.25310
     2.93000      0.04849      2.25790
     2.94000      0.04898      2.26275
     2.95000      0.04948      2.26764
     2.96000      0.04999      2.27259
     2.97000      0.05051      2.27759
     2.98000      0.05104      2.28263
     2.99000      0.05158      2.28773
     3.00000      0.05212      2.29289
     3.01000      0.05268      2.29810
     3.02000      0.05325      2.30336
     3.03000      0.05382      2.30868
     3.04000      0.05441      2.31406
     3.05000      0.05500      2.31949
     3.06000      0.05561      2.32498
     3.07000      0.05622      2.33054
     3.08000      0.05685      2.33616
     3.09000      0.05749      2.34183
     3.10000      0.05814      2.34758
     3.11000      0.05881      2.35338
     3.12000      0.05948      2.35925
     3.13000      0.06017      2.36519
     3.14000      0.06087      2.37120
     3.15000      0.06159      2.37728
     3.16000      0.06232      2.38343
     3.17000      0.06306      2.38965
     3.18000      0.06382      2.39595
     3.19000      0.06459      2.40232
     3.20000      0.06537      2.40876
     3.21000      0.06618      2.41529
     3.22000      0.06699      2.42189
     3.23000      0.06783      2.42858
     3.24000      0.06868      2.43534
     3.25000      0.06955      2.44220
     3.26000      0.07044      2.44913
     3.27000      0.07134      2.45616
     3.28000      0.07226      2.46328
     3.29000      0.07321      2.47048
     3.30000      0.07417      2.47779
     3.31000      0.07515      2.48518
     3.32000      0.07616      2.49268
     3.33000      0.07718      2.50027
     3.34000      0.07823      2.50796
     3.35000      0.07930      2.51576
     3.36000      0.08040      2.52367
     3.37000      0.08152      2.53168
     3.38000      0.08266      2.53980
     3.39000      0.08383      2.54804
     3.40000      0.08503      2.55639
     3.41000      0.08626      2.56486
     3.42000      0.08751      2.57345
     3.43000      0.08879      2.58216
     3.44000      0.09010      2.59101
     3.45000      0.09145      2.59998
     3.46000      0.09282      2.60908
     3.47000      0.09423      2.61832
     3.48000      0.09568      2.62770
     3.49000      0.09716      2.63722
     3.50000      0.09867      2.64688
    3.510000     0.100225     2.656696
    3.520000     0.101818     2.666664
    3.530000     0.103452     2.676788
    3.540000     0.105128     2.687073
    3.550000     0.106847     2.697523
    3.560000     0.108611     2.708141
    3.570000     0.110421     2.718932
    3.580000     0.112280     2.729901
    3.590000     0.114189     2.741053
    3.600000     0.116150     2.752391
    3.610000     0.118165     2.763922
    3.620001     0.120235     2.775651
    3.630000     0.122363     2.787580
    3.640001     0.124551     2.799720
    3.650000     0.126802     2.812071
    3.660001     0.129117     2.824645
    3.670000     0.131500     2.837442
    3.680001     0.133953     2.850475
    3.690000     0.136478     2.863743
    3.700001     0.139079     2.877261
    3.710000     0.141759     2.891029
    3.720001     0.144521     2.905060
    3.730000     0.147368     2.919358
    3.740000     0.150305     2.933934
    3.750000     0.153334     2.948793
    3.760000     0.156461     2.963949
    3.770000     0.159687     2.979404
    3.780000     0.163020     2.995175
    3.790000     0.166463     3.011266
    3.800000     0.170021     3.027691
    3.810000     0.173699     3.044457
    3.820000     0.177503     3.061581
    3.830000     0.181438     3.079068
    3.840000     0.185512     3.096937
    3.850000     0.189729     3.115194
    3.860000     0.194099     3.133859
    3.869999     0.198626     3.152939
    3.880000     0.203321     3.172457
    3.889999     0.208190     3.192419
    3.900000     0.213243     3.212849
    3.910001     0.218489     3.233761
    3.920000     0.223937     3.255169
    3.930001     0.229600     3.277098
    3.940000     0.235487     3.299559
    3.950001     0.241612     3.322582
    3.960000     0.247986     3.346180
    3.970001     0.254625     3.370382
    3.980000     0.261542     3.395204
    3.990001     0.268754     3.420680
    4.000000     0.276276     3.446828
    4.010001     0.284130     3.473683
    4.020000     0.292332     3.501265
    4.030001     0.300905     3.529613
    4.040000     0.309869     3.558753
    4.050001     0.319253     3.588725
    4.060000     0.329078     3.619557
    4.070001     0.339377     3.651296
    4.080000     0.350177     3.683972
    4.090001     0.361514     3.717639
    4.100000     0.373421     3.752329
    4.110001     0.385940     3.788104
    4.120000     0.399110     3.824999
    4.130001     0.412981     3.863081
    4.140000     0.427598     3.902395
    4.150001     0.443021     3.943012
    4.160000     0.459304     3.984985
    4.170001     0.476518     4.028393
    4.180000     0.494729     4.073295
    4.190001     0.514020     4.119782
    4.200000     0.534471     4.167920
    4.210001     0.556183     4.217812
    4.219999     0.579254     4.269532
    4.230000     0.603805     4.323197
    4.239999     0.629956     4.378892
    4.250000     0.657856     4.436747
    4.259999     0.687652     4.496859
    4.270000     0.719528     4.559375
    4.280001     0.753673     4.624414
    4.290000     0.790297     4.692110
    4.300001     0.829654     4.762632
    4.310000     0.872001     4.836112
    4.320001     0.917658     4.912743
    4.330000     0.966953     4.992668
    4.340001     1.020289     5.076097
    4.350000     1.078087     5.163188
    4.360001     1.140862     5.254162
    4.370000     1.209158     5.349184
    4.380001     1.283639     5.448474
    4.390000     1.365014     5.552190
    4.400001     1.454149     5.660540
    4.410000     1.551973     5.773640
    4.420001     1.659621     5.891648
    4.430000     1.778323     6.014592
    4.440001     1.909574     6.142502
    4.450000     2.055007     6.275225
    4.460001     2.216594     6.412536
    4.470000     2.396497     6.553921
    4.480000     2.597306     6.698674
    4.490000     2.821841     6.845608
    4.500000     3.073436     6.993113
    4.510000     3.355651     7.138797
    4.520000     3.672566     7.279444
    4.530000     4.028331     7.410551
    4.540000     4.427385     7.526178
    4.550000     4.873671     7.618391
    4.560000     5.370605     7.677019
    4.570000     5.919667     7.689231
    4.580000     6.519878     7.639501
    4.590000     7.165555     7.509978
    4.600000     7.845369     7.281540
    4.610000     8.539992     6.936206
    4.620000     9.222344     6.460237
    4.630001     9.858019     5.848657
     4.64000     10.40938      5.10895
     4.65000     10.84177      4.26216
     4.66000     11.12955      3.34165
     4.67000     11.26108      2.38623
     4.68000     11.23863      1.43416
     4.69000     11.07477      0.51635
     4.70000     10.78691     -0.34402
     4.71000     10.39305     -1.13102
    4.720000     9.910948    -1.831993
    4.730001     9.358628    -2.437036
    4.740000     8.756225    -2.938555
    4.750001     8.125153    -3.333674
    4.760000     7.487215    -3.624770
    4.770001     6.861537    -3.819836
    4.780000     6.263593    -3.930690
    4.790001     5.703659    -3.971269
    4.800000     5.187837    -3.955667
    4.810000     4.718150    -3.896918
    4.820000     4.294238    -3.806310
    4.830000     3.913709    -3.693108
    4.840000     3.573442    -3.564732
    4.850000     3.269647    -3.426846
    4.860000     2.998665    -3.283807
    4.870000     2.756786    -3.138757
    4.880000     2.540734    -2.994057
    4.890000     2.347394    -2.851303
    4.900000     2.174113    -2.711677
    4.910000     2.018438    -2.575891
    4.920000     1.878314    -2.444465
    4.930000     1.751858    -2.317627
    4.940000     1.637507    -2.195542
    4.950000     1.533830    -2.078183
    4.960000     1.439645    -1.965528
    4.970000     1.353863    -1.857429
    4.980000     1.275590    -1.753773
    4.990000     1.203993    -1.654359
    5.000001     1.138381    -1.559022
    5.010000     1.078144    -1.467588
    5.020001     1.022719    -1.379838
    5.030000     0.971647    -1.295614
    5.040001     0.924490    -1.214705
    5.050000     0.880889    -1.136961
    5.060001     0.840501    -1.062186
    5.070000     0.803044    -0.990243
    5.080001     0.768247    -0.920954
    5.090000     0.735887    -0.854193
    5.100001     0.705747    -0.789802
    5.110000     0.677649    -0.727669
    5.120001     0.651419    -0.667649
    5.130000     0.626915    -0.609646
    5.140001     0.603993    -0.553531
    5.150000     0.582541    -0.499216
    5.160001     0.562440    -0.446587
    5.170000     0.543598    -0.395568
    5.180001     0.525920    -0.346055
    5.190000     0.509330    -0.297981
    5.200001     0.493748    -0.251253
    5.210000     0.479112    -0.205812
    5.220001     0.465357    -0.161574
    5.230000     0.452431    -0.118486
     5.24000      0.44028     -0.07647
     5.25000      0.42886     -0.03549
    5.260       0.4181       0.4538E-2
     5.27000      0.40805      0.04365
     5.28000      0.39859      0.08190
    5.289999     0.389707     0.119343
    5.300000     0.381382     0.156025
    5.309999     0.373588     0.191982
    5.320000     0.366299     0.227269
    5.329999     0.359496     0.261917
    5.340000     0.353158     0.295977
    5.349999     0.347269     0.329475
    5.360000     0.341814     0.362461
    5.370001     0.336779     0.394966
    5.380000     0.332155     0.427018
    5.390001     0.327929     0.458665
    5.400000     0.324095     0.489927
    5.410001     0.320645     0.520850
    5.420000     0.317576     0.551455
    5.430001     0.314884     0.581784
    5.440000     0.312567     0.611859
    5.450001     0.310625     0.641722
    5.460000     0.309061     0.671395
    5.470001     0.307877     0.700917
    5.480000     0.307079     0.730311
    5.490001     0.306674     0.759619
    5.500000     0.306671     0.788862
    5.510001     0.307083     0.818082
    5.520000     0.307922     0.847304
    5.530001     0.309205     0.876569
    5.540000     0.310952     0.905902
    5.550001     0.313184     0.935348
    5.560000     0.315928     0.964934
    5.570001     0.319214     0.994705
    5.580000     0.323074     1.024691
    5.590001     0.327547     1.054939
    5.600000     0.332678     1.085482
    5.610001     0.338516     1.116370
    5.620000     0.345118     1.147638
    5.630001     0.352550     1.179339
    5.639999     0.360883     1.211510
    5.650001     0.370204     1.244208
    5.659999     0.380605     1.277471
    5.670001     0.392199     1.311356
    5.679999     0.405106     1.345903
    5.690001     0.419475     1.381169
    5.699999     0.435463     1.417189
    5.710001     0.453264     1.454016
    5.719999     0.473089     1.491672
    5.730000     0.495192     1.530198
    5.740001     0.519858     1.569600
    5.750000     0.547411     1.609864
    5.760001     0.578243     1.650972
    5.770000     0.612783     1.692841
    5.780001     0.651547     1.735361
    5.790000     0.695101     1.778330
    5.800001     0.744120     1.821475
    5.810000     0.799332     1.864370
    5.820001     0.861588     1.906446
    5.830000     0.931777     1.946886
    5.840001     1.010884     1.984601
    5.850000     1.099855     2.018107
    5.860001     1.199614     2.045465
    5.870000     1.310809     2.064154
    5.880001     1.433735     2.071010
    5.890000     1.567881     2.062183
    5.900001     1.711694     2.033222
    5.910000     1.861934     1.979380
    5.920001     2.013419     1.896147
    5.930000     2.158597     1.780253
    5.940001     2.287972     1.630757
    5.950000     2.390891     1.450417
    5.960001     2.457432     1.246194
    5.970000     2.480438     1.029150
    5.980000     2.457420     0.812592
    5.990000     2.391217     0.609889
    6.000000     2.289197     0.431763
    6.010000     2.161468     0.285030
    6.020000     2.018600     0.172106
     6.03000      1.87010      0.09195
     6.04000      1.72330      0.04114
     6.05000      1.58338      0.01516
      6.0600       1.4534       0.0093
     6.07000      1.33495      0.01906
     6.08000      1.22843      0.04074
     6.09000      1.13362      0.07119
    6.100000     1.049830     0.107949
    6.110001     0.976211     0.149116
    6.120000     0.911850     0.193251
    6.130001     0.855813     0.239306
    6.140000     0.807273     0.286496
    6.150001     0.765453     0.334284
    6.160000     0.729697     0.382272
    6.170001     0.699424     0.430217
    6.180000     0.674163     0.477938
    6.190001     0.653512     0.525352
    6.200000     0.637167     0.572394
    6.210001     0.624883     0.619062
    6.220000     0.616500     0.665344
    6.230001     0.611915     0.711271
    6.240000     0.611099     0.756843
    6.250000     0.614081     0.802085
    6.260000     0.620960     0.846976
    6.270000     0.631902     0.891493
    6.280000     0.647136     0.935549
    6.290000     0.666973     0.979026
    6.300000     0.691783     1.021701
    6.310000     0.722028     1.063275
    6.320000     0.758214     1.103283
    6.330000     0.800931     1.141104
    6.340000     0.850769     1.175858
    6.350000     0.908333     1.206388
    6.360000     0.974102     1.231153
    6.370000     1.048374     1.248197
    6.380000     1.131007     1.255080
    6.390000     1.221261     1.248917
    6.400000     1.317386     1.226497
    6.410000     1.416413     1.184580
    6.420000     1.513781     1.120458
    6.430000     1.603464     1.032666
    6.440000     1.678275     0.921933
    6.450000     1.730953     0.791761
    6.460001     1.755487     0.648660
    6.470000     1.748610     0.501378
    6.480001     1.710647     0.359318
    6.490000     1.645442     0.230930
    6.500001     1.559293     0.122143
     6.51000      1.45955      0.03597
     6.52000      1.35316     -0.02738
     6.53000      1.24592     -0.06965
     6.54000      1.14198     -0.09372
    6.550000     1.044093    -0.102867
    6.560001     0.953693    -0.100275
     6.57000      0.87139     -0.08877
     6.58000      0.79714     -0.07073
     6.59000      0.73058     -0.04804
     6.60000      0.67111     -0.02219
    6.610       0.6181       0.5678E-2
     6.62000      0.57080      0.03473
     6.63000      0.52863      0.06432
     6.64000      0.49097      0.09401
    6.650000     0.457277     0.123465
    6.660001     0.427068     0.152465
    6.670000     0.399925     0.180848
    6.680001     0.375469     0.208522
    6.690000     0.353384     0.235416
    6.700000     0.333383     0.261508
    6.710000     0.315228     0.286777
    6.720000     0.298701     0.311235
    6.730000     0.283623     0.334888
    6.740000     0.269828     0.357763
    6.750000     0.257182     0.379879
    6.760000     0.245558     0.401271
    6.770000     0.234853     0.421963
    6.780000     0.224969     0.441990
    6.789999     0.215829     0.461377
    6.800000     0.207355     0.480161
    6.809999     0.199487     0.498364
    6.820000     0.192166     0.516021
    6.830001     0.185342     0.533155
    6.840000     0.178972     0.549790
    6.850001     0.173014     0.565956
    6.860000     0.167435     0.581670
    6.870001     0.162200     0.596960
    6.880000     0.157283     0.611841
    6.890001     0.152657     0.626339
    6.900000     0.148299     0.640466
    6.910001     0.144189     0.654247
    6.920000     0.140307     0.667690
    6.930001     0.136637     0.680819
    6.940000     0.133163     0.693642
    6.950001     0.129870     0.706177
    6.960000     0.126747     0.718434
    6.970001     0.123782     0.730429
    6.980000     0.120963     0.742169
    6.990001     0.118281     0.753670
    7.000000     0.115727     0.764938
    7.010001     0.113293     0.775986
    7.020000     0.110971     0.786821
    7.030001     0.108754     0.797454
    7.040000     0.106637     0.807890
    7.050001     0.104612     0.818142
    7.060000     0.102675     0.828212
    7.070001     0.100820     0.838111
     7.08000      0.09904      0.84784
     7.09000      0.09734      0.85742
     7.10000      0.09571      0.86684
     7.11000      0.09414      0.87611
     7.12000      0.09263      0.88524
     7.13000      0.09118      0.89423
     7.14000      0.08979      0.90310
     7.15000      0.08846      0.91183
     7.16000      0.08717      0.92044
     7.17000      0.08593      0.92894
     7.18000      0.08473      0.93732
     7.19000      0.08358      0.94559
     7.20000      0.08247      0.95376
     7.21000      0.08140      0.96182
     7.22000      0.08037      0.96978
     7.23000      0.07938      0.97765
     7.24000      0.07841      0.98542
     7.25000      0.07749      0.99311
     7.26000      0.07659      1.00071
     7.27000      0.07572      1.00822
     7.28000      0.07488      1.01566
     7.29000      0.07407      1.02301
     7.30000      0.07329      1.03029
     7.31000      0.07253      1.03750
     7.32000      0.07180      1.04463
     7.33000      0.07109      1.05170
     7.34000      0.07040      1.05870
     7.35000      0.06974      1.06563
     7.36000      0.06910      1.07250
     7.37000      0.06847      1.07931
     7.38000      0.06787      1.08607
     7.39000      0.06728      1.09276
     7.40000      0.06672      1.09940
     7.41000      0.06617      1.10599
     7.42000      0.06564      1.11252
     7.43000      0.06512      1.11900
     7.44000      0.06462      1.12544
     7.45000      0.06414      1.13182
     7.46000      0.06367      1.13816
     7.47000      0.06321      1.14446
     7.48000      0.06277      1.15071
     7.49000      0.06235      1.15692
     7.50000      0.06193      1.16309
     7.51000      0.06153      1.16922
     7.52000      0.06114      1.17532
     7.53000      0.06077      1.18137
     7.54000      0.06040      1.18739
     7.55000      0.06005      1.19338
     7.56000      0.05971      1.19933
     7.57000      0.05938      1.20525
     7.58000      0.05905      1.21113
     7.59000      0.05874      1.21699
     7.60000      0.05844      1.22282
     7.61000      0.05815      1.22861
     7.62000      0.05787      1.23438
     7.63000      0.05760      1.24013
     7.64000      0.05734      1.24584
     7.65000      0.05708      1.25153
     7.66000      0.05684      1.25720
     7.67000      0.05660      1.26284
     7.68000      0.05637      1.26847
     7.69000      0.05615      1.27406
     7.70000      0.05594      1.27964
     7.71000      0.05573      1.28520
     7.72000      0.05553      1.29074
     7.73000      0.05534      1.29626
     7.74000      0.05516      1.30176
     7.75000      0.05498      1.30724
     7.76000      0.05481      1.31271
     7.77000      0.05465      1.31816
     7.78000      0.05450      1.32359
     7.79000      0.05435      1.32901
     7.80000      0.05421      1.33442
     7.81000      0.05407      1.33981
     7.82000      0.05394      1.34519
     7.83000      0.05382      1.35056
     7.84000      0.05370      1.35591
     7.85000      0.05359      1.36126
     7.86000      0.05348      1.36659
     7.87000      0.05338      1.37192
     7.88000      0.05329      1.37723
     7.89000      0.05320      1.38254
     7.90000      0.05312      1.38783
     7.91000      0.05304      1.39312
     7.92000      0.05297      1.39841
     7.93000      0.05291      1.40368
     7.94000      0.05285      1.40895
     7.95000      0.05279      1.41422
     7.96000      0.05274      1.41948
     7.97000      0.05270      1.42473
     7.98000      0.05266      1.42998
     7.99000      0.05262      1.43523
     8.00000      0.05260      1.44047
     8.01000      0.05257      1.44571
     8.02000      0.05255      1.45095
     8.03000      0.05254      1.45619
     8.04000      0.05253      1.46143
     8.05000      0.05252      1.46666
     8.06000      0.05252      1.47190
     8.07000      0.05253      1.47714
     8.08000      0.05254      1.48237
     8.09000      0.05255      1.48761
     8.10000      0.05257      1.49285
     8.11000      0.05260      1.49810
     8.12000      0.05263      1.50334
     8.13000      0.05266      1.50859
     8.14000      0.05270      1.51384
     8.15000      0.05274      1.51910
     8.16000      0.05279      1.52436
     8.17000      0.05284      1.52963
     8.18000      0.05290      1.53490
     8.19000      0.05296      1.54017
     8.20000      0.05303      1.54546
     8.21000      0.05310      1.55075
     8.22000      0.05317      1.55605
     8.23000      0.05325      1.56135
     8.24000      0.05334      1.56667
     8.25000      0.05343      1.57199
     8.26000      0.05352      1.57732
     8.27000      0.05362      1.58266
     8.28000      0.05373      1.58802
     8.29000      0.05384      1.59338
     8.30000      0.05395      1.59875
     8.31000      0.05407      1.60414
     8.32000      0.05419      1.60953
     8.33000      0.05432      1.61494
     8.34000      0.05445      1.62036
     8.35000      0.05459      1.62580
     8.36000      0.05473      1.63125
     8.37000      0.05488      1.63671
     8.38000      0.05503      1.64219
     8.39000      0.05518      1.64769
     8.40000      0.05535      1.65319
     8.41000      0.05551      1.65872
     8.42000      0.05569      1.66426
     8.43000      0.05586      1.66982
     8.44000      0.05604      1.67540
     8.45000      0.05623      1.68100
     8.46000      0.05642      1.68661
     8.47000      0.05662      1.69225
     8.48000      0.05683      1.69790
     8.49000      0.05704      1.70358
     8.50000      0.05725      1.70927
     8.51000      0.05747      1.71499
     8.52000      0.05770      1.72073
     8.53000      0.05793      1.72649
     8.54000      0.05816      1.73228
     8.55000      0.05841      1.73809
     8.56000      0.05865      1.74392
     8.57000      0.05891      1.74978
     8.58000      0.05917      1.75566
     8.59000      0.05944      1.76157
     8.60000      0.05971      1.76751
     8.61000      0.05999      1.77347
     8.62000      0.06027      1.77946
     8.63000      0.06056      1.78548
     8.64000      0.06086      1.79153
     8.65000      0.06117      1.79761
     8.66000      0.06148      1.80372
     8.67000      0.06180      1.80986
     8.68000      0.06212      1.81603
     8.69000      0.06246      1.82224
     8.70000      0.06280      1.82848
     8.71000      0.06314      1.83475
     8.72000      0.06350      1.84106
     8.73000      0.06386      1.84740
     8.74000      0.06423      1.85378
     8.75000      0.06460      1.86019
     8.76000      0.06499      1.86665
     8.77000      0.06538      1.87314
     8.78000      0.06578      1.87967
     8.79000      0.06619      1.88624
     8.80000      0.06661      1.89285
     8.81000      0.06704      1.89950
     8.82000      0.06747      1.90620
     8.83000      0.06792      1.91294
     8.84000      0.06837      1.91972
     8.85000      0.06884      1.92655
     8.86000      0.06931      1.93342
     8.87000      0.06979      1.94035
     8.88000      0.07028      1.94732
     8.89000      0.07079      1.95434
     8.90000      0.07130      1.96140
     8.91000      0.07182      1.96852
     8.92000      0.07236      1.97570
     8.93000      0.07290      1.98292
     8.94000      0.07346      1.99020
     8.95000      0.07403      1.99754
     8.96000      0.07461      2.00493
     8.97000      0.07520      2.01238
     8.98000      0.07581      2.01989
     8.99000      0.07642      2.02745
     9.00000      0.07705      2.03508
     9.01000      0.07770      2.04278
     9.02000      0.07835      2.05053
     9.03000      0.07902      2.05836
     9.04000      0.07971      2.06624
     9.05000      0.08041      2.07420
     9.06000      0.08112      2.08223
     9.07000      0.08185      2.09032
     9.08000      0.08260      2.09849
     9.09000      0.08336      2.10673
     9.10000      0.08414      2.11505
     9.11000      0.08494      2.12345
     9.12000      0.08575      2.13192
     9.13000      0.08658      2.14048
     9.14000      0.08743      2.14912
     9.15000      0.08830      2.15784
     9.16000      0.08919      2.16665
     9.17000      0.09009      2.17554
     9.18000      0.09102      2.18453
     9.19000      0.09197      2.19360
     9.20000      0.09294      2.20278
     9.21000      0.09393      2.21204
     9.22000      0.09495      2.22141
     9.23000      0.09599      2.23088
     9.24000      0.09706      2.24044
     9.25000      0.09815      2.25012
     9.26000      0.09926      2.25990
    9.270000     0.100403     2.269792
    9.280000     0.101573     2.279796
    9.290000     0.102771     2.289917
    9.299999     0.103998     2.300154
    9.310000     0.105256     2.310513
    9.320000     0.106545     2.320996
    9.330000     0.107866     2.331606
    9.339999     0.109220     2.342346
    9.350000     0.110609     2.353221
    9.360000     0.112033     2.364230
    9.370000     0.113494     2.375381
    9.379999     0.114993     2.386673
    9.390000     0.116532     2.398115
    9.400001     0.118111     2.409709
    9.410000     0.119732     2.421455
    9.420001     0.121398     2.433362
    9.430000     0.123108     2.445431
    9.440001     0.124865     2.457670
    9.450000     0.126670     2.470078
    9.460001     0.128527     2.482665
    9.470000     0.130435     2.495431
    9.480000     0.132398     2.508387
    9.490000     0.134418     2.521531
    9.500001     0.136496     2.534876
    9.510000     0.138635     2.548421
    9.520000     0.140837     2.562177
    9.530000     0.143105     2.576144
    9.540001     0.145442     2.590336
    9.550000     0.147850     2.604752
    9.560000     0.150333     2.619404
    9.570000     0.152893     2.634296
    9.580001     0.155535     2.649438
    9.590000     0.158260     2.664834
    9.600000     0.161073     2.680497
    9.610000     0.163978     2.696429
    9.620001     0.166980     2.712644
    9.630000     0.170082     2.729146
    9.640000     0.173288     2.745951
    9.650000     0.176605     2.763062
    9.660001     0.180036     2.780496
    9.669999     0.183588     2.798255
    9.680000     0.187266     2.816358
    9.690000     0.191076     2.834811
    9.700001     0.195026     2.853631
    9.709999     0.199121     2.872827
    9.720000     0.203370     2.892417
    9.730000     0.207779     2.912407
    9.740000     0.212358     2.932822
    9.750001     0.217116     2.953671
    9.760000     0.222061     2.974965
    9.770001     0.227205     2.996734
    9.780000     0.232557     3.018984
    9.790001     0.238131     3.041741
    9.800000     0.243937     3.065018
    9.810000     0.249990     3.088844
    9.820000     0.256304     3.113233
    9.830001     0.262895     3.138215
    9.840000     0.269778     3.163807
    9.850000     0.276973     3.190040
    9.860000     0.284496     3.216935
    9.870001     0.292372     3.244529
    9.880000     0.300619     3.272843
    9.890000     0.309266     3.301918
    9.900000     0.318334     3.331776
    9.910001     0.327856     3.362466
    9.920000     0.337859     3.394010
    9.930000     0.348379     3.426463
    9.940000     0.359451     3.459855
    9.950001     0.371117     3.494239
    9.960000     0.383416     3.529656
    9.970000     0.396399     3.566163
    9.980000     0.410115     3.603806
    9.990001     0.424624     3.642652
    10.00000      0.43998      3.68275
# 
# 04/08/2018 at 00:57 YAMBO @ narro [start]
# 04/08/2018 at 00:57               [end]
#  
# Timing   [Min/Max/Average]: 08s/08s/08s
#
# .-Input file : yambo.in
# | optics                         # [R OPT] Optics
# | bse                            # [R BSE] Bethe Salpeter Equation.
# | BoseTemp= 0.000000     eV      # Bosonic Temperature
# | FFTGvecs=  3473        RL      # [FFT] Plane-waves
# | BSEmod= "resonant"             # [BSE] resonant/retarded/coupling
# | BSKmod= "IP"                   # [BSE] IP/Hartree/HF/ALDA/SEX/BSfxc
# | % BEnRange
# | -10.00000 | 10.00000 | eV      # [BSS] Energy range
# | %
# | % BDmRange
# |   0.10000 |  0.10000 | eV      # [BSS] Damping range
# | %
# | BEnSteps= 2001                 # [BSS] Energy steps
# | % BLongDir
# | 0.1000E-4 | 0.000    | 0.000    |        # [BSS] [cc] Electric Field
# | %
# | % BSEQptR
# |   1 |  4 |                     # [BSK] Transferred momenta range
# | %
# | % BSEBands
# |   1 | 10 |                     # [BSK] Bands range
# | %
