#                                                           
#  ____  ____     _       ____    ____  ______      ___     
# |_  _||_  _|   / \     |_   \  /   _||_   _ \   ."   `.   
#   \ \  / /    / _ \      |   \/   |    | |_) | /  .-.  \  
#    \ \/ /    / ___ \     | |\  /| |    |  __". | |   | |  
#    _|  |_  _/ /   \ \_  _| |_\/_| |_  _| |__) |\  `-"  /  
#   |______||____| |____||_____||_____||_______/  `.___."   
#                                                           
#                                                           
#                                                           
#        Version 4.3.0 Revision 15338 Hash 3cdf17c          
#                      MPI+SLK Build                        
#                http://www.yambo-code.org                  
#
# Absorption @ Q(1) [q->0 direction] :0.1000E-4  0.000     0.000   
#
#
# - Energies      are Teter 93(XC)
# - Wavefunctions are Teter 93(XC)
#
# - The Green`s function is Resonant -
# - Using the Length Gauge -
# - [r,Vnl] *is* included -
#
#   BSK|Identifier              :3382
#      |Dimension               :96
#      |Bands                   :3 - 10
#      |Exchange           [res]: yes
#      |Correlation        [res]: no
#      |Kernel`s coupling       : no
#      |Exchange           [cpl]: no
#      |Correlation        [cpl]: no
#      |W interaction is bare   : no
#      |ALDA kernel in R-space  : no
#      |RL vectors    [exchange]:63
#      |E/h energy range    [ev]:-1.000000 - -1.000000
#      |Coupling range     [o/o]: 100.0000 -  100.0000
#
#    E/ev[1]      EPS-Im[2]    EPS-Re[3]    EPSo-Im[4]   EPSo-Re[5]
#
   -10.00       0.8153E-2     2.271       0.8290E-2     2.282   
   -9.990       0.8164E-2     2.272       0.8301E-2     2.283   
   -9.980       0.8174E-2     2.273       0.8311E-2     2.283   
   -9.970       0.8185E-2     2.274       0.8322E-2     2.284   
   -9.960       0.8195E-2     2.274       0.8333E-2     2.285   
   -9.950       0.8206E-2     2.275       0.8344E-2     2.286   
   -9.940       0.8216E-2     2.276       0.8355E-2     2.287   
   -9.930       0.8227E-2     2.277       0.8366E-2     2.288   
   -9.920       0.8237E-2     2.278       0.8376E-2     2.288   
   -9.910       0.8248E-2     2.279       0.8387E-2     2.289   
   -9.900       0.8259E-2     2.279       0.8398E-2     2.290   
   -9.890       0.8269E-2     2.280       0.8409E-2     2.291   
   -9.880       0.8280E-2     2.281       0.8420E-2     2.292   
   -9.870       0.8291E-2     2.282       0.8431E-2     2.293   
   -9.860       0.8302E-2     2.283       0.8442E-2     2.293   
   -9.850       0.8312E-2     2.284       0.8453E-2     2.294   
   -9.840       0.8323E-2     2.284       0.8464E-2     2.295   
   -9.830       0.8334E-2     2.285       0.8475E-2     2.296   
   -9.820       0.8345E-2     2.286       0.8487E-2     2.297   
   -9.810       0.8356E-2     2.287       0.8498E-2     2.298   
   -9.800       0.8366E-2     2.288       0.8509E-2     2.299   
   -9.790       0.8377E-2     2.289       0.8520E-2     2.299   
   -9.780       0.8388E-2     2.289       0.8531E-2     2.300   
   -9.770       0.8399E-2     2.290       0.8542E-2     2.301   
   -9.760       0.8410E-2     2.291       0.8554E-2     2.302   
   -9.750       0.8421E-2     2.292       0.8565E-2     2.303   
   -9.740       0.8432E-2     2.293       0.8576E-2     2.304   
   -9.730       0.8443E-2     2.294       0.8587E-2     2.305   
   -9.720       0.8454E-2     2.294       0.8599E-2     2.305   
   -9.710       0.8465E-2     2.295       0.8610E-2     2.306   
   -9.700       0.8476E-2     2.296       0.8622E-2     2.307   
   -9.690       0.8487E-2     2.297       0.8633E-2     2.308   
   -9.680       0.8499E-2     2.298       0.8644E-2     2.309   
   -9.670       0.8510E-2     2.299       0.8656E-2     2.310   
   -9.660       0.8521E-2     2.300       0.8667E-2     2.311   
   -9.650       0.8532E-2     2.300       0.8679E-2     2.311   
   -9.640       0.8543E-2     2.301       0.8690E-2     2.312   
   -9.630       0.8555E-2     2.302       0.8702E-2     2.313   
   -9.620       0.8566E-2     2.303       0.8713E-2     2.314   
   -9.610       0.8577E-2     2.304       0.8725E-2     2.315   
   -9.600       0.8588E-2     2.305       0.8736E-2     2.316   
   -9.590       0.8600E-2     2.306       0.8748E-2     2.317   
   -9.580       0.8611E-2     2.306       0.8760E-2     2.318   
   -9.570       0.8622E-2     2.307       0.8771E-2     2.318   
   -9.560       0.8634E-2     2.308       0.8783E-2     2.319   
   -9.550       0.8645E-2     2.309       0.8795E-2     2.320   
   -9.540       0.8657E-2     2.310       0.8807E-2     2.321   
   -9.530       0.8668E-2     2.311       0.8818E-2     2.322   
   -9.520       0.8680E-2     2.312       0.8830E-2     2.323   
   -9.510       0.8691E-2     2.312       0.8842E-2     2.324   
   -9.500       0.8703E-2     2.313       0.8854E-2     2.325   
   -9.490       0.8714E-2     2.314       0.8866E-2     2.325   
   -9.480       0.8726E-2     2.315       0.8877E-2     2.326   
   -9.470       0.8737E-2     2.316       0.8889E-2     2.327   
   -9.460       0.8749E-2     2.317       0.8901E-2     2.328   
   -9.450       0.8761E-2     2.318       0.8913E-2     2.329   
   -9.440       0.8772E-2     2.319       0.8925E-2     2.330   
   -9.430       0.8784E-2     2.319       0.8937E-2     2.331   
   -9.420       0.8796E-2     2.320       0.8949E-2     2.332   
   -9.410       0.8807E-2     2.321       0.8961E-2     2.333   
   -9.400       0.8819E-2     2.322       0.8973E-2     2.333   
   -9.390       0.8831E-2     2.323       0.8985E-2     2.334   
   -9.380       0.8843E-2     2.324       0.8998E-2     2.335   
   -9.370       0.8855E-2     2.325       0.9010E-2     2.336   
   -9.360       0.8866E-2     2.326       0.9022E-2     2.337   
   -9.350       0.8878E-2     2.326       0.9034E-2     2.338   
   -9.340       0.8890E-2     2.327       0.9046E-2     2.339   
   -9.330       0.8902E-2     2.328       0.9059E-2     2.340   
   -9.320       0.8914E-2     2.329       0.9071E-2     2.341   
   -9.310       0.8926E-2     2.330       0.9083E-2     2.342   
   -9.300       0.8938E-2     2.331       0.9095E-2     2.343   
   -9.290       0.8950E-2     2.332       0.9108E-2     2.343   
   -9.280       0.8962E-2     2.333       0.9120E-2     2.344   
   -9.270       0.8974E-2     2.334       0.9133E-2     2.345   
   -9.260       0.8986E-2     2.335       0.9145E-2     2.346   
   -9.250       0.8998E-2     2.335       0.9157E-2     2.347   
   -9.240       0.9011E-2     2.336       0.9170E-2     2.348   
   -9.230       0.9023E-2     2.337       0.9182E-2     2.349   
   -9.220       0.9035E-2     2.338       0.9195E-2     2.350   
   -9.210       0.9047E-2     2.339       0.9207E-2     2.351   
   -9.200       0.9059E-2     2.340       0.9220E-2     2.352   
   -9.190       0.9072E-2     2.341       0.9233E-2     2.353   
   -9.180       0.9084E-2     2.342       0.9245E-2     2.354   
   -9.170       0.9096E-2     2.343       0.9258E-2     2.354   
   -9.160       0.9109E-2     2.344       0.9271E-2     2.355   
   -9.150       0.9121E-2     2.344       0.9283E-2     2.356   
   -9.140       0.9133E-2     2.345       0.9296E-2     2.357   
     -9.1300       0.0091       2.3463       0.0093       2.3581
     -9.1200       0.0092       2.3472       0.0093       2.3591
     -9.1100       0.0092       2.3481       0.0093       2.3600
     -9.1000       0.0092       2.3490       0.0093       2.3609
     -9.0900       0.0092       2.3500       0.0094       2.3619
     -9.0800       0.0092       2.3509       0.0094       2.3628
     -9.0700       0.0092       2.3518       0.0094       2.3638
     -9.0600       0.0092       2.3527       0.0094       2.3647
     -9.0500       0.0092       2.3537       0.0094       2.3656
     -9.0400       0.0093       2.3546       0.0094       2.3666
     -9.0300       0.0093       2.3555       0.0094       2.3675
     -9.0200       0.0093       2.3564       0.0095       2.3685
     -9.0100       0.0093       2.3574       0.0095       2.3694
     -9.0000       0.0093       2.3583       0.0095       2.3704
     -8.9900       0.0093       2.3592       0.0095       2.3713
     -8.9800       0.0093       2.3602       0.0095       2.3723
     -8.9700       0.0093       2.3611       0.0095       2.3732
     -8.9600       0.0094       2.3620       0.0095       2.3742
     -8.9500       0.0094       2.3630       0.0095       2.3751
     -8.9400       0.0094       2.3639       0.0096       2.3761
     -8.9300       0.0094       2.3648       0.0096       2.3770
     -8.9200       0.0094       2.3658       0.0096       2.3780
     -8.9100       0.0094       2.3667       0.0096       2.3789
     -8.9000       0.0094       2.3677       0.0096       2.3799
     -8.8900       0.0095       2.3686       0.0096       2.3809
     -8.8800       0.0095       2.3696       0.0096       2.3818
     -8.8700       0.0095       2.3705       0.0096       2.3828
     -8.8600       0.0095       2.3715       0.0097       2.3838
     -8.8500       0.0095       2.3724       0.0097       2.3847
     -8.8400       0.0095       2.3734       0.0097       2.3857
     -8.8300       0.0095       2.3743       0.0097       2.3867
     -8.8200       0.0095       2.3753       0.0097       2.3876
     -8.8100       0.0096       2.3762       0.0097       2.3886
     -8.8000       0.0096       2.3772       0.0097       2.3896
     -8.7900       0.0096       2.3781       0.0098       2.3906
     -8.7800       0.0096       2.3791       0.0098       2.3915
     -8.7700       0.0096       2.3800       0.0098       2.3925
     -8.7600       0.0096       2.3810       0.0098       2.3935
     -8.7500       0.0096       2.3820       0.0098       2.3945
     -8.7400       0.0097       2.3829       0.0098       2.3954
     -8.7300       0.0097       2.3839       0.0098       2.3964
     -8.7200       0.0097       2.3849       0.0099       2.3974
     -8.7100       0.0097       2.3858       0.0099       2.3984
     -8.7000       0.0097       2.3868       0.0099       2.3994
     -8.6900       0.0097       2.3878       0.0099       2.4004
     -8.6800       0.0097       2.3887       0.0099       2.4014
     -8.6700       0.0097       2.3897       0.0099       2.4024
     -8.6600       0.0098       2.3907       0.0099       2.4034
     -8.6500       0.0098       2.3917       0.0100       2.4043
     -8.6400       0.0098       2.3927       0.0100       2.4053
     -8.6300       0.0098       2.3936       0.0100       2.4063
     -8.6200       0.0098       2.3946       0.0100       2.4073
     -8.6100       0.0098       2.3956       0.0100       2.4083
     -8.6000       0.0098       2.3966       0.0100       2.4093
     -8.5900       0.0099       2.3976       0.0100       2.4103
     -8.5800       0.0099       2.3985       0.0101       2.4113
     -8.5700       0.0099       2.3995       0.0101       2.4124
     -8.5600       0.0099       2.4005       0.0101       2.4134
     -8.5500       0.0099       2.4015       0.0101       2.4144
     -8.5400       0.0099       2.4025       0.0101       2.4154
     -8.5300       0.0099       2.4035       0.0101       2.4164
     -8.5200       0.0100       2.4045       0.0101       2.4174
     -8.5100       0.0100       2.4055       0.0102       2.4184
     -8.5000       0.0100       2.4065       0.0102       2.4194
     -8.4900       0.0100       2.4075       0.0102       2.4205
    -8.48000      0.01001      2.40849      0.01020      2.42147
    -8.47000      0.01003      2.40949      0.01021      2.42249
    -8.46000      0.01004      2.41049      0.01023      2.42351
    -8.45000      0.01005      2.41150      0.01024      2.42454
    -8.44000      0.01007      2.41250      0.01026      2.42556
    -8.43000      0.01008      2.41351      0.01027      2.42659
    -8.42000      0.01010      2.41452      0.01029      2.42762
    -8.41000      0.01011      2.41553      0.01030      2.42865
    -8.40000      0.01013      2.41654      0.01032      2.42968
    -8.39000      0.01014      2.41755      0.01033      2.43071
    -8.38000      0.01015      2.41857      0.01035      2.43174
    -8.37000      0.01017      2.41958      0.01036      2.43278
    -8.36000      0.01018      2.42060      0.01038      2.43381
    -8.35000      0.01020      2.42162      0.01039      2.43485
    -8.34000      0.01021      2.42264      0.01041      2.43589
    -8.33000      0.01023      2.42366      0.01042      2.43693
    -8.32000      0.01024      2.42469      0.01044      2.43798
    -8.31000      0.01026      2.42571      0.01045      2.43902
    -8.30000      0.01027      2.42674      0.01047      2.44007
    -8.29000      0.01029      2.42777      0.01048      2.44111
    -8.28000      0.01030      2.42880      0.01050      2.44216
    -8.27000      0.01032      2.42983      0.01051      2.44321
    -8.26000      0.01033      2.43086      0.01053      2.44426
    -8.25000      0.01035      2.43189      0.01054      2.44532
    -8.24000      0.01036      2.43293      0.01056      2.44637
    -8.23000      0.01038      2.43396      0.01057      2.44743
    -8.22000      0.01039      2.43500      0.01059      2.44849
    -8.21000      0.01041      2.43604      0.01060      2.44955
    -8.20000      0.01042      2.43708      0.01062      2.45061
    -8.19000      0.01044      2.43813      0.01064      2.45167
    -8.18000      0.01045      2.43917      0.01065      2.45274
    -8.17000      0.01047      2.44022      0.01067      2.45380
    -8.16000      0.01048      2.44127      0.01068      2.45487
    -8.15000      0.01050      2.44231      0.01070      2.45594
    -8.14000      0.01051      2.44336      0.01071      2.45701
    -8.13000      0.01053      2.44442      0.01073      2.45808
    -8.12000      0.01054      2.44547      0.01075      2.45915
    -8.11000      0.01056      2.44653      0.01076      2.46023
    -8.10000      0.01057      2.44758      0.01078      2.46131
    -8.09000      0.01059      2.44864      0.01079      2.46239
    -8.08000      0.01061      2.44970      0.01081      2.46347
    -8.07000      0.01062      2.45076      0.01083      2.46455
    -8.06000      0.01064      2.45182      0.01084      2.46563
    -8.05000      0.01065      2.45289      0.01086      2.46671
    -8.04000      0.01067      2.45395      0.01087      2.46780
    -8.03000      0.01068      2.45502      0.01089      2.46889
    -8.02000      0.01070      2.45609      0.01091      2.46998
    -8.01000      0.01072      2.45716      0.01092      2.47107
    -8.00000      0.01073      2.45823      0.01094      2.47216
    -7.99000      0.01075      2.45931      0.01096      2.47326
    -7.98000      0.01076      2.46038      0.01097      2.47435
    -7.97000      0.01078      2.46146      0.01099      2.47545
    -7.96000      0.01079      2.46254      0.01100      2.47655
    -7.95000      0.01081      2.46362      0.01102      2.47765
    -7.94000      0.01083      2.46470      0.01104      2.47876
    -7.93000      0.01084      2.46578      0.01105      2.47986
    -7.92000      0.01086      2.46687      0.01107      2.48097
    -7.91000      0.01087      2.46795      0.01109      2.48207
    -7.90000      0.01089      2.46904      0.01110      2.48318
    -7.89000      0.01091      2.47013      0.01112      2.48429
    -7.88000      0.01092      2.47122      0.01114      2.48541
    -7.87000      0.01094      2.47232      0.01115      2.48652
    -7.86000      0.01096      2.47341      0.01117      2.48764
    -7.85000      0.01097      2.47451      0.01119      2.48875
    -7.84000      0.01099      2.47561      0.01120      2.48987
    -7.83000      0.01100      2.47671      0.01122      2.49099
    -7.82000      0.01102      2.47781      0.01124      2.49212
    -7.81000      0.01104      2.47891      0.01125      2.49324
    -7.80000      0.01105      2.48001      0.01127      2.49437
    -7.79000      0.01107      2.48112      0.01129      2.49550
    -7.78000      0.01109      2.48223      0.01131      2.49663
    -7.77000      0.01110      2.48334      0.01132      2.49776
    -7.76000      0.01112      2.48445      0.01134      2.49889
    -7.75000      0.01114      2.48556      0.01136      2.50003
    -7.74000      0.01115      2.48668      0.01137      2.50116
    -7.73000      0.01117      2.48779      0.01139      2.50230
    -7.72000      0.01119      2.48891      0.01141      2.50344
    -7.71000      0.01120      2.49003      0.01143      2.50458
    -7.70000      0.01122      2.49115      0.01144      2.50572
    -7.69000      0.01124      2.49227      0.01146      2.50687
    -7.68000      0.01126      2.49340      0.01148      2.50802
    -7.67000      0.01127      2.49452      0.01150      2.50917
    -7.66000      0.01129      2.49565      0.01151      2.51032
    -7.65000      0.01131      2.49678      0.01153      2.51147
    -7.64000      0.01132      2.49791      0.01155      2.51262
    -7.63000      0.01134      2.49905      0.01157      2.51378
    -7.62000      0.01136      2.50018      0.01158      2.51493
    -7.61000      0.01138      2.50132      0.01160      2.51609
    -7.60000      0.01139      2.50246      0.01162      2.51725
    -7.59000      0.01141      2.50360      0.01164      2.51842
    -7.58000      0.01143      2.50474      0.01166      2.51958
    -7.57000      0.01144      2.50588      0.01167      2.52075
    -7.56000      0.01146      2.50703      0.01169      2.52192
    -7.55000      0.01148      2.50817      0.01171      2.52309
    -7.54000      0.01150      2.50932      0.01173      2.52426
    -7.53000      0.01151      2.51047      0.01175      2.52543
    -7.52000      0.01153      2.51162      0.01176      2.52661
    -7.51000      0.01155      2.51278      0.01178      2.52778
    -7.50000      0.01157      2.51393      0.01180      2.52896
    -7.49000      0.01159      2.51509      0.01182      2.53014
    -7.48000      0.01160      2.51625      0.01184      2.53133
    -7.47000      0.01162      2.51741      0.01185      2.53251
    -7.46000      0.01164      2.51857      0.01187      2.53370
    -7.45000      0.01166      2.51974      0.01189      2.53488
    -7.44000      0.01167      2.52091      0.01191      2.53608
    -7.43000      0.01169      2.52207      0.01193      2.53727
    -7.42000      0.01171      2.52324      0.01195      2.53846
    -7.41000      0.01173      2.52442      0.01197      2.53966
    -7.40000      0.01175      2.52559      0.01198      2.54085
    -7.39000      0.01176      2.52676      0.01200      2.54205
    -7.38000      0.01178      2.52794      0.01202      2.54325
    -7.37000      0.01180      2.52912      0.01204      2.54446
    -7.36000      0.01182      2.53030      0.01206      2.54566
    -7.35000      0.01184      2.53148      0.01208      2.54687
    -7.34000      0.01186      2.53267      0.01210      2.54808
    -7.33000      0.01187      2.53385      0.01212      2.54929
    -7.32000      0.01189      2.53504      0.01214      2.55050
    -7.31000      0.01191      2.53623      0.01215      2.55171
    -7.30000      0.01193      2.53742      0.01217      2.55293
    -7.29000      0.01195      2.53862      0.01219      2.55415
    -7.28000      0.01197      2.53981      0.01221      2.55537
    -7.27000      0.01199      2.54101      0.01223      2.55659
    -7.26000      0.01200      2.54221      0.01225      2.55781
    -7.25000      0.01202      2.54341      0.01227      2.55904
    -7.24000      0.01204      2.54462      0.01229      2.56027
    -7.23000      0.01206      2.54582      0.01231      2.56150
    -7.22000      0.01208      2.54703      0.01233      2.56273
    -7.21000      0.01210      2.54824      0.01235      2.56396
    -7.20000      0.01212      2.54945      0.01237      2.56520
    -7.19000      0.01214      2.55066      0.01239      2.56644
    -7.18000      0.01215      2.55187      0.01241      2.56767
    -7.17000      0.01217      2.55309      0.01243      2.56892
    -7.16000      0.01219      2.55431      0.01245      2.57016
    -7.15000      0.01221      2.55553      0.01246      2.57140
    -7.14000      0.01223      2.55675      0.01248      2.57265
    -7.13000      0.01225      2.55797      0.01250      2.57390
    -7.12000      0.01227      2.55920      0.01252      2.57515
    -7.11000      0.01229      2.56043      0.01254      2.57641
    -7.10000      0.01231      2.56166      0.01256      2.57766
    -7.09000      0.01233      2.56289      0.01258      2.57892
    -7.08000      0.01235      2.56412      0.01260      2.58018
    -7.07000      0.01237      2.56536      0.01262      2.58144
    -7.06000      0.01239      2.56660      0.01264      2.58270
    -7.05000      0.01241      2.56784      0.01267      2.58397
    -7.04000      0.01243      2.56908      0.01269      2.58524
    -7.03000      0.01245      2.57032      0.01271      2.58650
    -7.02000      0.01247      2.57157      0.01273      2.58778
    -7.01000      0.01249      2.57281      0.01275      2.58905
    -7.00000      0.01251      2.57406      0.01277      2.59032
    -6.99000      0.01253      2.57531      0.01279      2.59160
    -6.98000      0.01255      2.57657      0.01281      2.59288
    -6.97000      0.01257      2.57782      0.01283      2.59416
    -6.96000      0.01259      2.57908      0.01285      2.59545
    -6.95000      0.01261      2.58034      0.01287      2.59673
    -6.94000      0.01263      2.58160      0.01289      2.59802
    -6.93000      0.01265      2.58286      0.01291      2.59931
    -6.92000      0.01267      2.58413      0.01293      2.60060
    -6.91000      0.01269      2.58540      0.01295      2.60190
    -6.90000      0.01271      2.58667      0.01297      2.60319
    -6.89000      0.01273      2.58794      0.01300      2.60449
    -6.88000      0.01275      2.58921      0.01302      2.60579
    -6.87000      0.01277      2.59049      0.01304      2.60710
    -6.86000      0.01279      2.59176      0.01306      2.60840
    -6.85000      0.01281      2.59304      0.01308      2.60971
    -6.84000      0.01283      2.59433      0.01310      2.61102
    -6.83000      0.01285      2.59561      0.01312      2.61233
    -6.82000      0.01287      2.59690      0.01314      2.61364
    -6.81000      0.01289      2.59818      0.01317      2.61496
    -6.80000      0.01291      2.59947      0.01319      2.61627
    -6.79000      0.01293      2.60077      0.01321      2.61759
    -6.78000      0.01295      2.60206      0.01323      2.61892
    -6.77000      0.01298      2.60336      0.01325      2.62024
    -6.76000      0.01300      2.60465      0.01327      2.62157
    -6.75000      0.01302      2.60596      0.01330      2.62289
    -6.74000      0.01304      2.60726      0.01332      2.62422
    -6.73000      0.01306      2.60856      0.01334      2.62556
    -6.72000      0.01308      2.60987      0.01336      2.62689
    -6.71000      0.01310      2.61118      0.01338      2.62823
    -6.70000      0.01312      2.61249      0.01341      2.62957
    -6.69000      0.01315      2.61380      0.01343      2.63091
    -6.68000      0.01317      2.61512      0.01345      2.63225
    -6.67000      0.01319      2.61644      0.01347      2.63360
    -6.66000      0.01321      2.61776      0.01349      2.63495
    -6.65000      0.01323      2.61908      0.01352      2.63630
    -6.64000      0.01325      2.62040      0.01354      2.63765
    -6.63000      0.01327      2.62173      0.01356      2.63900
    -6.62000      0.01330      2.62306      0.01358      2.64036
    -6.61000      0.01332      2.62439      0.01361      2.64172
    -6.60000      0.01334      2.62572      0.01363      2.64308
    -6.59000      0.01336      2.62705      0.01365      2.64445
    -6.58000      0.01338      2.62839      0.01367      2.64581
    -6.57000      0.01341      2.62973      0.01370      2.64718
    -6.56000      0.01343      2.63107      0.01372      2.64855
    -6.55000      0.01345      2.63242      0.01374      2.64992
    -6.54000      0.01347      2.63376      0.01377      2.65130
    -6.53000      0.01349      2.63511      0.01379      2.65268
    -6.52000      0.01352      2.63646      0.01381      2.65406
    -6.51000      0.01354      2.63781      0.01384      2.65544
    -6.50000      0.01356      2.63917      0.01386      2.65682
    -6.49000      0.01358      2.64053      0.01388      2.65821
    -6.48000      0.01361      2.64188      0.01390      2.65960
    -6.47000      0.01363      2.64325      0.01393      2.66099
    -6.46000      0.01365      2.64461      0.01395      2.66239
    -6.45000      0.01368      2.64598      0.01398      2.66378
    -6.44000      0.01370      2.64735      0.01400      2.66518
    -6.43000      0.01372      2.64872      0.01402      2.66658
    -6.42000      0.01374      2.65009      0.01405      2.66798
    -6.41000      0.01377      2.65146      0.01407      2.66939
    -6.40000      0.01379      2.65284      0.01409      2.67080
    -6.39000      0.01381      2.65422      0.01412      2.67221
    -6.38000      0.01384      2.65560      0.01414      2.67362
    -6.37000      0.01386      2.65699      0.01416      2.67504
    -6.36000      0.01388      2.65838      0.01419      2.67645
    -6.35000      0.01391      2.65976      0.01421      2.67787
    -6.34000      0.01393      2.66116      0.01424      2.67930
    -6.33000      0.01395      2.66255      0.01426      2.68072
    -6.32000      0.01398      2.66395      0.01429      2.68215
    -6.31000      0.01400      2.66534      0.01431      2.68358
    -6.30000      0.01402      2.66675      0.01433      2.68501
    -6.29000      0.01405      2.66815      0.01436      2.68644
    -6.28000      0.01407      2.66955      0.01438      2.68788
    -6.27000      0.01409      2.67096      0.01441      2.68932
    -6.26000      0.01412      2.67237      0.01443      2.69076
    -6.25000      0.01414      2.67379      0.01446      2.69221
    -6.24000      0.01417      2.67520      0.01448      2.69365
    -6.23000      0.01419      2.67662      0.01451      2.69510
    -6.22000      0.01421      2.67804      0.01453      2.69655
    -6.21000      0.01424      2.67946      0.01456      2.69801
    -6.20000      0.01426      2.68089      0.01458      2.69946
    -6.19000      0.01429      2.68231      0.01461      2.70092
    -6.18000      0.01431      2.68374      0.01463      2.70239
    -6.17000      0.01433      2.68517      0.01466      2.70385
    -6.16000      0.01436      2.68661      0.01468      2.70532
    -6.15000      0.01438      2.68805      0.01471      2.70679
    -6.14000      0.01441      2.68948      0.01473      2.70826
    -6.13000      0.01443      2.69093      0.01476      2.70973
    -6.12000      0.01446      2.69237      0.01478      2.71121
    -6.11000      0.01448      2.69382      0.01481      2.71269
    -6.10000      0.01451      2.69527      0.01484      2.71417
    -6.09000      0.01453      2.69672      0.01486      2.71565
    -6.08000      0.01456      2.69817      0.01489      2.71714
    -6.07000      0.01458      2.69963      0.01491      2.71863
    -6.06000      0.01461      2.70109      0.01494      2.72012
    -6.05000      0.01463      2.70255      0.01496      2.72162
    -6.04000      0.01466      2.70401      0.01499      2.72312
    -6.03000      0.01468      2.70548      0.01502      2.72462
    -6.02000      0.01471      2.70695      0.01504      2.72612
    -6.01000      0.01473      2.70842      0.01507      2.72762
    -6.00000      0.01476      2.70990      0.01510      2.72913
    -5.99000      0.01478      2.71137      0.01512      2.73064
    -5.98000      0.01481      2.71285      0.01515      2.73216
    -5.97000      0.01484      2.71434      0.01518      2.73367
    -5.96000      0.01486      2.71582      0.01520      2.73519
    -5.95000      0.01489      2.71731      0.01523      2.73671
    -5.94000      0.01491      2.71880      0.01526      2.73824
    -5.93000      0.01494      2.72029      0.01528      2.73976
    -5.92000      0.01497      2.72178      0.01531      2.74129
    -5.91000      0.01499      2.72328      0.01534      2.74282
    -5.90000      0.01502      2.72478      0.01536      2.74436
    -5.89000      0.01504      2.72629      0.01539      2.74590
    -5.88000      0.01507      2.72779      0.01542      2.74744
    -5.87000      0.01510      2.72930      0.01544      2.74898
    -5.86000      0.01512      2.73081      0.01547      2.75053
    -5.85000      0.01515      2.73232      0.01550      2.75207
    -5.84000      0.01518      2.73384      0.01553      2.75362
    -5.83000      0.01520      2.73536      0.01555      2.75518
    -5.82000      0.01523      2.73688      0.01558      2.75673
    -5.81000      0.01526      2.73840      0.01561      2.75829
    -5.80000      0.01528      2.73993      0.01564      2.75986
    -5.79000      0.01531      2.74146      0.01567      2.76142
    -5.78000      0.01534      2.74299      0.01569      2.76299
    -5.77000      0.01536      2.74453      0.01572      2.76456
    -5.76000      0.01539      2.74606      0.01575      2.76613
    -5.75000      0.01542      2.74760      0.01578      2.76771
    -5.74000      0.01544      2.74915      0.01581      2.76929
    -5.73000      0.01547      2.75069      0.01583      2.77087
    -5.72000      0.01550      2.75224      0.01586      2.77245
    -5.71000      0.01553      2.75379      0.01589      2.77404
    -5.70000      0.01555      2.75535      0.01592      2.77563
    -5.69000      0.01558      2.75690      0.01595      2.77723
    -5.68000      0.01561      2.75846      0.01598      2.77882
    -5.67000      0.01564      2.76002      0.01601      2.78042
    -5.66000      0.01567      2.76159      0.01603      2.78202
    -5.65000      0.01569      2.76316      0.01606      2.78363
    -5.64000      0.01572      2.76473      0.01609      2.78523
    -5.63000      0.01575      2.76630      0.01612      2.78684
    -5.62000      0.01578      2.76788      0.01615      2.78846
    -5.61000      0.01581      2.76945      0.01618      2.79007
    -5.60000      0.01583      2.77104      0.01621      2.79169
    -5.59000      0.01586      2.77262      0.01624      2.79331
    -5.58000      0.01589      2.77421      0.01627      2.79494
    -5.57000      0.01592      2.77580      0.01630      2.79657
    -5.56000      0.01595      2.77739      0.01633      2.79820
    -5.55000      0.01598      2.77899      0.01636      2.79983
    -5.54000      0.01601      2.78059      0.01639      2.80147
    -5.53000      0.01603      2.78219      0.01642      2.80311
    -5.52000      0.01606      2.78379      0.01645      2.80475
    -5.51000      0.01609      2.78540      0.01648      2.80640
    -5.50000      0.01612      2.78701      0.01651      2.80805
    -5.49000      0.01615      2.78862      0.01654      2.80970
    -5.48000      0.01618      2.79024      0.01657      2.81135
    -5.47000      0.01621      2.79186      0.01660      2.81301
    -5.46000      0.01624      2.79348      0.01663      2.81467
    -5.45000      0.01627      2.79511      0.01666      2.81634
    -5.44000      0.01630      2.79674      0.01669      2.81801
    -5.43000      0.01633      2.79837      0.01672      2.81968
    -5.42000      0.01636      2.80000      0.01675      2.82135
    -5.41000      0.01639      2.80164      0.01678      2.82302
    -5.40000      0.01642      2.80328      0.01681      2.82470
    -5.39000      0.01645      2.80492      0.01684      2.82639
    -5.38000      0.01648      2.80657      0.01687      2.82807
    -5.37000      0.01651      2.80822      0.01691      2.82976
    -5.36000      0.01654      2.80987      0.01694      2.83145
    -5.35000      0.01657      2.81152      0.01697      2.83315
    -5.34000      0.01660      2.81318      0.01700      2.83485
    -5.33000      0.01663      2.81484      0.01703      2.83655
    -5.32000      0.01666      2.81651      0.01706      2.83825
    -5.31000      0.01669      2.81817      0.01710      2.83996
    -5.30000      0.01672      2.81984      0.01713      2.84167
    -5.29000      0.01675      2.82152      0.01716      2.84338
    -5.28000      0.01678      2.82319      0.01719      2.84510
    -5.27000      0.01681      2.82487      0.01722      2.84682
    -5.26000      0.01684      2.82655      0.01726      2.84855
    -5.25000      0.01687      2.82824      0.01729      2.85027
    -5.24000      0.01691      2.82993      0.01732      2.85200
    -5.23000      0.01694      2.83162      0.01735      2.85374
    -5.22000      0.01697      2.83332      0.01739      2.85547
    -5.21000      0.01700      2.83501      0.01742      2.85721
    -5.20000      0.01703      2.83671      0.01745      2.85896
    -5.19000      0.01706      2.83842      0.01748      2.86070
    -5.18000      0.01710      2.84013      0.01752      2.86245
    -5.17000      0.01713      2.84184      0.01755      2.86420
    -5.16000      0.01716      2.84355      0.01758      2.86596
    -5.15000      0.01719      2.84527      0.01762      2.86772
    -5.14000      0.01722      2.84699      0.01765      2.86948
    -5.13000      0.01726      2.84871      0.01768      2.87125
    -5.12000      0.01729      2.85044      0.01772      2.87302
    -5.11000      0.01732      2.85217      0.01775      2.87479
    -5.10000      0.01735      2.85390      0.01778      2.87657
    -5.09000      0.01739      2.85564      0.01782      2.87835
    -5.08000      0.01742      2.85738      0.01785      2.88013
    -5.07000      0.01745      2.85912      0.01789      2.88192
    -5.06000      0.01748      2.86087      0.01792      2.88371
    -5.05000      0.01752      2.86262      0.01795      2.88550
    -5.04000      0.01755      2.86437      0.01799      2.88730
    -5.03000      0.01758      2.86613      0.01802      2.88910
    -5.02000      0.01762      2.86789      0.01806      2.89090
    -5.01000      0.01765      2.86965      0.01809      2.89271
    -5.00000      0.01768      2.87142      0.01813      2.89452
    -4.99000      0.01772      2.87319      0.01816      2.89633
    -4.98000      0.01775      2.87496      0.01820      2.89815
    -4.97000      0.01778      2.87674      0.01823      2.89997
    -4.96000      0.01782      2.87852      0.01827      2.90180
    -4.95000      0.01785      2.88030      0.01830      2.90362
    -4.94000      0.01788      2.88208      0.01834      2.90546
    -4.93000      0.01792      2.88387      0.01837      2.90729
    -4.92000      0.01795      2.88567      0.01841      2.90913
    -4.91000      0.01799      2.88746      0.01844      2.91097
    -4.90000      0.01802      2.88926      0.01848      2.91282
    -4.89000      0.01806      2.89107      0.01851      2.91467
    -4.88000      0.01809      2.89288      0.01855      2.91652
    -4.87000      0.01813      2.89469      0.01859      2.91838
    -4.86000      0.01816      2.89650      0.01862      2.92023
    -4.85000      0.01819      2.89832      0.01866      2.92210
    -4.84000      0.01823      2.90014      0.01869      2.92397
    -4.83000      0.01826      2.90196      0.01873      2.92584
    -4.82000      0.01830      2.90379      0.01877      2.92771
    -4.81000      0.01834      2.90562      0.01880      2.92959
    -4.80000      0.01837      2.90746      0.01884      2.93147
    -4.79000      0.01841      2.90930      0.01888      2.93336
    -4.78000      0.01844      2.91114      0.01891      2.93525
    -4.77000      0.01848      2.91298      0.01895      2.93714
    -4.76000      0.01851      2.91483      0.01899      2.93904
    -4.75000      0.01855      2.91669      0.01903      2.94094
    -4.74000      0.01859      2.91854      0.01906      2.94284
    -4.73000      0.01862      2.92040      0.01910      2.94475
    -4.72000      0.01866      2.92227      0.01914      2.94666
    -4.71000      0.01869      2.92413      0.01918      2.94857
    -4.70000      0.01873      2.92600      0.01921      2.95049
    -4.69000      0.01877      2.92788      0.01925      2.95242
    -4.68000      0.01880      2.92976      0.01929      2.95434
    -4.67000      0.01884      2.93164      0.01933      2.95627
    -4.66000      0.01888      2.93352      0.01937      2.95821
    -4.65000      0.01891      2.93541      0.01940      2.96015
    -4.64000      0.01895      2.93730      0.01944      2.96209
    -4.63000      0.01899      2.93920      0.01948      2.96403
    -4.62000      0.01903      2.94110      0.01952      2.96598
    -4.61000      0.01906      2.94301      0.01956      2.96794
    -4.60000      0.01910      2.94491      0.01960      2.96990
    -4.59000      0.01914      2.94683      0.01964      2.97186
    -4.58000      0.01918      2.94874      0.01968      2.97382
    -4.57000      0.01921      2.95066      0.01972      2.97579
    -4.56000      0.01925      2.95258      0.01976      2.97777
    -4.55000      0.01929      2.95451      0.01980      2.97974
    -4.54000      0.01933      2.95644      0.01984      2.98172
    -4.53000      0.01937      2.95837      0.01987      2.98371
    -4.52000      0.01940      2.96031      0.01991      2.98570
    -4.51000      0.01944      2.96225      0.01995      2.98769
    -4.50000      0.01948      2.96420      0.02000      2.98969
    -4.49000      0.01952      2.96615      0.02004      2.99169
    -4.48000      0.01956      2.96810      0.02008      2.99369
    -4.47000      0.01960      2.97006      0.02012      2.99570
    -4.46000      0.01964      2.97202      0.02016      2.99772
    -4.45000      0.01968      2.97399      0.02020      2.99973
    -4.44000      0.01972      2.97596      0.02024      3.00175
    -4.43000      0.01976      2.97793      0.02028      3.00378
    -4.42000      0.01979      2.97991      0.02032      3.00581
    -4.41000      0.01983      2.98189      0.02036      3.00784
    -4.40000      0.01987      2.98387      0.02040      3.00988
    -4.39000      0.01991      2.98586      0.02045      3.01192
    -4.38000      0.01995      2.98785      0.02049      3.01397
    -4.37000      0.01999      2.98985      0.02053      3.01602
    -4.36000      0.02003      2.99185      0.02057      3.01808
    -4.35000      0.02007      2.99386      0.02061      3.02013
    -4.34000      0.02012      2.99587      0.02065      3.02220
    -4.33000      0.02016      2.99788      0.02070      3.02426
    -4.32000      0.02020      2.99990      0.02074      3.02634
    -4.31000      0.02024      3.00192      0.02078      3.02841
    -4.30000      0.02028      3.00394      0.02082      3.03049
    -4.29000      0.02032      3.00597      0.02087      3.03258
    -4.28000      0.02036      3.00801      0.02091      3.03466
    -4.27000      0.02040      3.01004      0.02095      3.03676
    -4.26000      0.02044      3.01209      0.02100      3.03885
    -4.25000      0.02049      3.01413      0.02104      3.04095
    -4.24000      0.02053      3.01618      0.02108      3.04306
    -4.23000      0.02057      3.01824      0.02113      3.04517
    -4.22000      0.02061      3.02030      0.02117      3.04729
    -4.21000      0.02065      3.02236      0.02122      3.04940
    -4.20000      0.02070      3.02443      0.02126      3.05153
    -4.19000      0.02074      3.02650      0.02130      3.05365
    -4.18000      0.02078      3.02857      0.02135      3.05579
    -4.17000      0.02082      3.03065      0.02139      3.05792
    -4.16000      0.02087      3.03274      0.02144      3.06006
    -4.15000      0.02091      3.03482      0.02148      3.06221
    -4.14000      0.02095      3.03692      0.02153      3.06436
    -4.13000      0.02100      3.03901      0.02157      3.06651
    -4.12000      0.02104      3.04112      0.02162      3.06867
    -4.11000      0.02108      3.04322      0.02166      3.07084
    -4.10000      0.02113      3.04533      0.02171      3.07300
    -4.09000      0.02117      3.04745      0.02175      3.07518
    -4.08000      0.02121      3.04956      0.02180      3.07735
    -4.07000      0.02126      3.05169      0.02184      3.07954
    -4.06000      0.02130      3.05382      0.02189      3.08172
    -4.05000      0.02135      3.05595      0.02194      3.08391
    -4.04000      0.02139      3.05808      0.02198      3.08611
    -4.03000      0.02144      3.06022      0.02203      3.08831
    -4.02000      0.02148      3.06237      0.02208      3.09051
    -4.01000      0.02152      3.06452      0.02212      3.09272
    -4.00000      0.02157      3.06667      0.02217      3.09494
    -3.99000      0.02162      3.06883      0.02222      3.09716
    -3.98000      0.02166      3.07100      0.02226      3.09938
    -3.97000      0.02171      3.07316      0.02231      3.10161
    -3.96000      0.02175      3.07534      0.02236      3.10384
    -3.95000      0.02180      3.07751      0.02241      3.10608
    -3.94000      0.02184      3.07969      0.02245      3.10832
    -3.93000      0.02189      3.08188      0.02250      3.11057
    -3.92000      0.02194      3.08407      0.02255      3.11282
    -3.91000      0.02198      3.08627      0.02260      3.11508
    -3.90000      0.02203      3.08847      0.02265      3.11734
    -3.89000      0.02207      3.09067      0.02270      3.11961
    -3.88000      0.02212      3.09288      0.02274      3.12188
    -3.87000      0.02217      3.09509      0.02279      3.12415
    -3.86000      0.02222      3.09731      0.02284      3.12644
    -3.85000      0.02226      3.09954      0.02289      3.12872
    -3.84000      0.02231      3.10176      0.02294      3.13101
    -3.83000      0.02236      3.10400      0.02299      3.13331
    -3.82000      0.02240      3.10623      0.02304      3.13561
    -3.81000      0.02245      3.10848      0.02309      3.13792
    -3.80000      0.02250      3.11072      0.02314      3.14023
    -3.79000      0.02255      3.11298      0.02319      3.14254
    -3.78000      0.02260      3.11523      0.02324      3.14486
    -3.77000      0.02265      3.11749      0.02329      3.14719
    -3.76000      0.02269      3.11976      0.02334      3.14952
    -3.75000      0.02274      3.12203      0.02339      3.15186
    -3.74000      0.02279      3.12431      0.02344      3.15420
    -3.73000      0.02284      3.12659      0.02349      3.15654
    -3.72000      0.02289      3.12888      0.02355      3.15890
    -3.71000      0.02294      3.13117      0.02360      3.16125
    -3.70000      0.02299      3.13346      0.02365      3.16361
    -3.69000      0.02304      3.13576      0.02370      3.16598
    -3.68000      0.02309      3.13807      0.02375      3.16835
    -3.67000      0.02314      3.14038      0.02381      3.17073
    -3.66000      0.02319      3.14270      0.02386      3.17311
    -3.65000      0.02324      3.14502      0.02391      3.17550
    -3.64000      0.02329      3.14734      0.02396      3.17789
    -3.63000      0.02334      3.14967      0.02402      3.18029
    -3.62000      0.02339      3.15201      0.02407      3.18270
    -3.61000      0.02344      3.15435      0.02412      3.18511
    -3.60000      0.02349      3.15670      0.02418      3.18752
    -3.59000      0.02354      3.15905      0.02423      3.18994
    -3.58000      0.02360      3.16140      0.02428      3.19236
    -3.57000      0.02365      3.16377      0.02434      3.19479
    -3.56000      0.02370      3.16613      0.02439      3.19723
    -3.55000      0.02375      3.16851      0.02445      3.19967
    -3.54000      0.02380      3.17088      0.02450      3.20212
    -3.53000      0.02386      3.17326      0.02455      3.20457
    -3.52000      0.02391      3.17565      0.02461      3.20703
    -3.51000      0.02396      3.17805      0.02466      3.20949
    -3.50000      0.02401      3.18044      0.02472      3.21196
    -3.49000      0.02407      3.18285      0.02478      3.21443
    -3.48000      0.02412      3.18526      0.02483      3.21691
    -3.47000      0.02417      3.18767      0.02489      3.21940
    -3.46000      0.02423      3.19009      0.02494      3.22189
    -3.45000      0.02428      3.19251      0.02500      3.22439
    -3.44000      0.02433      3.19494      0.02506      3.22689
    -3.43000      0.02439      3.19738      0.02511      3.22940
    -3.42000      0.02444      3.19982      0.02517      3.23191
    -3.41000      0.02450      3.20227      0.02523      3.23443
    -3.40000      0.02455      3.20472      0.02528      3.23695
    -3.39000      0.02461      3.20718      0.02534      3.23948
    -3.38000      0.02466      3.20964      0.02540      3.24202
    -3.37000      0.02472      3.21211      0.02546      3.24456
    -3.36000      0.02477      3.21458      0.02551      3.24711
    -3.35000      0.02483      3.21706      0.02557      3.24966
    -3.34000      0.02488      3.21955      0.02563      3.25222
    -3.33000      0.02494      3.22204      0.02569      3.25479
    -3.32000      0.02500      3.22453      0.02575      3.25736
    -3.31000      0.02505      3.22703      0.02581      3.25994
    -3.30000      0.02511      3.22954      0.02586      3.26252
    -3.29000      0.02517      3.23205      0.02592      3.26511
    -3.28000      0.02522      3.23457      0.02598      3.26770
    -3.27000      0.02528      3.23710      0.02604      3.27030
    -3.26000      0.02534      3.23963      0.02610      3.27291
    -3.25000      0.02539      3.24216      0.02616      3.27552
    -3.24000      0.02545      3.24471      0.02622      3.27814
    -3.23000      0.02551      3.24725      0.02628      3.28077
    -3.22000      0.02557      3.24981      0.02635      3.28340
    -3.21000      0.02563      3.25237      0.02641      3.28603
    -3.20000      0.02569      3.25493      0.02647      3.28868
    -3.19000      0.02574      3.25750      0.02653      3.29133
    -3.18000      0.02580      3.26008      0.02659      3.29398
    -3.17000      0.02586      3.26266      0.02665      3.29664
    -3.16000      0.02592      3.26525      0.02671      3.29931
    -3.15000      0.02598      3.26784      0.02678      3.30198
    -3.14000      0.02604      3.27044      0.02684      3.30466
    -3.13000      0.02610      3.27305      0.02690      3.30735
    -3.12000      0.02616      3.27566      0.02696      3.31004
    -3.11000      0.02622      3.27828      0.02703      3.31274
    -3.10000      0.02628      3.28091      0.02709      3.31545
    -3.09000      0.02634      3.28354      0.02715      3.31816
    -3.08000      0.02640      3.28617      0.02722      3.32088
    -3.07000      0.02646      3.28881      0.02728      3.32360
    -3.06000      0.02653      3.29146      0.02735      3.32633
    -3.05000      0.02659      3.29412      0.02741      3.32907
    -3.04000      0.02665      3.29678      0.02748      3.33181
    -3.03000      0.02671      3.29945      0.02754      3.33456
    -3.02000      0.02677      3.30212      0.02761      3.33732
    -3.01000      0.02684      3.30480      0.02767      3.34008
    -3.00000      0.02690      3.30749      0.02774      3.34285
    -2.99000      0.02696      3.31018      0.02780      3.34563
    -2.98000      0.02702      3.31288      0.02787      3.34841
    -2.97000      0.02709      3.31558      0.02794      3.35120
    -2.96000      0.02715      3.31829      0.02800      3.35400
    -2.95000      0.02721      3.32101      0.02807      3.35680
    -2.94000      0.02728      3.32373      0.02814      3.35961
    -2.93000      0.02734      3.32646      0.02820      3.36242
    -2.92000      0.02741      3.32920      0.02827      3.36525
    -2.91000      0.02747      3.33194      0.02834      3.36808
    -2.90000      0.02754      3.33469      0.02841      3.37091
    -2.89000      0.02760      3.33745      0.02848      3.37376
    -2.88000      0.02767      3.34021      0.02854      3.37661
    -2.87000      0.02773      3.34298      0.02861      3.37946
    -2.86000      0.02780      3.34576      0.02868      3.38233
    -2.85000      0.02787      3.34854      0.02875      3.38520
    -2.84000      0.02793      3.35133      0.02882      3.38808
    -2.83000      0.02800      3.35413      0.02889      3.39096
    -2.82000      0.02807      3.35693      0.02896      3.39385
    -2.81000      0.02813      3.35974      0.02903      3.39675
    -2.80000      0.02820      3.36255      0.02910      3.39966
    -2.79000      0.02827      3.36538      0.02917      3.40257
    -2.78000      0.02833      3.36820      0.02924      3.40549
    -2.77000      0.02840      3.37104      0.02931      3.40842
    -2.76000      0.02847      3.37388      0.02939      3.41135
    -2.75000      0.02854      3.37673      0.02946      3.41429
    -2.74000      0.02861      3.37959      0.02953      3.41724
    -2.73000      0.02868      3.38245      0.02960      3.42020
    -2.72000      0.02875      3.38532      0.02968      3.42316
    -2.71000      0.02882      3.38820      0.02975      3.42613
    -2.70000      0.02889      3.39108      0.02982      3.42911
    -2.69000      0.02896      3.39398      0.02990      3.43209
    -2.68000      0.02903      3.39688      0.02997      3.43509
    -2.67000      0.02910      3.39978      0.03004      3.43809
    -2.66000      0.02917      3.40269      0.03012      3.44109
    -2.65000      0.02924      3.40561      0.03019      3.44411
    -2.64000      0.02931      3.40854      0.03027      3.44713
    -2.63000      0.02938      3.41147      0.03034      3.45016
    -2.62000      0.02945      3.41441      0.03042      3.45320
    -2.61000      0.02953      3.41736      0.03049      3.45624
    -2.60000      0.02960      3.42032      0.03057      3.45929
    -2.59000      0.02967      3.42328      0.03065      3.46235
    -2.58000      0.02974      3.42625      0.03072      3.46542
    -2.57000      0.02982      3.42923      0.03080      3.46849
    -2.56000      0.02989      3.43221      0.03088      3.47158
    -2.55000      0.02996      3.43520      0.03095      3.47467
    -2.54000      0.03004      3.43820      0.03103      3.47777
    -2.53000      0.03011      3.44121      0.03111      3.48087
    -2.52000      0.03019      3.44422      0.03119      3.48399
    -2.51000      0.03026      3.44724      0.03127      3.48711
    -2.50000      0.03034      3.45027      0.03134      3.49024
    -2.49000      0.03041      3.45331      0.03142      3.49337
    -2.48000      0.03049      3.45635      0.03150      3.49652
    -2.47000      0.03056      3.45940      0.03158      3.49967
    -2.46000      0.03064      3.46246      0.03166      3.50283
    -2.45000      0.03072      3.46553      0.03174      3.50600
    -2.44000      0.03079      3.46860      0.03182      3.50918
    -2.43000      0.03087      3.47169      0.03191      3.51237
    -2.42000      0.03095      3.47478      0.03199      3.51556
    -2.41000      0.03102      3.47787      0.03207      3.51876
    -2.40000      0.03110      3.48098      0.03215      3.52197
    -2.39000      0.03118      3.48409      0.03223      3.52519
    -2.38000      0.03126      3.48721      0.03231      3.52842
    -2.37000      0.03134      3.49034      0.03240      3.53165
    -2.36000      0.03142      3.49348      0.03248      3.53489
    -2.35000      0.03150      3.49662      0.03256      3.53814
    -2.34000      0.03158      3.49978      0.03265      3.54140
    -2.33000      0.03166      3.50294      0.03273      3.54467
    -2.32000      0.03174      3.50611      0.03282      3.54795
    -2.31000      0.03182      3.50928      0.03290      3.55123
    -2.30000      0.03190      3.51247      0.03299      3.55453
    -2.29000      0.03198      3.51566      0.03307      3.55783
    -2.28000      0.03206      3.51886      0.03316      3.56114
    -2.27000      0.03214      3.52207      0.03324      3.56446
    -2.26000      0.03223      3.52529      0.03333      3.56779
    -2.25000      0.03231      3.52851      0.03342      3.57112
    -2.24000      0.03239      3.53175      0.03351      3.57447
    -2.23000      0.03247      3.53499      0.03359      3.57782
    -2.22000      0.03256      3.53824      0.03368      3.58118
    -2.21000      0.03264      3.54150      0.03377      3.58455
    -2.20000      0.03273      3.54477      0.03386      3.58793
    -2.19000      0.03281      3.54804      0.03395      3.59132
    -2.18000      0.03289      3.55133      0.03404      3.59472
    -2.17000      0.03298      3.55462      0.03413      3.59813
    -2.16000      0.03307      3.55792      0.03422      3.60154
    -2.15000      0.03315      3.56123      0.03431      3.60497
    -2.14000      0.03324      3.56455      0.03440      3.60840
    -2.13000      0.03332      3.56787      0.03449      3.61185
    -2.12000      0.03341      3.57121      0.03458      3.61530
    -2.11000      0.03350      3.57455      0.03467      3.61876
    -2.10000      0.03359      3.57791      0.03476      3.62223
    -2.09000      0.03367      3.58127      0.03486      3.62571
    -2.08000      0.03376      3.58464      0.03495      3.62920
    -2.07000      0.03385      3.58802      0.03504      3.63270
    -2.06000      0.03394      3.59141      0.03513      3.63620
    -2.05000      0.03403      3.59480      0.03523      3.63972
    -2.04000      0.03412      3.59821      0.03532      3.64325
    -2.03000      0.03421      3.60163      0.03542      3.64678
    -2.02000      0.03430      3.60505      0.03551      3.65033
    -2.01000      0.03439      3.60848      0.03561      3.65388
    -2.00000      0.03448      3.61192      0.03570      3.65745
    -1.99000      0.03457      3.61538      0.03580      3.66102
    -1.98000      0.03466      3.61884      0.03590      3.66461
    -1.97000      0.03475      3.62231      0.03599      3.66820
    -1.96000      0.03485      3.62578      0.03609      3.67180
    -1.95000      0.03494      3.62927      0.03619      3.67541
    -1.94000      0.03503      3.63277      0.03629      3.67904
    -1.93000      0.03513      3.63628      0.03639      3.68267
    -1.92000      0.03522      3.63979      0.03649      3.68631
    -1.91000      0.03531      3.64332      0.03659      3.68996
    -1.90000      0.03541      3.64685      0.03669      3.69363
    -1.89000      0.03550      3.65040      0.03679      3.69730
    -1.88000      0.03560      3.65395      0.03689      3.70098
    -1.87000      0.03570      3.65752      0.03699      3.70467
    -1.86000      0.03579      3.66109      0.03709      3.70837
    -1.85000      0.03589      3.66467      0.03719      3.71209
    -1.84000      0.03599      3.66826      0.03729      3.71581
    -1.83000      0.03608      3.67187      0.03740      3.71954
    -1.82000      0.03618      3.67548      0.03750      3.72329
    -1.81000      0.03628      3.67910      0.03760      3.72704
    -1.80000      0.03638      3.68273      0.03771      3.73080
    -1.79000      0.03648      3.68637      0.03781      3.73458
    -1.78000      0.03658      3.69002      0.03792      3.73836
    -1.77000      0.03668      3.69368      0.03802      3.74216
    -1.76000      0.03678      3.69736      0.03813      3.74597
    -1.75000      0.03688      3.70104      0.03823      3.74978
    -1.74000      0.03698      3.70473      0.03834      3.75361
    -1.73000      0.03708      3.70843      0.03845      3.75745
    -1.72000      0.03718      3.71214      0.03856      3.76130
    -1.71000      0.03728      3.71586      0.03866      3.76516
    -1.70000      0.03739      3.71960      0.03877      3.76903
    -1.69000      0.03749      3.72334      0.03888      3.77291
    -1.68000      0.03759      3.72709      0.03899      3.77680
    -1.67000      0.03770      3.73085      0.03910      3.78070
    -1.66000      0.03780      3.73463      0.03921      3.78462
    -1.65000      0.03791      3.73841      0.03932      3.78854
    -1.64000      0.03801      3.74221      0.03943      3.79248
    -1.63000      0.03812      3.74601      0.03955      3.79643
    -1.62000      0.03822      3.74983      0.03966      3.80038
    -1.61000      0.03833      3.75365      0.03977      3.80435
    -1.60000      0.03844      3.75749      0.03988      3.80834
    -1.59000      0.03855      3.76134      0.04000      3.81233
    -1.58000      0.03865      3.76519      0.04011      3.81633
    -1.57000      0.03876      3.76906      0.04023      3.82035
    -1.56000      0.03887      3.77294      0.04034      3.82437
    -1.55000      0.03898      3.77683      0.04046      3.82841
    -1.54000      0.03909      3.78074      0.04057      3.83246
    -1.53000      0.03920      3.78465      0.04069      3.83652
    -1.52000      0.03931      3.78857      0.04081      3.84060
    -1.51000      0.03942      3.79251      0.04093      3.84468
    -1.50000      0.03953      3.79646      0.04104      3.84878
    -1.49000      0.03965      3.80041      0.04116      3.85289
    -1.48000      0.03976      3.80438      0.04128      3.85701
    -1.47000      0.03987      3.80836      0.04140      3.86114
    -1.46000      0.03999      3.81235      0.04152      3.86528
    -1.45000      0.04010      3.81635      0.04164      3.86944
    -1.44000      0.04021      3.82037      0.04176      3.87361
    -1.43000      0.04033      3.82439      0.04189      3.87779
    -1.42000      0.04045      3.82843      0.04201      3.88198
    -1.41000      0.04056      3.83248      0.04213      3.88619
    -1.40000      0.04068      3.83654      0.04226      3.89041
    -1.39000      0.04079      3.84061      0.04238      3.89464
    -1.38000      0.04091      3.84470      0.04250      3.89888
    -1.37000      0.04103      3.84879      0.04263      3.90313
    -1.36000      0.04115      3.85290      0.04275      3.90740
    -1.35000      0.04127      3.85702      0.04288      3.91168
    -1.34000      0.04139      3.86115      0.04301      3.91597
    -1.33000      0.04151      3.86529      0.04314      3.92028
    -1.32000      0.04163      3.86945      0.04326      3.92460
    -1.31000      0.04175      3.87361      0.04339      3.92893
    -1.30000      0.04187      3.87779      0.04352      3.93327
    -1.29000      0.04199      3.88199      0.04365      3.93763
    -1.28000      0.04212      3.88619      0.04378      3.94200
    -1.27000      0.04224      3.89041      0.04391      3.94638
    -1.26000      0.04236      3.89463      0.04404      3.95077
    -1.25000      0.04249      3.89887      0.04418      3.95518
    -1.24000      0.04261      3.90313      0.04431      3.95961
    -1.23000      0.04274      3.90739      0.04444      3.96404
    -1.22000      0.04287      3.91167      0.04457      3.96849
    -1.21000      0.04299      3.91596      0.04471      3.97295
    -1.20000      0.04312      3.92027      0.04484      3.97743
    -1.19000      0.04325      3.92458      0.04498      3.98192
    -1.18000      0.04338      3.92891      0.04512      3.98642
    -1.17000      0.04351      3.93326      0.04525      3.99094
    -1.16000      0.04364      3.93761      0.04539      3.99547
    -1.15000      0.04377      3.94198      0.04553      4.00001
    -1.14000      0.04390      3.94636      0.04567      4.00457
    -1.13000      0.04403      3.95075      0.04581      4.00914
    -1.12000      0.04416      3.95516      0.04595      4.01372
    -1.11000      0.04429      3.95958      0.04609      4.01832
    -1.10000      0.04442      3.96402      0.04623      4.02294
    -1.09000      0.04456      3.96846      0.04637      4.02757
    -1.08000      0.04469      3.97292      0.04651      4.03221
    -1.07000      0.04483      3.97740      0.04666      4.03686
    -1.06000      0.04496      3.98188      0.04680      4.04153
    -1.05000      0.04510      3.98639      0.04695      4.04622
    -1.04000      0.04524      3.99090      0.04709      4.05092
    -1.03000      0.04537      3.99543      0.04724      4.05563
    -1.02000      0.04551      3.99997      0.04738      4.06036
    -1.01000      0.04565      4.00453      0.04753      4.06511
    -1.00000      0.04579      4.00910      0.04768      4.06986
    -0.99000      0.04593      4.01368      0.04783      4.07464
    -0.98000      0.04607      4.01828      0.04798      4.07943
    -0.97000      0.04621      4.02289      0.04813      4.08423
    -0.96000      0.04635      4.02752      0.04828      4.08905
    -0.95000      0.04650      4.03216      0.04843      4.09388
    -0.94000      0.04664      4.03681      0.04858      4.09873
    -0.93000      0.04678      4.04148      0.04874      4.10359
    -0.92000      0.04693      4.04616      0.04889      4.10847
    -0.91000      0.04707      4.05086      0.04904      4.11336
    -0.90000      0.04722      4.05557      0.04920      4.11827
    -0.89000      0.04737      4.06030      0.04936      4.12320
    -0.88000      0.04751      4.06504      0.04951      4.12814
    -0.87000      0.04766      4.06980      0.04967      4.13310
    -0.86000      0.04781      4.07457      0.04983      4.13807
    -0.85000      0.04796      4.07936      0.04999      4.14306
    -0.84000      0.04811      4.08416      0.05015      4.14806
    -0.83000      0.04826      4.08897      0.05031      4.15308
    -0.82000      0.04841      4.09380      0.05047      4.15812
    -0.81000      0.04856      4.09865      0.05063      4.16317
    -0.80000      0.04872      4.10351      0.05079      4.16824
    -0.79000      0.04887      4.10839      0.05096      4.17332
    -0.78000      0.04902      4.11328      0.05112      4.17842
    -0.77000      0.04918      4.11819      0.05129      4.18354
    -0.76000      0.04933      4.12311      0.05145      4.18868
    -0.75000      0.04949      4.12805      0.05162      4.19383
    -0.74000      0.04965      4.13301      0.05179      4.19899
    -0.73000      0.04981      4.13797      0.05196      4.20418
    -0.72000      0.04997      4.14296      0.05212      4.20938
    -0.71000      0.05012      4.14796      0.05229      4.21460
    -0.70000      0.05029      4.15298      0.05247      4.21983
    -0.69000      0.05045      4.15801      0.05264      4.22509
    -0.68000      0.05061      4.16306      0.05281      4.23036
    -0.67000      0.05077      4.16813      0.05298      4.23564
    -0.66000      0.05093      4.17321      0.05316      4.24095
    -0.65000      0.05110      4.17831      0.05333      4.24627
    -0.64000      0.05126      4.18343      0.05351      4.25161
    -0.63000      0.05143      4.18856      0.05369      4.25696
    -0.62000      0.05160      4.19371      0.05386      4.26234
    -0.61000      0.05176      4.19887      0.05404      4.26773
    -0.60000      0.05193      4.20406      0.05422      4.27314
    -0.59000      0.05210      4.20926      0.05440      4.27857
    -0.58000      0.05227      4.21447      0.05458      4.28402
    -0.57000      0.05244      4.21970      0.05477      4.28948
    -0.56000      0.05261      4.22495      0.05495      4.29496
    -0.55000      0.05279      4.23022      0.05513      4.30046
    -0.54000      0.05296      4.23551      0.05532      4.30598
    -0.53000      0.05313      4.24081      0.05550      4.31152
    -0.52000      0.05331      4.24613      0.05569      4.31708
    -0.51000      0.05348      4.25146      0.05588      4.32265
    -0.50000      0.05366      4.25682      0.05607      4.32825
    -0.49000      0.05384      4.26219      0.05626      4.33386
    -0.48000      0.05402      4.26758      0.05645      4.33949
    -0.47000      0.05420      4.27299      0.05664      4.34514
    -0.46000      0.05438      4.27841      0.05683      4.35081
    -0.45000      0.05456      4.28386      0.05703      4.35650
    -0.44000      0.05474      4.28932      0.05722      4.36221
    -0.43000      0.05492      4.29480      0.05742      4.36794
    -0.42000      0.05511      4.30030      0.05761      4.37369
    -0.41000      0.05529      4.30581      0.05781      4.37946
    -0.40000      0.05548      4.31135      0.05801      4.38525
    -0.39000      0.05566      4.31690      0.05821      4.39105
    -0.38000      0.05585      4.32247      0.05841      4.39688
    -0.37000      0.05604      4.32807      0.05861      4.40273
    -0.36000      0.05623      4.33368      0.05882      4.40860
    -0.35000      0.05642      4.33931      0.05902      4.41448
    -0.34000      0.05661      4.34495      0.05923      4.42039
    -0.33000      0.05681      4.35062      0.05943      4.42632
    -0.32000      0.05700      4.35631      0.05964      4.43227
    -0.31000      0.05719      4.36201      0.05985      4.43824
    -0.30000      0.05739      4.36774      0.06006      4.44424
    -0.29000      0.05759      4.37349      0.06027      4.45025
    -0.28000      0.05778      4.37925      0.06048      4.45628
    -0.27000      0.05798      4.38504      0.06069      4.46234
    -0.26000      0.05818      4.39084      0.06091      4.46841
    -0.25000      0.05838      4.39667      0.06112      4.47451
    -0.24000      0.05858      4.40251      0.06134      4.48063
    -0.23000      0.05879      4.40837      0.06155      4.48677
    -0.22000      0.05899      4.41426      0.06177      4.49293
    -0.21000      0.05919      4.42017      0.06199      4.49912
    -0.20000      0.05940      4.42609      0.06221      4.50532
    -0.19000      0.05961      4.43204      0.06244      4.51155
    -0.18000      0.05982      4.43801      0.06266      4.51780
    -0.17000      0.06002      4.44399      0.06288      4.52408
    -0.16000      0.06023      4.45000      0.06311      4.53037
    -0.15000      0.06045      4.45603      0.06334      4.53669
    -0.14000      0.06066      4.46208      0.06356      4.54303
    -0.13000      0.06087      4.46816      0.06379      4.54939
    -0.12000      0.06109      4.47425      0.06402      4.55578
    -0.11000      0.06130      4.48037      0.06425      4.56219
    -0.10000      0.06152      4.48651      0.06449      4.56862
    -0.09000      0.06174      4.49266      0.06472      4.57508
    -0.08000      0.06196      4.49885      0.06496      4.58156
    -0.07000      0.06218      4.50505      0.06519      4.58806
    -0.06000      0.06240      4.51127      0.06543      4.59459
    -0.05000      0.06262      4.51752      0.06567      4.60114
    -0.04000      0.06285      4.52379      0.06591      4.60771
    -0.03000      0.06307      4.53008      0.06616      4.61431
    -0.02000      0.06330      4.53640      0.06640      4.62094
     -0.0100       0.0635       4.5427       0.0666       4.6276
     0.00000      0.06376      4.54909      0.06689      4.63426
      0.0100       0.0640       4.5555       0.0671       4.6410
     0.02000      0.06422      4.56188      0.06739      4.64767
     0.03000      0.06445      4.56831      0.06764      4.65442
     0.04000      0.06468      4.57476      0.06789      4.66119
     0.05000      0.06492      4.58124      0.06814      4.66799
     0.06000      0.06516      4.58774      0.06840      4.67481
     0.07000      0.06539      4.59426      0.06865      4.68166
     0.08000      0.06563      4.60081      0.06891      4.68853
     0.09000      0.06587      4.60738      0.06917      4.69543
     0.10000      0.06611      4.61397      0.06943      4.70236
     0.11000      0.06636      4.62059      0.06969      4.70931
     0.12000      0.06660      4.62724      0.06995      4.71628
     0.13000      0.06685      4.63390      0.07022      4.72329
     0.14000      0.06710      4.64060      0.07048      4.73032
     0.15000      0.06734      4.64732      0.07075      4.73738
     0.16000      0.06759      4.65406      0.07102      4.74446
     0.17000      0.06785      4.66082      0.07129      4.75157
     0.18000      0.06810      4.66762      0.07157      4.75871
     0.19000      0.06835      4.67443      0.07184      4.76587
     0.20000      0.06861      4.68128      0.07212      4.77306
     0.21000      0.06887      4.68815      0.07239      4.78028
     0.22000      0.06912      4.69504      0.07267      4.78753
     0.23000      0.06938      4.70196      0.07295      4.79481
     0.24000      0.06965      4.70891      0.07323      4.80211
     0.25000      0.06991      4.71588      0.07352      4.80944
     0.26000      0.07017      4.72288      0.07380      4.81680
     0.27000      0.07044      4.72991      0.07409      4.82419
     0.28000      0.07071      4.73696      0.07438      4.83161
     0.29000      0.07098      4.74404      0.07467      4.83906
     0.30000      0.07125      4.75114      0.07496      4.84653
     0.31000      0.07152      4.75828      0.07526      4.85404
     0.32000      0.07179      4.76544      0.07555      4.86157
     0.33000      0.07207      4.77262      0.07585      4.86914
     0.34000      0.07234      4.77984      0.07615      4.87673
     0.35000      0.07262      4.78708      0.07645      4.88435
     0.36000      0.07290      4.79435      0.07675      4.89201
     0.37000      0.07318      4.80165      0.07706      4.89969
     0.38000      0.07347      4.80898      0.07736      4.90741
     0.39000      0.07375      4.81633      0.07767      4.91515
     0.40000      0.07404      4.82372      0.07798      4.92293
     0.41000      0.07433      4.83113      0.07829      4.93074
     0.42000      0.07462      4.83857      0.07861      4.93858
     0.43000      0.07491      4.84604      0.07892      4.94644
     0.44000      0.07520      4.85354      0.07924      4.95435
     0.45000      0.07550      4.86107      0.07956      4.96228
     0.46000      0.07579      4.86863      0.07988      4.97025
     0.47000      0.07609      4.87622      0.08020      4.97824
     0.48000      0.07639      4.88384      0.08053      4.98627
     0.49000      0.07670      4.89149      0.08086      4.99434
     0.50000      0.07700      4.89917      0.08118      5.00243
     0.51000      0.07731      4.90687      0.08152      5.01056
     0.52000      0.07761      4.91461      0.08185      5.01872
     0.53000      0.07792      4.92238      0.08218      5.02692
     0.54000      0.07823      4.93019      0.08252      5.03514
     0.55000      0.07855      4.93802      0.08286      5.04341
     0.56000      0.07886      4.94588      0.08320      5.05170
     0.57000      0.07918      4.95378      0.08355      5.06003
     0.58000      0.07950      4.96171      0.08389      5.06840
     0.59000      0.07982      4.96967      0.08424      5.07680
     0.60000      0.08014      4.97766      0.08459      5.08523
     0.61000      0.08047      4.98568      0.08494      5.09370
     0.62000      0.08079      4.99374      0.08530      5.10221
     0.63000      0.08112      5.00183      0.08566      5.11075
     0.64000      0.08145      5.00995      0.08601      5.11932
     0.65000      0.08179      5.01810      0.08638      5.12793
     0.66000      0.08212      5.02629      0.08674      5.13658
     0.67000      0.08246      5.03451      0.08711      5.14527
     0.68000      0.08280      5.04277      0.08747      5.15399
     0.69000      0.08314      5.05106      0.08785      5.16275
     0.70000      0.08348      5.05938      0.08822      5.17154
     0.71000      0.08383      5.06774      0.08859      5.18037
     0.72000      0.08418      5.07614      0.08897      5.18924
     0.73000      0.08452      5.08456      0.08935      5.19815
     0.74000      0.08488      5.09302      0.08973      5.20710
     0.75000      0.08523      5.10152      0.09012      5.21608
     0.76000      0.08559      5.11006      0.09051      5.22510
     0.77000      0.08595      5.11863      0.09090      5.23417
     0.78000      0.08631      5.12723      0.09129      5.24327
     0.79000      0.08667      5.13587      0.09169      5.25241
     0.80000      0.08704      5.14455      0.09208      5.26159
     0.81000      0.08740      5.15326      0.09248      5.27081
     0.82000      0.08777      5.16201      0.09289      5.28007
     0.83000      0.08815      5.17080      0.09329      5.28937
     0.84000      0.08852      5.17963      0.09370      5.29871
     0.85000      0.08890      5.18849      0.09411      5.30809
     0.86000      0.08928      5.19739      0.09453      5.31751
     0.87000      0.08966      5.20633      0.09494      5.32698
     0.88000      0.09004      5.21531      0.09536      5.33648
     0.89000      0.09043      5.22432      0.09579      5.34603
     0.90000      0.09082      5.23338      0.09621      5.35562
     0.91000      0.09121      5.24247      0.09664      5.36525
     0.92000      0.09161      5.25160      0.09707      5.37493
     0.93000      0.09201      5.26078      0.09750      5.38465
     0.94000      0.09240      5.26999      0.09794      5.39441
     0.95000      0.09281      5.27924      0.09838      5.40422
     0.96000      0.09321      5.28853      0.09882      5.41407
     0.97000      0.09362      5.29786      0.09927      5.42396
     0.98000      0.09403      5.30724      0.09971      5.43390
     0.99000      0.09444      5.31665      0.10017      5.44388
     1.00000      0.09486      5.32611      0.10062      5.45391
     1.01000      0.09528      5.33560      0.10108      5.46399
     1.02000      0.09570      5.34515      0.10154      5.47411
     1.03000      0.09612      5.35473      0.10200      5.48428
     1.04000      0.09655      5.36435      0.10247      5.49449
     1.05000      0.09698      5.37402      0.10294      5.50475
     1.06000      0.09741      5.38373      0.10342      5.51505
     1.07000      0.09785      5.39348      0.10389      5.52541
     1.08000      0.09829      5.40328      0.10437      5.53581
     1.09000      0.09873      5.41312      0.10486      5.54626
     1.10000      0.09918      5.42300      0.10534      5.55676
     1.11000      0.09962      5.43293      0.10583      5.56731
    1.120000     0.100073     5.442908     0.106327     5.577903
    1.130000     0.100527     5.452928     0.106825     5.588548
    1.140000     0.100984     5.462994     0.107326     5.599244
    1.150000     0.101444     5.473104     0.107830     5.609991
    1.160001     0.101907     5.483262     0.108338     5.620787
    1.170001     0.102374     5.493465     0.108850     5.631635
    1.180001     0.102843     5.503715     0.109365     5.642533
    1.190001     0.103316     5.514012     0.109884     5.653484
    1.200001     0.103792     5.524356     0.110406     5.664486
    1.210001     0.104272     5.534749     0.110933     5.675540
    1.220001     0.104755     5.545189     0.111463     5.686646
    1.230000     0.105241     5.555677     0.111997     5.697808
    1.240000     0.105730     5.566215     0.112535     5.709021
    1.250000     0.106223     5.576800     0.113077     5.720288
    1.260000     0.106720     5.587436     0.113622     5.731610
    1.270000     0.107220     5.598121     0.114172     5.742986
    1.280000     0.107723     5.608857     0.114726     5.754417
    1.290000     0.108230     5.619643     0.115283     5.765903
    1.300000     0.108741     5.630479     0.115845     5.777448
    1.310000     0.109255     5.641366     0.116411     5.789046
    1.320000     0.109773     5.652306     0.116981     5.800702
    1.330000     0.110295     5.663297     0.117555     5.812414
    1.340000     0.110820     5.674340     0.118134     5.824184
    1.350000     0.111349     5.685436     0.118717     5.836013
    1.360000     0.111882     5.696584     0.119304     5.847899
    1.370000     0.112419     5.707786     0.119896     5.859844
    1.380000     0.112960     5.719041     0.120492     5.871849
    1.390000     0.113504     5.730351     0.121092     5.883913
    1.400000     0.114053     5.741715     0.121697     5.896037
    1.410000     0.114606     5.753137     0.122306     5.908223
    1.420000     0.115162     5.764611     0.122921     5.920468
    1.430000     0.115723     5.776142     0.123539     5.932775
    1.440000     0.116288     5.787728     0.124163     5.945144
    1.450000     0.116857     5.799371     0.124791     5.957576
    1.460000     0.117430     5.811071     0.125424     5.970070
    1.470000     0.118007     5.822828     0.126062     5.982628
    1.480000     0.118589     5.834645     0.126705     5.995251
    1.490000     0.119175     5.846518     0.127352     6.007937
    1.500000     0.119766     5.858450     0.128005     6.020688
    1.510000     0.120360     5.870442     0.128663     6.033504
    1.520001     0.120960     5.882493     0.129326     6.046388
    1.530001     0.121563     5.894604     0.129994     6.059336
    1.540001     0.122172     5.906777     0.130667     6.072352
    1.550001     0.122785     5.919008     0.131346     6.085434
    1.560001     0.123402     5.931303     0.132029     6.098585
    1.570001     0.124024     5.943658     0.132718     6.111804
    1.580001     0.124651     5.956076     0.133413     6.125093
    1.590001     0.125283     5.968556     0.134113     6.138451
    1.600001     0.125920     5.981101     0.134819     6.151878
    1.610000     0.126561     5.993709     0.135530     6.165377
    1.620000     0.127208     6.006380     0.136247     6.178948
    1.630000     0.127859     6.019116     0.136969     6.192589
    1.640000     0.128515     6.031918     0.137698     6.206304
    1.650000     0.129177     6.044786     0.138432     6.220091
    1.660000     0.129844     6.057720     0.139172     6.233950
    1.670000     0.130515     6.070720     0.139918     6.247884
    1.680000     0.131192     6.083788     0.140670     6.261893
    1.690000     0.131875     6.096923     0.141429     6.275978
    1.700000     0.132563     6.110127     0.142193     6.290137
    1.710000     0.133256     6.123399     0.142964     6.304375
    1.720000     0.133954     6.136742     0.143741     6.318689
    1.730000     0.134658     6.150154     0.144524     6.333081
    1.740000     0.135368     6.163636     0.145314     6.347550
    1.750000     0.136083     6.177190     0.146110     6.362099
    1.760000     0.136805     6.190815     0.146913     6.376729
    1.770000     0.137531     6.204512     0.147722     6.391438
    1.780000     0.138264     6.218281     0.148538     6.406229
    1.790000     0.139003     6.232126     0.149362     6.421101
    1.800000     0.139747     6.246043     0.150191     6.436055
    1.810000     0.140498     6.260035     0.151028     6.451093
    1.820000     0.141254     6.274103     0.151872     6.466215
    1.830000     0.142017     6.288245     0.152723     6.481420
    1.840000     0.142786     6.302464     0.153582     6.496709
    1.850000     0.143561     6.316761     0.154447     6.512088
    1.860000     0.144343     6.331134     0.155320     6.527552
    1.870000     0.145131     6.345586     0.156200     6.543101
    1.880000     0.145925     6.360117     0.157088     6.558742
    1.890001     0.146727     6.374729     0.157984     6.574471
    1.900001     0.147534     6.389420     0.158887     6.590288
    1.910001     0.148349     6.404191     0.159798     6.606196
    1.920001     0.149170     6.419044     0.160717     6.622195
    1.930001     0.149998     6.433981     0.161644     6.638287
    1.940001     0.150833     6.448997     0.162579     6.654470
    1.950001     0.151675     6.464099     0.163522     6.670748
    1.960001     0.152524     6.479285     0.164473     6.687120
    1.970001     0.153381     6.494557     0.165433     6.703588
    1.980000     0.154244     6.509913     0.166401     6.720150
    1.990000     0.155115     6.525356     0.167378     6.736810
    2.000000     0.155994     6.540887     0.168363     6.753568
    2.010000     0.156880     6.556506     0.169357     6.770425
    2.020000     0.157773     6.572212     0.170360     6.787379
    2.030000     0.158674     6.588009     0.171372     6.804437
    2.040000     0.159583     6.603895     0.172393     6.821595
    2.050000     0.160500     6.619874     0.173423     6.838854
    2.060000     0.161425     6.635942     0.174463     6.856218
    2.070000     0.162358     6.652104     0.175512     6.873685
    2.080000     0.163298     6.668360     0.176570     6.891255
    2.090000     0.164248     6.684710     0.177638     6.908935
    2.100000     0.165205     6.701154     0.178716     6.926718
    2.110000     0.166171     6.717694     0.179804     6.944611
    2.120000     0.167146     6.734332     0.180902     6.962614
    2.130000     0.168129     6.751066     0.182010     6.980725
    2.140000     0.169121     6.767899     0.183128     6.998946
    2.150000     0.170121     6.784831     0.184256     7.017282
    2.160000     0.171131     6.801864     0.185395     7.035728
    2.170000     0.172149     6.818997     0.186545     7.054289
    2.180000     0.173177     6.836234     0.187705     7.072966
    2.190000     0.174214     6.853571     0.188877     7.091757
    2.200000     0.175261     6.871014     0.190059     7.110667
    2.210000     0.176317     6.888560     0.191252     7.129694
    2.220000     0.177383     6.906213     0.192457     7.148842
    2.230000     0.178458     6.923973     0.193673     7.168112
    2.240000     0.179543     6.941840     0.194901     7.187502
    2.250000     0.180638     6.959814     0.196141     7.207014
    2.260001     0.181744     6.977902     0.197393     7.226652
    2.270001     0.182859     6.996097     0.198656     7.246413
    2.280001     0.183985     7.014404     0.199932     7.266301
    2.290001     0.185121     7.032824     0.201221     7.286317
    2.300001     0.186268     7.051357     0.202521     7.306462
    2.310001     0.187426     7.070005     0.203835     7.326737
    2.320000     0.188594     7.088770     0.205161     7.347143
    2.330000     0.189774     7.107651     0.206501     7.367682
    2.340000     0.190964     7.126651     0.207853     7.388355
    2.350000     0.192166     7.145769     0.209219     7.409163
    2.360000     0.193380     7.165008     0.210599     7.430109
    2.370000     0.194605     7.184368     0.211992     7.451192
    2.380000     0.195841     7.203851     0.213400     7.472416
    2.390000     0.197090     7.223458     0.214821     7.493777
    2.400000     0.198350     7.243189     0.216257     7.515284
    2.410000     0.199623     7.263047     0.217707     7.536932
    2.420000     0.200908     7.283031     0.219172     7.558726
    2.430000     0.202206     7.303144     0.220652     7.580668
    2.440000     0.203516     7.323390     0.222147     7.602757
    2.450000     0.204840     7.343763     0.223657     7.624996
    2.460000     0.206176     7.364269     0.225182     7.647385
    2.470000     0.207525     7.384911     0.226724     7.669927
    2.480000     0.208888     7.405686     0.228281     7.692625
    2.490000     0.210264     7.426599     0.229855     7.715477
    2.500000     0.211654     7.447648     0.231445     7.738486
    2.510000     0.213058     7.468837     0.233052     7.761654
    2.520000     0.214476     7.490167     0.234675     7.784982
    2.530000     0.215908     7.511637     0.236316     7.808476
    2.540000     0.217354     7.533251     0.237974     7.832132
    2.550000     0.218816     7.555010     0.239649     7.855953
    2.560000     0.220292     7.576915     0.241342     7.879942
    2.570000     0.221783     7.598969     0.243054     7.904101
    2.580000     0.223290     7.621171     0.244784     7.928432
    2.590000     0.224812     7.643524     0.246532     7.952936
    2.600000     0.226349     7.666028     0.248299     7.977613
    2.610000     0.227903     7.688687     0.250086     8.002467
    2.620001     0.229473     7.711504     0.251892     8.027502
    2.630001     0.231059     7.734475     0.253717     8.052717
    2.640001     0.232661     7.757606     0.255563     8.078114
    2.650001     0.234281     7.780896     0.257429     8.103694
    2.660001     0.235917     7.804348     0.259316     8.129461
    2.670001     0.237571     7.827963     0.261223     8.155418
    2.680001     0.239242     7.851746     0.263152     8.181566
    2.690001     0.240932     7.875694     0.265102     8.207906
    2.700001     0.242639     7.899812     0.267074     8.234441
    2.710001     0.244364     7.924101     0.269068     8.261172
    2.720001     0.246108     7.948562     0.271085     8.288105
    2.730000     0.247871     7.973197     0.273125     8.315237
    2.740000     0.249653     7.998009     0.275188     8.342574
    2.750000     0.251455     8.022999     0.277274     8.370117
    2.760000     0.253276     8.048170     0.279385     8.397870
    2.770000     0.255117     8.073522     0.281519     8.425833
    2.780000     0.256978     8.099056     0.283679     8.454009
    2.790000     0.258860     8.124780     0.285863     8.482401
    2.800000     0.260763     8.150690     0.288073     8.511013
    2.810000     0.262686     8.176792     0.290309     8.539844
    2.820000     0.264632     8.203085     0.292571     8.568899
    2.830000     0.266599     8.229572     0.294859     8.598181
    2.840000     0.268588     8.256257     0.297175     8.627691
    2.850000     0.270600     8.283140     0.299518     8.657432
    2.860000     0.272635     8.310225     0.301890     8.687408
    2.870000     0.274693     8.337513     0.304290     8.717622
    2.880000     0.276774     8.365007     0.306718     8.748076
    2.890000     0.278879     8.392710     0.309176     8.778771
    2.900000     0.281009     8.420622     0.311664     8.809711
    2.910000     0.283163     8.448748     0.314182     8.840902
    2.920000     0.285342     8.477087     0.316731     8.872345
    2.930000     0.287546     8.505647     0.319311     8.904039
    2.940000     0.289776     8.534427     0.321923     8.935995
    2.950000     0.292033     8.563428     0.324567     8.968209
    2.960000     0.294316     8.592656     0.327244     9.000689
    2.970000     0.296626     8.622112     0.329955     9.033436
    2.980000     0.298964     8.651797     0.332700     9.066454
    2.990001     0.301329     8.681721     0.335479     9.099748
    3.000001     0.303723     8.711876     0.338293     9.133318
    3.010001     0.306146     8.742273     0.341144     9.167169
    3.020001     0.308598     8.772912     0.344030     9.201303
    3.030000     0.311080     8.803795     0.346954     9.235727
    3.040000     0.313592     8.834927     0.349915     9.270445
    3.050000     0.316134     8.866309     0.352914     9.305456
    3.060000     0.318709     8.897945     0.355952     9.340768
    3.070000     0.321314     8.929840     0.359030     9.376383
    3.080000     0.323952     8.961992     0.362149     9.412305
    3.090000     0.326623     8.994412     0.365308     9.448540
    3.100000     0.329327     9.027097     0.368509     9.485089
    3.110000     0.332066     9.060053     0.371753     9.521959
    3.120000     0.334838     9.093281     0.375040     9.559154
    3.130000     0.337646     9.126784     0.378371     9.596674
    3.140000     0.340490     9.160569     0.381746     9.634529
    3.150000     0.343370     9.194642     0.385168     9.672719
    3.160000     0.346286     9.228998     0.388636     9.711253
    3.170000     0.349241     9.263650     0.392151     9.750133
    3.180000     0.352233     9.298592     0.395714     9.789362
    3.190000     0.355265     9.333837     0.399327     9.828947
    3.200000     0.358336     9.369383     0.402989     9.868895
    3.210000     0.361447     9.405235     0.406702     9.909206
    3.220000     0.364599     9.441401     0.410468     9.949890
    3.230000     0.367793     9.477878     0.414286     9.990948
     3.24000      0.37103      9.51468      0.41816     10.03239
     3.25000      0.37431      9.55180      0.42208     10.07421
     3.26000      0.37763      9.58924      0.42607     10.11643
     3.27000      0.38100      9.62703      0.43011     10.15905
     3.28000      0.38442      9.66514      0.43420     10.20207
     3.29000      0.38788      9.70360      0.43836     10.24549
     3.30000      0.39138      9.74240      0.44258     10.28934
     3.31000      0.39494      9.78156      0.44686     10.33360
     3.32000      0.39854      9.82106      0.45120     10.37829
     3.33000      0.40220      9.86093      0.45560     10.42341
     3.34000      0.40591      9.90116      0.46008     10.46898
     3.35000      0.40966      9.94177      0.46461     10.51499
     3.36000      0.41347      9.98275      0.46922     10.56145
     3.37000      0.41734     10.02411      0.47389     10.60837
     3.38000      0.42126     10.06585      0.47864     10.65576
     3.39000      0.42523     10.10799      0.48346     10.70362
     3.40000      0.42926     10.15052      0.48835     10.75196
     3.41000      0.43335     10.19345      0.49331     10.80079
     3.42000      0.43750     10.23680      0.49836     10.85011
     3.43000      0.44171     10.28055      0.50348     10.89994
     3.44000      0.44598     10.32473      0.50868     10.95027
     3.45000      0.45032     10.36933      0.51396     11.00113
     3.46000      0.45472     10.41437      0.51932     11.05252
     3.47000      0.45918     10.45984      0.52478     11.10443
     3.48000      0.46371     10.50576      0.53031     11.15689
     3.49000      0.46831     10.55213      0.53594     11.20990
     3.50000      0.47297     10.59896      0.54166     11.26348
     3.51000      0.47771     10.64625      0.54747     11.31762
     3.52000      0.48252     10.69402      0.55337     11.37234
     3.53000      0.48741     10.74227      0.55937     11.42765
     3.54000      0.49236     10.79100      0.56547     11.48355
     3.55000      0.49740     10.84023      0.57167     11.54007
     3.56000      0.50251     10.88996      0.57797     11.59720
     3.57000      0.50771     10.94020      0.58438     11.65496
     3.58000      0.51298     10.99096      0.59090     11.71336
     3.59000      0.51834     11.04224      0.59753     11.77240
     3.60000      0.52379     11.09406      0.60427     11.83211
     3.61000      0.52932     11.14642      0.61113     11.89249
     3.62000      0.53494     11.19933      0.61810     11.95355
     3.63000      0.54065     11.25280      0.62520     12.01530
     3.64000      0.54645     11.30684      0.63242     12.07776
     3.65000      0.55235     11.36146      0.63976     12.14094
     3.66000      0.55834     11.41667      0.64724     12.20485
     3.67000      0.56444     11.47247      0.65485     12.26950
     3.68000      0.57063     11.52888      0.66259     12.33491
     3.69000      0.57693     11.58590      0.67048     12.40109
     3.70000      0.58334     11.64356      0.67850     12.46806
     3.71000      0.58985     11.70185      0.68668     12.53582
     3.72000      0.59647     11.76079      0.69500     12.60439
     3.73000      0.60321     11.82039      0.70347     12.67379
     3.74000      0.61006     11.88066      0.71211     12.74404
     3.75000      0.61704     11.94161      0.72090     12.81514
     3.76000      0.62413     12.00326      0.72986     12.88712
     3.77000      0.63135     12.06561      0.73899     12.95998
     3.78000      0.63869     12.12868      0.74829     13.03376
     3.79000      0.64617     12.19248      0.75777     13.10845
     3.80000      0.65377     12.25703      0.76744     13.18409
     3.81000      0.66152     12.32232      0.77729     13.26068
     3.82000      0.66940     12.38840      0.78733     13.33827
     3.83000      0.67743     12.45525      0.79757     13.41683
     3.84000      0.68561     12.52290      0.80802     13.49643
     3.85000      0.69393     12.59136      0.81867     13.57705
     3.86000      0.70241     12.66066      0.82954     13.65873
     3.87000      0.71105     12.73079      0.84062     13.74149
     3.88000      0.71985     12.80179      0.85194     13.82535
     3.89000      0.72882     12.87365      0.86348     13.91033
     3.90000      0.73795     12.94642      0.87526     13.99646
     3.91000      0.74727     13.02009      0.88729     14.08375
     3.92000      0.75676     13.09467      0.89957     14.17223
     3.93000      0.76643     13.17021      0.91210     14.26194
     3.94000      0.77629     13.24670      0.92491     14.35287
     3.95000      0.78635     13.32417      0.93799     14.44510
     3.96000      0.79661     13.40264      0.95134     14.53859
     3.97000      0.80707     13.48213      0.96500     14.63342
     3.98000      0.81774     13.56265      0.97894     14.72959
     3.99000      0.82863     13.64424      0.99320     14.82716
     4.00000      0.83974     13.72690      1.00777     14.92611
     4.01000      0.85107     13.81067      1.02267     15.02653
     4.02000      0.86264     13.89555      1.03790     15.12840
     4.03000      0.87446     13.98159      1.05349     15.23179
     4.04000      0.88651     14.06879      1.06942     15.33671
     4.05000      0.89883     14.15719      1.08573     15.44322
     4.06000      0.91140     14.24680      1.10241     15.55132
     4.07000      0.92424     14.33768      1.11949     15.66108
     4.08000      0.93736     14.42980      1.13697     15.77251
     4.09000      0.95077     14.52324      1.15486     15.88569
     4.10000      0.96447     14.61799      1.17319     16.00061
     4.11000      0.97847     14.71412      1.19196     16.11736
     4.12000      0.99278     14.81161      1.21119     16.23593
     4.13000      1.00742     14.91053      1.23089     16.35642
     4.14000      1.02238     15.01088      1.25108     16.47883
     4.15000      1.03768     15.11273      1.27178     16.60325
     4.16000      1.05334     15.21607      1.29300     16.72968
     4.17000      1.06936     15.32097      1.31477     16.85822
     4.18000      1.08575     15.42744      1.33709     16.98888
     4.19000      1.10252     15.53554      1.35999     17.12175
     4.20000      1.11970     15.64528      1.38349     17.25686
     4.21000      1.13728     15.75673      1.40761     17.39429
     4.22000      1.15529     15.86990      1.43238     17.53407
     4.23000      1.17374     15.98486      1.45781     17.67630
     4.24000      1.19263     16.10162      1.48393     17.82100
     4.25000      1.21200     16.22026      1.51077     17.96828
     4.26000      1.23185     16.34079      1.53835     18.11816
     4.27000      1.25220     16.46328      1.56670     18.27077
     4.28000      1.27306     16.58778      1.59586     18.42616
     4.29000      1.29446     16.71431      1.62584     18.58437
     4.30000      1.31641     16.84297      1.65668     18.74554
     4.31000      1.33893     16.97376      1.68842     18.90968
     4.32000      1.36205     17.10678      1.72109     19.07696
     4.33000      1.38578     17.24205      1.75473     19.24739
     4.34000      1.41015     17.37967      1.78938     19.42113
     4.35000      1.43517     17.51965      1.82507     19.59822
     4.36000      1.46088     17.66212      1.86186     19.77880
     4.37000      1.48730     17.80706      1.89978     19.96294
     4.38000      1.51445     17.95463      1.93889     20.15079
     4.39000      1.54237     18.10482      1.97922     20.34240
     4.40000      1.57108     18.25777      2.02085     20.53796
     4.41000      1.60062     18.41350      2.06382     20.73752
     4.42000      1.63101     18.57214      2.10819     20.94127
     4.43000      1.66229     18.73372      2.15402     21.14928
     4.44000      1.69450     18.89837      2.20139     21.36176
     4.45000      1.72766     19.06614      2.25034     21.57877
     4.46000      1.76184     19.23716      2.30098     21.80054
     4.47000      1.79705     19.41148      2.35335     22.02715
     4.48000      1.83336     19.58925      2.40757     22.25884
     4.49000      1.87079     19.77052      2.46369     22.49569
     4.50000      1.90941     19.95545      2.52184     22.73797
     4.51000      1.94926     20.14410      2.58208     22.98579
     4.52000      1.99040     20.33663      2.64454     23.23941
     4.53000      2.03287     20.53311      2.70931     23.49896
     4.54000      2.07676     20.73373      2.77653     23.76473
     4.55000      2.12210     20.93856      2.84631     24.03687
     4.56000      2.16899     21.14779      2.91879     24.31569
     4.57000      2.21747     21.36151      2.99410     24.60135
     4.58000      2.26764     21.57994      3.07241     24.89418
     4.59000      2.31956     21.80314      3.15385     25.19440
     4.60000      2.37333     22.03136      3.23864     25.50234
     4.61000      2.42903     22.26471      3.32691     25.81823
     4.62000      2.48677     22.50343      3.41890     26.14246
     4.63000      2.54663     22.74766      3.51481     26.47534
     4.64000      2.60873     22.99757      3.61484     26.81714
     4.65000      2.67319     23.25343      3.71928     27.16833
     4.66000      2.74011     23.51539      3.82834     27.52920
     4.67000      2.80965     23.78374      3.94235     27.90025
     4.68000      2.88192     24.05865      4.06156     28.28181
     4.69000      2.95710     24.34043      4.18636     28.67442
     4.70000      3.03532     24.62926      4.31703     29.07847
     4.71000      3.11677     24.92551      4.45402     29.49456
     4.72000      3.20162     25.22937      4.59768     29.92311
     4.73000      3.29008     25.54124      4.74851     30.36481
     4.74000      3.38233     25.86133      4.90695     30.82011
     4.75000      3.47864     26.19008      5.07356     31.28979
     4.76000      3.57922     26.52773      5.24886     31.77437
     4.77000      3.68435     26.87477      5.43353     32.27471
     4.78000      3.79429     27.23147      5.62819     32.79139
     4.79000      3.90937     27.59836      5.83364     33.32539
     4.80000      4.02990     27.97576      6.05062     33.87737
     4.81000      4.15626     28.36425      6.28008     34.44841
     4.82000      4.28879     28.76420      6.52291     35.03928
     4.83000      4.42797     29.17623      6.78028     35.65117
     4.84000      4.57420     29.60079      7.05325     36.28498
     4.85000      4.72803     30.03855      7.34321     36.94205
     4.86000      4.88994     30.49000      7.65150     37.62338
     4.87000      5.06058     30.95593      7.97979     38.33048
     4.88000      5.24054     31.43688      8.32971     39.06449
     4.89000      5.43057     31.93373      8.70334     39.82713
     4.90000      5.63140     32.44708      9.10271     40.61967
     4.91000      5.84394     32.97793      9.53034     41.44401
     4.92000      6.06904     33.52695      9.98881     42.30162
     4.93000      6.30783     34.09527     10.48126     43.19461
     4.94000      6.56136     34.68367     11.01091     44.12461
     4.95000      6.83097     35.29337     11.58174     45.09395
     4.96000      7.11797     35.92526     12.19784     46.10441
     4.97000      7.42401     36.58072     12.86424     47.15854
     4.98000      7.75072     37.26076     13.58621     48.25822
     4.99000      8.10012     37.96689     14.37020     49.40612
     5.00000      8.47434     38.70036     15.22314     50.60436
     5.01000      8.87572     39.46249     16.15293     51.85500
     5.02000      9.30710     40.25502     17.16907     53.16061
     5.03000      9.77141     41.07924     18.28173     54.52269
     5.04000     10.27224     41.93704     19.50335     55.94328
     5.05000     10.81332     42.82977     20.84734     57.42303
     5.06000     11.39925     43.75936     22.33006     58.96273
     5.07000     12.03488     44.72720     23.96930     60.56112
     5.08000     12.72610     45.73515     25.78662     62.21640
     5.09000     13.47922     46.78439     27.80557     63.92361
     5.10000     14.30192     47.87651     30.05444     65.67591
     5.11000     15.20243     49.01213     32.56405     67.46135
     5.12000     16.19079     50.19212     35.37091     69.26375
     5.13000     17.27781     51.41592     38.51410     71.05843
     5.14000     18.47658     52.68282     42.03871     72.81232
     5.15000     19.80123     53.98995     45.99089     74.47854
     5.16000     21.26866     55.33350     50.42071     75.99498
     5.17000     22.89701     56.70628     55.37365     77.27793
     5.18000     24.70757     58.09865     60.89089     78.21943
     5.19000     26.72255     59.49569     66.99420     78.68156
     5.20000     28.96701     60.87754     73.68035     78.49554
     5.21000     31.46539     62.21604     80.89630     77.46346
     5.22000     34.24278     63.47463     88.52711     75.36845
     5.23000     37.31900     64.60485     96.36638     71.99911
      5.2400      40.7082      65.5464     104.1128      67.1845
      5.2500      44.4091      66.2257     111.3663      60.8508
      5.2600      48.4019      66.5592     117.6740      53.0696
      5.2700      52.6359      66.4586     122.5934      44.1031
      5.2800      57.0274      65.8435     125.7951      34.3872
      5.2900      61.4533      64.6586     127.1433      24.4799
      5.3000      65.7655      62.8944     126.7409      14.9402
      5.3100      69.8071      60.6060     124.9009       6.2260
      5.3200      73.4527      57.9157     122.0642      -1.3985
      5.3300      76.6404      54.9994     118.6973      -7.8740
      5.3400      79.4008      52.0448     115.1974     -13.3265
      5.3500      81.8534      49.2060     111.8388     -17.9989
      5.3600      84.1835      46.5574     108.7443     -22.1884
      5.3700      86.5955      44.0743     105.8937     -26.1759
      5.3800      89.2676      41.6319     103.1495     -30.1726
      5.3900      92.3135      39.0229     100.3004     -34.2819
     5.40000     95.74979     35.98980     97.12470    -38.47738
     5.41000     99.48164     32.25858     93.44836    -42.62082
      5.4200     103.2897      27.5877      89.1970     -46.5002
      5.4300     106.8430      21.8151      84.4076     -49.8955
      5.4400     109.7268      14.9189      79.2160     -52.6301
      5.4500     111.5103       7.0503      73.8092     -54.6083
      5.4600     111.8299      -1.4509      68.3857     -55.8166
      5.4700     110.4785     -10.1103      63.1140     -56.3095
      5.4800     107.4588     -18.3970      58.1227     -56.1820
      5.4900     102.9771     -25.8398      53.4901     -55.5460
     5.50000     97.38909    -32.09939     49.25806    -54.51291
     5.51000     91.10803    -37.01182     45.43546    -53.18221
     5.52000     84.53302    -40.56708     42.01357    -51.63835
     5.53000     77.98949    -42.87243     38.96938    -49.94844
     5.54000     71.71774    -44.09752     36.27588    -48.16549
     5.55000     65.86787    -44.43555     33.90224    -46.32857
     5.56000     60.52353    -44.07306     31.81984    -44.46748
     5.57000     55.71342    -43.17524     30.00066    -42.60268
     5.58000     51.43547    -41.88028     28.42081    -40.74952
     5.59000     47.66442    -40.29825     27.05843    -38.91747
     5.60000     44.36714    -38.51553     25.89586    -37.11375
     5.61000     41.50426    -36.59673     24.91780    -35.34195
     5.62000     39.03868    -34.59097     24.11270    -33.60518
     5.63000     36.93411    -32.53320     23.47131    -31.90445
     5.64000     35.15970    -30.44964     22.98766    -30.24143
     5.65000     33.68786    -28.35791     22.65804    -28.61682
     5.66000     32.49676    -26.27149     22.48158    -27.03299
     5.67000     31.56841    -24.19881     22.45971    -25.49242
     5.68000     30.89008    -22.14717     22.59635    -24.00038
     5.69000     30.45300    -20.12122     22.89765    -22.56371
     5.70000     30.25303    -18.12660     23.37160    -21.19362
     5.71000     30.29002    -16.16826     24.02789    -19.90498
     5.72000     30.56792    -14.25408     24.87653    -18.71936
     5.73000     31.09473    -12.39339     25.92720    -17.66491
     5.74000     31.88199    -10.60051     27.18620    -16.77919
     5.75000     32.94435     -8.89531     28.65330    -16.10974
     5.76000     34.29944     -7.30435     30.31783    -15.71424
     5.77000     35.96516     -5.86495     32.15068    -15.65961
     5.78000     37.95916     -4.62573     34.09928    -16.01691
     5.79000     40.29287     -3.65102     36.07858    -16.85221
     5.80000     42.96853     -3.02140     37.97036    -18.21249
     5.81000     45.96814     -2.83558     39.62513    -20.10599
     5.82000     49.24637     -3.20742     40.88011    -22.48590
     5.83000     52.71457     -4.25834     41.58439    -25.23818
     5.84000     56.23354     -6.10277     41.63332    -28.19135
     5.85000     59.60336     -8.82238     40.99437    -31.13866
     5.86000     62.57447    -12.43711     39.71591    -33.87981
     5.87000     64.86916    -16.87074     37.91444    -36.25351
     5.88000     66.23062    -21.93796     35.74371    -38.16256
     5.89000     66.47601    -27.34875     33.36447    -39.57334
     5.90000     65.54429    -32.75714     30.91691    -40.50582
     5.91000     63.51250    -37.81839     28.51073    -41.01301
     5.92000     60.57315    -42.25803     26.21976    -41.16423
     5.93000     56.98763    -45.90373     24.08923    -41.03111
     5.94000     53.02729    -48.69648     22.13982    -40.67969
     5.95000     48.93482    -50.66566     20.37740    -40.16682
     5.96000     44.89640    -51.90105     18.79646    -39.53881
     5.97000     41.04230    -52.51945     17.38672    -38.83257
     5.98000     37.44859    -52.64330     16.13417    -38.07626
     5.99000     34.15383    -52.38573     15.02483    -37.29168
     6.00000     31.16636    -51.84410     14.04432    -36.49476
     6.01000     28.47864    -51.09834     13.17996    -35.69787
     6.02000     26.07107    -50.21138     12.41977    -34.90988
     6.03000     23.92061    -49.23217     11.75368    -34.13799
     6.04000     22.00106    -48.19717     11.17249    -33.38748
     6.05000     20.28795    -47.13406     10.66853    -32.66338
     6.06000     18.75710    -46.06248     10.23466    -31.96976
     6.07000     17.38749    -44.99710      9.86459    -31.31120
     6.08000     16.15936    -43.94773      9.55179    -30.69211
     6.09000     15.05605    -42.92167      9.28948    -30.11754
     6.10000     14.06222    -41.92321      9.06956    -29.59227
     6.11000     13.16496    -40.95541      8.88237    -29.12088
     6.12000     12.35302    -40.02010      8.71617    -28.70647
     6.13000     11.61621    -39.11775      8.55730    -28.34915
     6.14000     10.94614    -38.24873      8.39141    -28.04524
     6.15000     10.33505    -37.41247      8.20507    -27.78604
     6.16000      9.77655    -36.60860      7.98843    -27.55853
     6.17000      9.26463    -35.83602      7.73690    -27.34699
     6.18000      8.79432    -35.09398      7.45220    -27.13596
     6.19000      8.36088    -34.38110      7.14111    -26.91263
     6.20000      7.96036    -33.69635      6.81373    -26.66889
     6.21000      7.58903    -33.03812      6.48067    -26.40132
     6.22000      7.24384    -32.40517      6.15158    -26.11057
     6.23000      6.92201    -31.79578      5.83368    -25.79980
     6.24000      6.62138    -31.20866      5.53197    -25.47356
     6.25000      6.33998    -30.64223      5.24907    -25.13654
     6.26000      6.07633    -30.09544      4.98613    -24.79323
     6.27000      5.82900    -29.56703      4.74296    -24.44729
     6.28000      5.59688    -29.05625      4.51879    -24.10188
     6.29000      5.37880    -28.56210      4.31230    -23.75919
     6.30000      5.17381    -28.08402      4.12214    -23.42108
     6.31000      4.98089    -27.62116      3.94678    -23.08865
     6.32000      4.79921    -27.17304      3.78486    -22.76286
     6.33000      4.62788    -26.73890      3.63499    -22.44415
     6.34000      4.46618    -26.31828      3.49602    -22.13294
     6.35000      4.31336    -25.91049      3.36680    -21.82927
     6.36000      4.16879    -25.51511      3.24641    -21.53326
     6.37000      4.03185    -25.13149      3.13394    -21.24476
     6.38000      3.90203    -24.75924      3.02866    -20.96372
     6.39000      3.77879    -24.39777      2.92986    -20.68989
     6.40000      3.66171    -24.04672      2.83698    -20.42318
     6.41000      3.55033    -23.70557      2.74946    -20.16327
     6.42000      3.44430    -23.37398      2.66685    -19.91003
     6.43000      3.34326    -23.05147      2.58872    -19.66316
     6.44000      3.24689    -22.73775      2.51472    -19.42252
     6.45000      3.15489    -22.43240      2.44449    -19.18780
     6.46000      3.06699    -22.13509      2.37776    -18.95881
     6.47000      2.98295    -21.84557      2.31427    -18.73540
     6.48000      2.90251    -21.56343      2.25376    -18.51730
     6.49000      2.82550    -21.28849      2.19604    -18.30435
     6.50000      2.75168    -21.02037      2.14089    -18.09633
     6.51000      2.68090    -20.75890      2.08816    -17.89310
     6.52000      2.61296    -20.50375      2.03767    -17.69445
     6.53000      2.54773    -20.25476      1.98929    -17.50026
     6.54000      2.48504    -20.01163      1.94288    -17.31032
     6.55000      2.42478    -19.77423      1.89833    -17.12453
     6.56000      2.36679    -19.54227      1.85552    -16.94270
     6.57000      2.31098    -19.31564      1.81435    -16.76475
     6.58000      2.25722    -19.09408      1.77472    -16.59048
     6.59000      2.20543    -18.87748      1.73655    -16.41984
     6.60000      2.15548    -18.66561      1.69977    -16.25264
     6.61000      2.10730    -18.45838      1.66429    -16.08883
     6.62000      2.06080    -18.25556      1.63004    -15.92825
     6.63000      2.01591    -18.05707      1.59698    -15.77084
     6.64000      1.97253    -17.86271      1.56503    -15.61646
     6.65000      1.93062    -17.67241      1.53414    -15.46506
     6.66000      1.89009    -17.48599      1.50426    -15.31649
     6.67000      1.85089    -17.30336      1.47534    -15.17073
     6.68000      1.81294    -17.12437      1.44733    -15.02764
     6.69000      1.77622    -16.94895      1.42020    -14.88719
     6.70000      1.74065    -16.77695      1.39391    -14.74926
     6.71000      1.70619    -16.60830      1.36841    -14.61382
     6.72000      1.67279    -16.44287      1.34367    -14.48074
     6.73000      1.64041    -16.28060      1.31967    -14.35002
     6.74000      1.60900    -16.12136      1.29636    -14.22153
     6.75000      1.57853    -15.96510      1.27373    -14.09527
     6.76000      1.54895    -15.81170      1.25174    -13.97112
     6.77000      1.52024    -15.66111      1.23036    -13.84908
     6.78000      1.49235    -15.51322      1.20958    -13.72904
     6.79000      1.46526    -15.36799      1.18936    -13.61100
     6.80000      1.43892    -15.22531      1.16969    -13.49485
     6.81000      1.41333    -15.08515      1.15055    -13.38059
     6.82000      1.38844    -14.94740      1.13192    -13.26814
     6.83000      1.36423    -14.81201      1.11377    -13.15747
     6.84000      1.34068    -14.67894      1.09609    -13.04855
     6.85000      1.31776    -14.54811      1.07886    -12.94130
     6.86000      1.29545    -14.41948      1.06207    -12.83571
     6.87000      1.27372    -14.29296      1.04570    -12.73171
     6.88000      1.25257    -14.16853      1.02974    -12.62929
     6.89000      1.23195    -14.04611      1.01416    -12.52839
     6.90000      1.21187    -13.92568      0.99897    -12.42900
     6.91000      1.19229    -13.80715      0.98414    -12.33105
     6.92000      1.17320    -13.69051      0.96967    -12.23455
     6.93000      1.15459    -13.57569      0.95554    -12.13941
     6.94000      1.13643    -13.46267      0.94174    -12.04565
     6.95000      1.11872    -13.35137      0.92826    -11.95321
     6.96000      1.10144    -13.24180      0.91509    -11.86208
     6.97000      1.08457    -13.13387      0.90222    -11.77221
     6.98000      1.06811    -13.02757      0.88964    -11.68359
     6.99000      1.05203    -12.92285      0.87735    -11.59617
     7.00000      1.03634    -12.81969      0.86532    -11.50995
     7.01000      1.02100    -12.71802      0.85356    -11.42488
     7.02000      1.00602    -12.61785      0.84206    -11.34095
     7.03000      0.99138    -12.51911      0.83081    -11.25813
     7.04000      0.97707    -12.42180      0.81980    -11.17641
     7.05000      0.96309    -12.32585      0.80903    -11.09574
     7.06000      0.94941    -12.23127      0.79848    -11.01613
     7.07000      0.93604    -12.13799      0.78816    -10.93753
     7.08000      0.92297    -12.04603      0.77805    -10.85994
     7.09000      0.91017    -11.95531      0.76815    -10.78332
     7.10000      0.89766    -11.86584      0.75846    -10.70767
     7.11000      0.88541    -11.77758      0.74896    -10.63295
     7.12000      0.87343    -11.69051      0.73966    -10.55917
     7.13000      0.86170    -11.60459      0.73054    -10.48628
     7.14000      0.85022    -11.51982      0.72161    -10.41428
     7.15000      0.83898    -11.43615      0.71286    -10.34314
     7.16000      0.82797    -11.35358      0.70428    -10.27286
     7.17000      0.81718    -11.27207      0.69586    -10.20341
     7.18000      0.80662    -11.19162      0.68762    -10.13479
     7.19000      0.79628    -11.11218      0.67953    -10.06696
     7.20000      0.78614    -11.03375      0.67159     -9.99992
     7.21000      0.77621    -10.95631      0.66382     -9.93366
     7.22000      0.76647    -10.87983      0.65618     -9.86815
     7.23000      0.75693    -10.80431      0.64870     -9.80339
     7.24000      0.74757    -10.72970      0.64135     -9.73935
     7.25000      0.73840    -10.65602      0.63415     -9.67604
     7.26000      0.72941    -10.58321      0.62708     -9.61342
     7.27000      0.72059    -10.51130      0.62014     -9.55150
     7.28000      0.71194    -10.44023      0.61332     -9.49025
     7.29000      0.70346    -10.37001      0.60664     -9.42968
     7.30000      0.69514    -10.30062      0.60007     -9.36974
     7.31000      0.68697    -10.23204      0.59363     -9.31046
     7.32000      0.67896    -10.16424      0.58731     -9.25180
     7.33000      0.67110    -10.09725      0.58109     -9.19376
     7.34000      0.66339    -10.03100      0.57499     -9.13633
    7.350000     0.655819    -9.965523     0.569005    -9.079496
    7.360001     0.648387    -9.900768     0.563122    -9.023242
    7.370000     0.641092    -9.836752     0.557345    -8.967573
    7.380001     0.633930    -9.773439     0.551670    -8.912458
    7.390000     0.626899    -9.710834     0.546097    -8.857910
    7.400001     0.619994    -9.648907     0.540621    -8.803897
    7.410000     0.613214    -9.587664     0.535243    -8.750429
    7.420001     0.606555    -9.527076     0.529959    -8.697480
    7.430000     0.600016    -9.467147     0.524768    -8.645056
    7.440001     0.593592    -9.407849     0.519668    -8.593134
    7.450000     0.587284    -9.349185     0.514658    -8.541718
    7.460001     0.581085    -9.291135     0.509734    -8.490783
    7.470000     0.574996    -9.233697     0.504897    -8.440342
    7.480000     0.569014    -9.176847     0.500144    -8.390367
    7.490000     0.563136    -9.120590     0.495474    -8.340865
    7.500000     0.557360    -9.064900     0.490884    -8.291815
    7.510000     0.551685    -9.009786     0.486376    -8.243219
    7.520000     0.546107    -8.955218     0.481945    -8.195062
    7.529999     0.540626    -8.901205     0.477591    -8.147344
    7.540000     0.535239    -8.847720     0.473314    -8.100049
    7.549999     0.529945    -8.794773     0.469111    -8.053180
    7.560000     0.524741    -8.742336     0.464981    -8.006716
    7.570001     0.519626    -8.690409     0.460923    -7.960657
    7.580000     0.514599    -8.638991     0.456937    -7.915007
    7.590001     0.509657    -8.588061     0.453020    -7.869739
    7.600000     0.504799    -8.537622     0.449173    -7.824863
    7.610001     0.500024    -8.487651     0.445393    -7.780355
    7.620000     0.495330    -8.438156     0.441681    -7.736229
    7.630001     0.490715    -8.389114     0.438035    -7.692459
    7.640000     0.486179    -8.340535     0.434454    -7.649056
    7.650001     0.481719    -8.292392     0.430937    -7.605998
    7.660000     0.477335    -8.244695     0.427485    -7.563295
    7.670001     0.473025    -8.197420     0.424094    -7.520921
    7.680000     0.468789    -8.150577     0.420767    -7.478889
    7.690001     0.464624    -8.104142     0.417500    -7.437177
    7.700000     0.460531    -8.058125     0.414295    -7.395793
    7.710001     0.456507    -8.012502     0.411150    -7.354718
    7.720000     0.452552    -7.967279     0.408064    -7.313963
    7.730000     0.448664    -7.922440     0.405038    -7.273501
    7.740000     0.444844    -7.877990     0.402070    -7.233346
    7.750000     0.441089    -7.833911     0.399161    -7.193476
    7.760000     0.437399    -7.790207     0.396309    -7.153899
    7.770000     0.433773    -7.746860     0.393515    -7.114596
    7.780000     0.430211    -7.703874     0.390778    -7.075576
    7.790000     0.426710    -7.661232     0.388098    -7.036821
    7.800000     0.423272    -7.618942     0.385475    -6.998336
    7.810000     0.419894    -7.576982     0.382908    -6.960103
    7.820000     0.416578    -7.535366     0.380398    -6.922131
    7.830000     0.413320    -7.494066     0.377943    -6.884400
    7.840000     0.410122    -7.453096     0.375545    -6.846916
    7.850000     0.406983    -7.412434     0.373203    -6.809665
    7.860000     0.403902    -7.372088     0.370918    -6.772653
    7.870000     0.400878    -7.332038     0.368688    -6.735859
    7.880000     0.397911    -7.292294     0.366515    -6.699293
    7.890000     0.395001    -7.252834     0.364399    -6.662935
    7.900000     0.392148    -7.213669     0.362340    -6.626795
    7.910000     0.389351    -7.174779     0.360338    -6.590852
    7.920000     0.386610    -7.136172     0.358394    -6.555114
    7.930000     0.383924    -7.097830     0.356508    -6.519564
    7.940001     0.381294    -7.059750     0.354681    -6.484201
    7.950000     0.378719    -7.021939     0.352914    -6.449027
    7.960001     0.376199    -6.984376     0.351207    -6.414022
    7.970000     0.373735    -6.947068     0.349561    -6.379194
    7.980001     0.371326    -6.909998     0.347977    -6.344523
    7.990000     0.368973    -6.873172     0.346456    -6.310020
    8.000001     0.366674    -6.836576     0.344998    -6.275664
    8.010000     0.364432    -6.800210     0.343607    -6.241461
    8.020000     0.362245    -6.764061     0.342282    -6.207392
    8.030000     0.360114    -6.728137     0.341025    -6.173466
    8.040001     0.358040    -6.692420     0.339838    -6.139660
    8.050000     0.356024    -6.656913     0.338723    -6.105982
    8.060000     0.354064    -6.621601     0.337681    -6.072413
    8.070000     0.352164    -6.586492     0.336716    -6.038961
    8.080001     0.350322    -6.551565     0.335829    -6.005603
    8.090000     0.348540    -6.516830     0.335023    -5.972346
    8.100000     0.346819    -6.482266     0.334300    -5.939169
    8.110000     0.345160    -6.447882     0.333665    -5.906079
    8.120001     0.343563    -6.413660     0.333120    -5.873056
    8.130000     0.342031    -6.379604     0.332669    -5.840103
    8.140000     0.340565    -6.345700     0.332317    -5.807200
    8.150000     0.339167    -6.311950     0.332068    -5.774352
    8.160001     0.337837    -6.278338     0.331927    -5.741537
    8.170000     0.336580    -6.244870     0.331901    -5.708759
    8.180000     0.335395    -6.211527     0.331994    -5.675998
    8.190000     0.334287    -6.178312     0.332214    -5.643252
    8.200001     0.333257    -6.145212     0.332568    -5.610507
    8.210000     0.332310    -6.112229     0.333066    -5.577760
    8.220000     0.331448    -6.079346     0.333717    -5.544991
    8.230000     0.330675    -6.046566     0.334530    -5.512202
    8.240001     0.329996    -6.013873     0.335519    -5.479371
    8.249999     0.329415    -5.981269     0.336696    -5.446501
    8.260000     0.328937    -5.948738     0.338076    -5.413569
    8.270000     0.328570    -5.916284     0.339675    -5.380578
    8.280001     0.328318    -5.883887     0.341513    -5.347511
    8.290001     0.328190    -5.851552     0.343610    -5.314366
    8.300000     0.328194    -5.819274     0.345988    -5.281143
    8.310001     0.328338    -5.787039     0.348673    -5.247829
    8.320000     0.328633    -5.754855     0.351691    -5.214441
    8.330001     0.329089    -5.722707     0.355072    -5.180971
    8.340000     0.329715    -5.690606     0.358842    -5.147445
    8.350001     0.330524    -5.658544     0.363030    -5.113879
    8.360000     0.331523    -5.626537     0.367656    -5.080310
    8.370001     0.332721    -5.594584     0.372735    -5.046777
    8.380000     0.334119    -5.562703     0.378263    -5.013338
    8.390000     0.335713    -5.530903     0.384215    -4.980041
    8.400000     0.337491    -5.499207     0.390533    -4.946954
    8.410001     0.339427    -5.467618     0.397127    -4.914105
    8.420000     0.341485    -5.436145     0.403868    -4.881511
    8.430000     0.343619    -5.404762     0.410611    -4.849103
    8.440000     0.345779    -5.373445     0.417212    -4.816765
    8.450001     0.347926    -5.342115     0.423571    -4.784286
    8.460000     0.350042    -5.310700     0.429662    -4.751425
    8.470000     0.352138    -5.279094     0.435554    -4.717909
    8.480000     0.354258    -5.247215     0.441403    -4.683514
    8.490001     0.356469    -5.214977     0.447430    -4.648054
    8.500000     0.358853    -5.182342     0.453874    -4.611441
    8.510000     0.361493    -5.149269     0.460978    -4.573627
    8.520000     0.364466    -5.115757     0.468952    -4.534625
    8.530001     0.367838    -5.081793     0.477986    -4.494450
    8.540000     0.371667    -5.047389     0.488240    -4.453145
    8.550000     0.376005    -5.012531     0.499861    -4.410724
    8.559999     0.380896    -4.977228     0.512988    -4.367220
    8.570001     0.386388    -4.941456     0.527769    -4.322614
    8.580000     0.392526    -4.905211     0.544357    -4.276918
    8.590000     0.399366    -4.868461     0.562933    -4.230097
    8.599999     0.406962    -4.831192     0.583693    -4.182143
    8.610001     0.415382    -4.793358     0.606876    -4.133015
    8.620000     0.424700    -4.754940     0.632747    -4.082705
    8.630000     0.435004    -4.715891     0.661630    -4.031184
    8.639999     0.446390    -4.676180     0.693880    -3.978466
    8.650001     0.458974    -4.635758     0.729936    -3.924553
    8.660001     0.472885    -4.594584     0.770284    -3.869512
    8.670000     0.488269    -4.552630     0.815489    -3.813452
    8.680001     0.505304    -4.509838     0.866224    -3.756523
    8.690001     0.524180    -4.466190     0.923231    -3.699003
    8.700001     0.545131    -4.421639     0.987394    -3.641254
    8.710000     0.568411    -4.376180     1.059671    -3.583842
    8.720001     0.594331    -4.329793     1.141181    -3.527519
    8.730000     0.623229    -4.282502     1.233097    -3.473365
    8.740001     0.655517    -4.234338     1.336723    -3.422810
    8.750000     0.691646    -4.185397     1.453315    -3.377812
    8.760001     0.732160    -4.135794     1.584108    -3.340916
    8.770000     0.777656    -4.085756     1.729984    -3.315446
    8.780001     0.828844    -4.035573     1.891372    -3.305572
    8.790000     0.886493    -3.985702     2.067658    -3.316379
    8.800001     0.951498    -3.936749     2.256874    -3.353765
    8.809999     1.024797    -3.889584     2.454841    -3.424059
    8.820001     1.107430    -3.845358     2.654826    -3.533330
    8.830000     1.200395    -3.805647     2.846941    -3.686089
    8.840000     1.304669    -3.772495     3.018664    -3.883834
    8.849999     1.420939    -3.748576     3.155829    -4.123239
    8.860001     1.549522    -3.737230     3.245072    -4.395388
    8.870000     1.689887    -3.742532     3.276546    -4.685837
    8.880000     1.840408    -3.769189     3.246507    -4.976980
    8.889999     1.997683    -3.822233     3.158306    -5.250927
    8.900001     2.156257    -3.906455     3.021437    -5.493132
    8.910000     2.308168    -4.025354     2.849214    -5.694189
    8.920000     2.443392    -4.179981     2.655729    -5.850573
    8.929999     2.550653    -4.367498     2.453755    -5.963452
    8.940001     2.619418    -4.580620     2.253230    -6.037271
    8.950000     2.642046    -4.807706     2.061187    -6.078002
    8.960000     2.615807    -5.034708     1.881823    -6.092007
    8.969999     2.543615    -5.247478     1.717325    -6.085219
    8.980000     2.433192    -5.434625     1.568271    -6.062765
    8.990000     2.295191    -5.588885     1.434367    -6.028892
    9.000000     2.140790    -5.707650     1.314667    -5.986945
    9.009999     1.980056    -5.791994     1.208020    -5.939537
    9.020000     1.820771    -5.845527     1.113101    -5.888634
    9.030001     1.668396    -5.873029     1.028646    -5.835715
    9.040000     1.526248    -5.879540     0.953458    -5.781870
    9.050001     1.395910    -5.869750     0.886406    -5.727870
    9.060000     1.277881    -5.847714     0.826520    -5.674290
    9.070001     1.171827    -5.816751     0.772902    -5.621503
    9.080000     1.077049    -5.779511     0.724799    -5.569792
    9.090001     0.992565    -5.738027     0.681523    -5.519310
    9.100000     0.917377    -5.693857     0.642503    -5.470175
    9.110001     0.850444    -5.648143     0.607218    -5.422426
    9.120000     0.790831    -5.601748     0.575238    -5.376100
    9.130001     0.737645    -5.555274     0.546170    -5.331170
    9.140000     0.690118    -5.509170     0.519692    -5.287629
    9.150001     0.647542    -5.463726     0.495504    -5.245423
    9.160000     0.609322    -5.419163     0.473363    -5.204525
    9.170001     0.574915    -5.375599     0.453041    -5.164871
    9.180000     0.543870    -5.333131     0.434353    -5.126421
    9.190001     0.515776    -5.291783     0.417123    -5.089110
    9.200000     0.490294    -5.251584     0.401209    -5.052896
    9.210001     0.467114    -5.212512     0.386475    -5.017717
    9.219999     0.445980    -5.174562     0.372811    -4.983534
    9.230000     0.426658    -5.137691     0.360109    -4.950285
    9.240000     0.408954    -5.101874     0.348285    -4.917937
    9.250001     0.392689    -5.067062     0.337255    -4.886433
    9.259999     0.377716    -5.033223     0.326949    -4.855744
    9.270000     0.363898    -5.000304     0.317301    -4.825818
    9.280000     0.351120    -4.968275     0.308258    -4.796625
    9.290000     0.339278    -4.937082     0.299764    -4.768123
    9.299999     0.328282    -4.906698     0.291778    -4.740287
    9.310000     0.318049    -4.877072     0.284255    -4.713078
    9.320000     0.308511    -4.848176     0.277161    -4.686471
    9.330000     0.299601    -4.819969     0.270460    -4.660435
    9.339999     0.291266    -4.792422     0.264123    -4.634947
    9.350000     0.283453    -4.765496     0.258122    -4.609976
    9.360000     0.276120    -4.739172     0.252432    -4.585508
    9.370000     0.269223    -4.713412     0.247030    -4.561511
    9.379999     0.262728    -4.688196     0.241896    -4.537974
    9.390000     0.256601    -4.663494     0.237011    -4.514868
    9.400001     0.250814    -4.639282     0.232357    -4.492181
    9.410000     0.245341    -4.615546     0.227920    -4.469899
    9.420001     0.240155    -4.592254     0.223684    -4.447996
    9.430000     0.235238    -4.569395     0.219636    -4.426466
    9.440001     0.230567    -4.546944     0.215764    -4.405287
    9.450000     0.226127    -4.524889     0.212058    -4.384449
    9.460001     0.221899    -4.503209     0.208506    -4.363940
    9.470000     0.217870    -4.481893     0.205099    -4.343748
    9.480000     0.214025    -4.460920     0.201828    -4.323857
    9.490000     0.210352    -4.440284     0.198686    -4.304262
    9.500001     0.206840    -4.419964     0.195664    -4.284949
    9.510000     0.203478    -4.399956     0.192757    -4.265911
    9.520000     0.200257    -4.380241     0.189956    -4.247132
    9.530000     0.197168    -4.360813     0.187257    -4.228611
    9.540001     0.194202    -4.341658     0.184653    -4.210336
    9.550000     0.191352    -4.322773     0.182140    -4.192299
    9.560000     0.188611    -4.304139     0.179713    -4.174492
    9.570000     0.185973    -4.285755     0.177367    -4.156910
    9.580001     0.183432    -4.267606     0.175098    -4.139544
    9.590000     0.180982    -4.249692     0.172902    -4.122389
    9.600000     0.178618    -4.231999     0.170775    -4.105435
    9.610000     0.176335    -4.214526     0.168715    -4.088682
    9.620001     0.174129    -4.197258     0.166717    -4.072117
    9.630000     0.171996    -4.180197     0.164779    -4.055745
    9.640000     0.169932    -4.163329     0.162897    -4.039548
    9.650000     0.167933    -4.146656     0.161070    -4.023530
    9.660001     0.165996    -4.130166     0.159294    -4.007683
    9.669999     0.164119    -4.113857     0.157568    -3.992006
    9.680000     0.162297    -4.097722     0.155889    -3.976489
    9.690000     0.160528    -4.081758     0.154255    -3.961133
    9.700001     0.158810    -4.065959     0.152664    -3.945929
    9.709999     0.157140    -4.050324     0.151115    -3.930878
    9.720000     0.155517    -4.034843     0.149604    -3.915974
    9.730000     0.153937    -4.019518     0.148132    -3.901213
    9.740000     0.152399    -4.004340     0.146696    -3.886591
    9.750001     0.150901    -3.989306     0.145295    -3.872106
    9.760000     0.149442    -3.974419     0.143927    -3.857757
    9.770001     0.148019    -3.959667     0.142591    -3.843536
    9.780000     0.146631    -3.945053     0.141286    -3.829445
    9.790001     0.145277    -3.930568     0.140010    -3.815479
    9.800000     0.143955    -3.916213     0.138763    -3.801636
    9.810000     0.142664    -3.901986     0.137543    -3.787911
    9.820000     0.141403    -3.887881     0.136350    -3.774304
    9.830001     0.140170    -3.873895     0.135182    -3.760811
    9.840000     0.138964    -3.860031     0.134039    -3.747433
    9.850000     0.137785    -3.846280     0.132919    -3.734162
    9.860000     0.136630    -3.832644     0.131822    -3.721001
    9.870001     0.135501    -3.819118     0.130747    -3.707945
    9.880000     0.134394    -3.805702     0.129693    -3.694994
    9.890000     0.133310    -3.792389     0.128660    -3.682144
    9.900000     0.132248    -3.779186     0.127647    -3.669395
    9.910001     0.131207    -3.766080     0.126652    -3.656744
    9.920000     0.130186    -3.753080     0.125676    -3.644189
    9.930000     0.129185    -3.740176     0.124718    -3.631728
    9.940000     0.128202    -3.727370     0.123778    -3.619362
    9.950001     0.127238    -3.714657     0.122854    -3.607086
    9.960000     0.126291    -3.702040     0.121946    -3.594900
    9.970000     0.125361    -3.689514     0.121054    -3.582802
    9.980000     0.124448    -3.677078     0.120178    -3.570793
    9.990001     0.123551    -3.664730     0.119316    -3.558865
    10.00000      0.12267     -3.65247      0.11847     -3.54702
# 
# 04/08/2018 at 00:57 YAMBO @ narro [start]
# 04/08/2018 at 00:57               [end]
#  
# Timing   [Min/Max/Average]: 09s/09s/09s
#
# .-Input file : yambo.in
# | optics                         # [R OPT] Optics
# | bse                            # [R BSE] Bethe Salpeter Equation.
# | bsk                            # [R BSK] Bethe Salpeter Equation kernel
# | bss                            # [R BSS] Bethe Salpeter Equation solver
# | BoseTemp= 0.000000     eV      # Bosonic Temperature
# | FFTGvecs=  3473        RL      # [FFT] Plane-waves
# | BSEmod= "resonant"             # [BSE] resonant/retarded/coupling
# | BSKmod= "Hartree"              # [BSE] IP/Hartree/HF/ALDA/SEX/BSfxc
# | BSSmod= "d"                    # [BSS] (h)aydock/(d)iagonalization/(i)nversion/(t)ddft`
# | BSENGexx=  63          RL      # [BSK] Exchange components
# | % BEnRange
# | -10.00000 | 10.00000 | eV      # [BSS] Energy range
# | %
# | % BDmRange
# |   0.10000 |  0.10000 | eV      # [BSS] Damping range
# | %
# | BEnSteps= 2001                 # [BSS] Energy steps
# | % BLongDir
# | 0.1000E-4 | 0.000    | 0.000    |        # [BSS] [cc] Electric Field
# | %
# | % BSEQptR
# |   1 |  4 |                     # [BSK] Transferred momenta range
# | %
# | % BSEBands
# |   3 | 10 |                     # [BSK] Bands range
# | %
