#                                                           
#  ____  ____     _       ____    ____  ______      ___     
# |_  _||_  _|   / \     |_   \  /   _||_   _ \   ."   `.   
#   \ \  / /    / _ \      |   \/   |    | |_) | /  .-.  \  
#    \ \/ /    / ___ \     | |\  /| |    |  __". | |   | |  
#    _|  |_  _/ /   \ \_  _| |_\/_| |_  _| |__) |\  `-"  /  
#   |______||____| |____||_____||_____||_______/  `.___."   
#                                                           
#                                                           
#                                                           
#        Version 4.3.0 Revision 15338 Hash 3cdf17c          
#                      MPI+SLK Build                        
#                http://www.yambo-code.org                  
#
# Absorption @ Q(2) [iku] : 0.500000  0.250000  0.000000
#
#
# - Energies      are Teter 93(XC)
# - Wavefunctions are Teter 93(XC)
#
# - The Green`s function is Resonant -
#
#   BSK|Identifier              :7789
#      |Dimension               :96
#      |Bands                   :3 - 10
#      |Exchange           [res]: yes
#      |Correlation        [res]: yes
#      |Kernel`s coupling       : no
#      |Exchange           [cpl]: no
#      |Correlation        [cpl]: no
#      |W interaction is bare   : no
#      |ALDA kernel in R-space  : no
#      |RL vectors    [exchange]:51
#      |RL vectors [correlation]:51
#      |E/h energy range    [ev]:-1.000000 - -1.000000
#      |Coupling range     [o/o]: 100.0000 -  100.0000
#    W |Interaction is diagonal : no
#      |Matrix size             :51
#      |Bands                   :1 - 60
#      |e/h energy range    [ev]:-1.000000 - -1.000000
#      |Poles              [o/o]: 100.0000
#      |RL vectors in the sum   :3473
#      |[r,Vnl] included        : yes
#      |Field direction         :0.1000E-4  0.000000  0.000000
#      |Coulomb Cutoff          :none
#      |xc-Kernel               :none
#   RIM|RL components      [col]:0
#      |Random points      [col]:0
#
#    E/ev[1]      EPS-Im[2]    EPS-Re[3]    EPSo-Im[4]   EPSo-Re[5]
#
   -10.00       0.9180E-3     1.139       0.7494E-3     1.126   
   -9.990       0.9193E-3     1.139       0.7503E-3     1.126   
   -9.980       0.9205E-3     1.139       0.7512E-3     1.126   
   -9.970       0.9218E-3     1.139       0.7522E-3     1.126   
   -9.960       0.9230E-3     1.139       0.7531E-3     1.126   
   -9.950       0.9243E-3     1.139       0.7540E-3     1.127   
   -9.940       0.9255E-3     1.139       0.7549E-3     1.127   
   -9.930       0.9268E-3     1.140       0.7558E-3     1.127   
   -9.920       0.9281E-3     1.140       0.7567E-3     1.127   
   -9.910       0.9293E-3     1.140       0.7576E-3     1.127   
   -9.900       0.9306E-3     1.140       0.7586E-3     1.127   
   -9.890       0.9319E-3     1.140       0.7595E-3     1.127   
   -9.880       0.9331E-3     1.140       0.7604E-3     1.127   
   -9.870       0.9344E-3     1.140       0.7613E-3     1.127   
   -9.860       0.9357E-3     1.140       0.7623E-3     1.127   
   -9.850       0.9370E-3     1.140       0.7632E-3     1.127   
   -9.840       0.9382E-3     1.140       0.7641E-3     1.127   
   -9.830       0.9395E-3     1.140       0.7650E-3     1.127   
   -9.820       0.9408E-3     1.141       0.7660E-3     1.128   
   -9.810       0.9421E-3     1.141       0.7669E-3     1.128   
   -9.800       0.9434E-3     1.141       0.7679E-3     1.128   
   -9.790       0.9447E-3     1.141       0.7688E-3     1.128   
   -9.780       0.9460E-3     1.141       0.7697E-3     1.128   
   -9.770       0.9473E-3     1.141       0.7707E-3     1.128   
   -9.760       0.9486E-3     1.141       0.7716E-3     1.128   
   -9.750       0.9499E-3     1.141       0.7726E-3     1.128   
   -9.740       0.9512E-3     1.141       0.7735E-3     1.128   
   -9.730       0.9525E-3     1.141       0.7745E-3     1.128   
   -9.720       0.9538E-3     1.142       0.7754E-3     1.128   
   -9.710       0.9552E-3     1.142       0.7764E-3     1.128   
   -9.700       0.9565E-3     1.142       0.7773E-3     1.128   
   -9.690       0.9578E-3     1.142       0.7783E-3     1.129   
   -9.680       0.9591E-3     1.142       0.7792E-3     1.129   
   -9.670       0.9605E-3     1.142       0.7802E-3     1.129   
   -9.660       0.9618E-3     1.142       0.7812E-3     1.129   
   -9.650       0.9631E-3     1.142       0.7821E-3     1.129   
   -9.640       0.9645E-3     1.142       0.7831E-3     1.129   
   -9.630       0.9658E-3     1.142       0.7840E-3     1.129   
   -9.620       0.9671E-3     1.142       0.7850E-3     1.129   
   -9.610       0.9685E-3     1.143       0.7860E-3     1.129   
   -9.600       0.9698E-3     1.143       0.7870E-3     1.129   
   -9.590       0.9712E-3     1.143       0.7879E-3     1.129   
   -9.580       0.9725E-3     1.143       0.7889E-3     1.129   
   -9.570       0.9739E-3     1.143       0.7899E-3     1.129   
   -9.560       0.9753E-3     1.143       0.7909E-3     1.130   
   -9.550       0.9766E-3     1.143       0.7919E-3     1.130   
   -9.540       0.9780E-3     1.143       0.7928E-3     1.130   
   -9.530       0.9794E-3     1.143       0.7938E-3     1.130   
   -9.520       0.9807E-3     1.143       0.7948E-3     1.130   
   -9.510       0.9821E-3     1.144       0.7958E-3     1.130   
   -9.500       0.9835E-3     1.144       0.7968E-3     1.130   
   -9.490       0.9849E-3     1.144       0.7978E-3     1.130   
   -9.480       0.9862E-3     1.144       0.7988E-3     1.130   
   -9.470       0.9876E-3     1.144       0.7998E-3     1.130   
   -9.460       0.9890E-3     1.144       0.8008E-3     1.130   
   -9.450       0.9904E-3     1.144       0.8018E-3     1.130   
   -9.440       0.9918E-3     1.144       0.8028E-3     1.131   
   -9.430       0.9932E-3     1.144       0.8038E-3     1.131   
   -9.420       0.9946E-3     1.144       0.8048E-3     1.131   
   -9.410       0.9960E-3     1.145       0.8058E-3     1.131   
   -9.400       0.9974E-3     1.145       0.8068E-3     1.131   
   -9.390       0.9988E-3     1.145       0.8078E-3     1.131   
   -9.380       0.1000E-2     1.145       0.8088E-3     1.131   
   -9.370       0.1002E-2     1.145       0.8098E-3     1.131   
   -9.360       0.1003E-2     1.145       0.8109E-3     1.131   
   -9.350       0.1005E-2     1.145       0.8119E-3     1.131   
   -9.340       0.1006E-2     1.145       0.8129E-3     1.131   
   -9.330       0.1007E-2     1.145       0.8139E-3     1.131   
   -9.320       0.1009E-2     1.145       0.8150E-3     1.131   
   -9.310       0.1010E-2     1.146       0.8160E-3     1.132   
   -9.300       0.1012E-2     1.146       0.8170E-3     1.132   
   -9.290       0.1013E-2     1.146       0.8180E-3     1.132   
   -9.280       0.1015E-2     1.146       0.8191E-3     1.132   
   -9.270       0.1016E-2     1.146       0.8201E-3     1.132   
   -9.260       0.1017E-2     1.146       0.8212E-3     1.132   
   -9.250       0.1019E-2     1.146       0.8222E-3     1.132   
   -9.240       0.1020E-2     1.146       0.8232E-3     1.132   
   -9.230       0.1022E-2     1.146       0.8243E-3     1.132   
   -9.220       0.1023E-2     1.146       0.8253E-3     1.132   
   -9.210       0.1025E-2     1.147       0.8264E-3     1.132   
   -9.200       0.1026E-2     1.147       0.8274E-3     1.132   
   -9.190       0.1028E-2     1.147       0.8285E-3     1.133   
   -9.180       0.1029E-2     1.147       0.8295E-3     1.133   
   -9.170       0.1031E-2     1.147       0.8306E-3     1.133   
   -9.160       0.1032E-2     1.147       0.8316E-3     1.133   
   -9.150       0.1034E-2     1.147       0.8327E-3     1.133   
   -9.140       0.1035E-2     1.147       0.8338E-3     1.133   
   -9.130       0.1037E-2     1.147       0.8348E-3     1.133   
   -9.120       0.1038E-2     1.147       0.8359E-3     1.133   
   -9.110       0.1040E-2     1.148       0.8370E-3     1.133   
   -9.100       0.1041E-2     1.148       0.8380E-3     1.133   
   -9.090       0.1043E-2     1.148       0.8391E-3     1.133   
   -9.080       0.1044E-2     1.148       0.8402E-3     1.133   
   -9.070       0.1046E-2     1.148       0.8413E-3     1.134   
   -9.060       0.1047E-2     1.148       0.8423E-3     1.134   
   -9.050       0.1049E-2     1.148       0.8434E-3     1.134   
   -9.040       0.1050E-2     1.148       0.8445E-3     1.134   
   -9.030       0.1052E-2     1.148       0.8456E-3     1.134   
   -9.020       0.1053E-2     1.149       0.8467E-3     1.134   
   -9.010       0.1055E-2     1.149       0.8478E-3     1.134   
   -9.000       0.1056E-2     1.149       0.8488E-3     1.134   
   -8.990       0.1058E-2     1.149       0.8499E-3     1.134   
   -8.980       0.1059E-2     1.149       0.8510E-3     1.134   
   -8.970       0.1061E-2     1.149       0.8521E-3     1.134   
   -8.960       0.1062E-2     1.149       0.8532E-3     1.134   
   -8.950       0.1064E-2     1.149       0.8543E-3     1.135   
   -8.940       0.1066E-2     1.149       0.8554E-3     1.135   
   -8.930       0.1067E-2     1.149       0.8565E-3     1.135   
   -8.920       0.1069E-2     1.150       0.8577E-3     1.135   
   -8.910       0.1070E-2     1.150       0.8588E-3     1.135   
   -8.900       0.1072E-2     1.150       0.8599E-3     1.135   
   -8.890       0.1073E-2     1.150       0.8610E-3     1.135   
   -8.880       0.1075E-2     1.150       0.8621E-3     1.135   
   -8.870       0.1077E-2     1.150       0.8632E-3     1.135   
   -8.860       0.1078E-2     1.150       0.8644E-3     1.135   
   -8.850       0.1080E-2     1.150       0.8655E-3     1.135   
   -8.840       0.1081E-2     1.150       0.8666E-3     1.136   
   -8.830       0.1083E-2     1.151       0.8677E-3     1.136   
   -8.820       0.1085E-2     1.151       0.8689E-3     1.136   
   -8.810       0.1086E-2     1.151       0.8700E-3     1.136   
   -8.800       0.1088E-2     1.151       0.8711E-3     1.136   
   -8.790       0.1089E-2     1.151       0.8723E-3     1.136   
   -8.780       0.1091E-2     1.151       0.8734E-3     1.136   
   -8.770       0.1093E-2     1.151       0.8745E-3     1.136   
   -8.760       0.1094E-2     1.151       0.8757E-3     1.136   
   -8.750       0.1096E-2     1.151       0.8768E-3     1.136   
   -8.740       0.1097E-2     1.152       0.8780E-3     1.136   
   -8.730       0.1099E-2     1.152       0.8791E-3     1.136   
   -8.720       0.1101E-2     1.152       0.8803E-3     1.137   
   -8.710       0.1102E-2     1.152       0.8814E-3     1.137   
   -8.700       0.1104E-2     1.152       0.8826E-3     1.137   
   -8.690       0.1106E-2     1.152       0.8838E-3     1.137   
   -8.680       0.1107E-2     1.152       0.8849E-3     1.137   
   -8.670       0.1109E-2     1.152       0.8861E-3     1.137   
   -8.660       0.1111E-2     1.152       0.8873E-3     1.137   
   -8.650       0.1112E-2     1.153       0.8884E-3     1.137   
   -8.640       0.1114E-2     1.153       0.8896E-3     1.137   
   -8.630       0.1116E-2     1.153       0.8908E-3     1.137   
   -8.620       0.1117E-2     1.153       0.8920E-3     1.137   
   -8.610       0.1119E-2     1.153       0.8931E-3     1.138   
   -8.600       0.1121E-2     1.153       0.8943E-3     1.138   
   -8.590       0.1122E-2     1.153       0.8955E-3     1.138   
   -8.580       0.1124E-2     1.153       0.8967E-3     1.138   
   -8.570       0.1126E-2     1.153       0.8979E-3     1.138   
   -8.560       0.1127E-2     1.154       0.8991E-3     1.138   
   -8.550       0.1129E-2     1.154       0.9003E-3     1.138   
   -8.540       0.1131E-2     1.154       0.9015E-3     1.138   
   -8.530       0.1133E-2     1.154       0.9027E-3     1.138   
   -8.520       0.1134E-2     1.154       0.9039E-3     1.138   
   -8.510       0.1136E-2     1.154       0.9051E-3     1.138   
   -8.500       0.1138E-2     1.154       0.9063E-3     1.139   
   -8.490       0.1139E-2     1.154       0.9075E-3     1.139   
   -8.480       0.1141E-2     1.154       0.9087E-3     1.139   
   -8.470       0.1143E-2     1.155       0.9099E-3     1.139   
   -8.460       0.1145E-2     1.155       0.9111E-3     1.139   
   -8.450       0.1146E-2     1.155       0.9123E-3     1.139   
   -8.440       0.1148E-2     1.155       0.9135E-3     1.139   
   -8.430       0.1150E-2     1.155       0.9148E-3     1.139   
   -8.420       0.1152E-2     1.155       0.9160E-3     1.139   
   -8.410       0.1153E-2     1.155       0.9172E-3     1.139   
   -8.400       0.1155E-2     1.155       0.9185E-3     1.139   
   -8.390       0.1157E-2     1.155       0.9197E-3     1.140   
   -8.380       0.1159E-2     1.156       0.9209E-3     1.140   
   -8.370       0.1160E-2     1.156       0.9222E-3     1.140   
   -8.360       0.1162E-2     1.156       0.9234E-3     1.140   
   -8.350       0.1164E-2     1.156       0.9246E-3     1.140   
   -8.340       0.1166E-2     1.156       0.9259E-3     1.140   
   -8.330       0.1168E-2     1.156       0.9271E-3     1.140   
   -8.320       0.1169E-2     1.156       0.9284E-3     1.140   
   -8.310       0.1171E-2     1.156       0.9296E-3     1.140   
   -8.300       0.1173E-2     1.157       0.9309E-3     1.140   
   -8.290       0.1175E-2     1.157       0.9322E-3     1.140   
   -8.280       0.1177E-2     1.157       0.9334E-3     1.141   
   -8.270       0.1178E-2     1.157       0.9347E-3     1.141   
   -8.260       0.1180E-2     1.157       0.9360E-3     1.141   
   -8.250       0.1182E-2     1.157       0.9372E-3     1.141   
   -8.240       0.1184E-2     1.157       0.9385E-3     1.141   
   -8.230       0.1186E-2     1.157       0.9398E-3     1.141   
   -8.220       0.1188E-2     1.157       0.9410E-3     1.141   
   -8.210       0.1189E-2     1.158       0.9423E-3     1.141   
   -8.200       0.1191E-2     1.158       0.9436E-3     1.141   
   -8.190       0.1193E-2     1.158       0.9449E-3     1.141   
   -8.180       0.1195E-2     1.158       0.9462E-3     1.142   
   -8.170       0.1197E-2     1.158       0.9475E-3     1.142   
   -8.160       0.1199E-2     1.158       0.9488E-3     1.142   
   -8.150       0.1201E-2     1.158       0.9501E-3     1.142   
   -8.140       0.1202E-2     1.158       0.9514E-3     1.142   
   -8.130       0.1204E-2     1.159       0.9527E-3     1.142   
   -8.120       0.1206E-2     1.159       0.9540E-3     1.142   
   -8.110       0.1208E-2     1.159       0.9553E-3     1.142   
   -8.100       0.1210E-2     1.159       0.9566E-3     1.142   
   -8.090       0.1212E-2     1.159       0.9579E-3     1.142   
   -8.080       0.1214E-2     1.159       0.9592E-3     1.142   
   -8.070       0.1216E-2     1.159       0.9605E-3     1.143   
   -8.060       0.1218E-2     1.159       0.9618E-3     1.143   
   -8.050       0.1220E-2     1.160       0.9632E-3     1.143   
   -8.040       0.1221E-2     1.160       0.9645E-3     1.143   
   -8.030       0.1223E-2     1.160       0.9658E-3     1.143   
   -8.020       0.1225E-2     1.160       0.9671E-3     1.143   
   -8.010       0.1227E-2     1.160       0.9685E-3     1.143   
   -8.000       0.1229E-2     1.160       0.9698E-3     1.143   
   -7.990       0.1231E-2     1.160       0.9712E-3     1.143   
   -7.980       0.1233E-2     1.160       0.9725E-3     1.143   
   -7.970       0.1235E-2     1.160       0.9738E-3     1.144   
   -7.960       0.1237E-2     1.161       0.9752E-3     1.144   
   -7.950       0.1239E-2     1.161       0.9765E-3     1.144   
   -7.940       0.1241E-2     1.161       0.9779E-3     1.144   
   -7.930       0.1243E-2     1.161       0.9793E-3     1.144   
   -7.920       0.1245E-2     1.161       0.9806E-3     1.144   
   -7.910       0.1247E-2     1.161       0.9820E-3     1.144   
   -7.900       0.1249E-2     1.161       0.9833E-3     1.144   
   -7.890       0.1251E-2     1.161       0.9847E-3     1.144   
   -7.880       0.1253E-2     1.162       0.9861E-3     1.144   
   -7.870       0.1255E-2     1.162       0.9875E-3     1.145   
   -7.860       0.1257E-2     1.162       0.9888E-3     1.145   
   -7.850       0.1259E-2     1.162       0.9902E-3     1.145   
   -7.840       0.1261E-2     1.162       0.9916E-3     1.145   
   -7.830       0.1263E-2     1.162       0.9930E-3     1.145   
   -7.820       0.1265E-2     1.162       0.9944E-3     1.145   
   -7.810       0.1267E-2     1.162       0.9958E-3     1.145   
   -7.800       0.1269E-2     1.163       0.9972E-3     1.145   
   -7.790       0.1271E-2     1.163       0.9986E-3     1.145   
   -7.780       0.1273E-2     1.163       0.1000E-2     1.145   
   -7.770       0.1275E-2     1.163       0.1001E-2     1.145   
   -7.760       0.1277E-2     1.163       0.1003E-2     1.146   
   -7.750       0.1279E-2     1.163       0.1004E-2     1.146   
   -7.740       0.1281E-2     1.163       0.1006E-2     1.146   
   -7.730       0.1283E-2     1.164       0.1007E-2     1.146   
   -7.720       0.1285E-2     1.164       0.1008E-2     1.146   
   -7.710       0.1287E-2     1.164       0.1010E-2     1.146   
   -7.700       0.1290E-2     1.164       0.1011E-2     1.146   
   -7.690       0.1292E-2     1.164       0.1013E-2     1.146   
   -7.680       0.1294E-2     1.164       0.1014E-2     1.146   
   -7.670       0.1296E-2     1.164       0.1016E-2     1.147   
   -7.660       0.1298E-2     1.164       0.1017E-2     1.147   
   -7.650       0.1300E-2     1.165       0.1018E-2     1.147   
   -7.640       0.1302E-2     1.165       0.1020E-2     1.147   
   -7.630       0.1304E-2     1.165       0.1021E-2     1.147   
   -7.620       0.1306E-2     1.165       0.1023E-2     1.147   
   -7.610       0.1309E-2     1.165       0.1024E-2     1.147   
   -7.600       0.1311E-2     1.165       0.1026E-2     1.147   
   -7.590       0.1313E-2     1.165       0.1027E-2     1.147   
   -7.580       0.1315E-2     1.165       0.1029E-2     1.147   
   -7.570       0.1317E-2     1.166       0.1030E-2     1.148   
   -7.560       0.1319E-2     1.166       0.1032E-2     1.148   
   -7.550       0.1321E-2     1.166       0.1033E-2     1.148   
   -7.540       0.1324E-2     1.166       0.1034E-2     1.148   
   -7.530       0.1326E-2     1.166       0.1036E-2     1.148   
   -7.520       0.1328E-2     1.166       0.1037E-2     1.148   
   -7.510       0.1330E-2     1.166       0.1039E-2     1.148   
   -7.500       0.1332E-2     1.167       0.1040E-2     1.148   
   -7.490       0.1335E-2     1.167       0.1042E-2     1.148   
   -7.480       0.1337E-2     1.167       0.1043E-2     1.148   
   -7.470       0.1339E-2     1.167       0.1045E-2     1.149   
   -7.460       0.1341E-2     1.167       0.1046E-2     1.149   
   -7.450       0.1343E-2     1.167       0.1048E-2     1.149   
   -7.440       0.1346E-2     1.167       0.1049E-2     1.149   
   -7.430       0.1348E-2     1.167       0.1051E-2     1.149   
   -7.420       0.1350E-2     1.168       0.1052E-2     1.149   
   -7.410       0.1352E-2     1.168       0.1054E-2     1.149   
   -7.400       0.1355E-2     1.168       0.1055E-2     1.149   
   -7.390       0.1357E-2     1.168       0.1057E-2     1.149   
   -7.380       0.1359E-2     1.168       0.1059E-2     1.150   
   -7.370       0.1361E-2     1.168       0.1060E-2     1.150   
   -7.360       0.1364E-2     1.168       0.1062E-2     1.150   
   -7.350       0.1366E-2     1.169       0.1063E-2     1.150   
   -7.340       0.1368E-2     1.169       0.1065E-2     1.150   
   -7.330       0.1371E-2     1.169       0.1066E-2     1.150   
   -7.320       0.1373E-2     1.169       0.1068E-2     1.150   
   -7.310       0.1375E-2     1.169       0.1069E-2     1.150   
   -7.300       0.1377E-2     1.169       0.1071E-2     1.150   
   -7.290       0.1380E-2     1.169       0.1072E-2     1.150   
   -7.280       0.1382E-2     1.170       0.1074E-2     1.151   
   -7.270       0.1384E-2     1.170       0.1076E-2     1.151   
   -7.260       0.1387E-2     1.170       0.1077E-2     1.151   
   -7.250       0.1389E-2     1.170       0.1079E-2     1.151   
   -7.240       0.1391E-2     1.170       0.1080E-2     1.151   
   -7.230       0.1394E-2     1.170       0.1082E-2     1.151   
   -7.220       0.1396E-2     1.170       0.1083E-2     1.151   
   -7.210       0.1398E-2     1.170       0.1085E-2     1.151   
   -7.200       0.1401E-2     1.171       0.1087E-2     1.151   
   -7.190       0.1403E-2     1.171       0.1088E-2     1.152   
   -7.180       0.1406E-2     1.171       0.1090E-2     1.152   
   -7.170       0.1408E-2     1.171       0.1091E-2     1.152   
   -7.160       0.1410E-2     1.171       0.1093E-2     1.152   
   -7.150       0.1413E-2     1.171       0.1095E-2     1.152   
   -7.140       0.1415E-2     1.171       0.1096E-2     1.152   
   -7.130       0.1418E-2     1.172       0.1098E-2     1.152   
   -7.120       0.1420E-2     1.172       0.1099E-2     1.152   
   -7.110       0.1422E-2     1.172       0.1101E-2     1.152   
   -7.100       0.1425E-2     1.172       0.1103E-2     1.153   
   -7.090       0.1427E-2     1.172       0.1104E-2     1.153   
   -7.080       0.1430E-2     1.172       0.1106E-2     1.153   
   -7.070       0.1432E-2     1.172       0.1108E-2     1.153   
   -7.060       0.1435E-2     1.173       0.1109E-2     1.153   
   -7.050       0.1437E-2     1.173       0.1111E-2     1.153   
   -7.040       0.1440E-2     1.173       0.1113E-2     1.153   
   -7.030       0.1442E-2     1.173       0.1114E-2     1.153   
   -7.020       0.1445E-2     1.173       0.1116E-2     1.153   
   -7.010       0.1447E-2     1.173       0.1118E-2     1.154   
   -7.000       0.1449E-2     1.173       0.1119E-2     1.154   
   -6.990       0.1452E-2     1.174       0.1121E-2     1.154   
   -6.980       0.1455E-2     1.174       0.1123E-2     1.154   
   -6.970       0.1457E-2     1.174       0.1124E-2     1.154   
   -6.960       0.1460E-2     1.174       0.1126E-2     1.154   
   -6.950       0.1462E-2     1.174       0.1128E-2     1.154   
   -6.940       0.1465E-2     1.174       0.1129E-2     1.154   
   -6.930       0.1467E-2     1.174       0.1131E-2     1.154   
   -6.920       0.1470E-2     1.175       0.1133E-2     1.155   
   -6.910       0.1472E-2     1.175       0.1134E-2     1.155   
   -6.900       0.1475E-2     1.175       0.1136E-2     1.155   
   -6.890       0.1477E-2     1.175       0.1138E-2     1.155   
   -6.880       0.1480E-2     1.175       0.1139E-2     1.155   
   -6.870       0.1483E-2     1.175       0.1141E-2     1.155   
   -6.860       0.1485E-2     1.176       0.1143E-2     1.155   
   -6.850       0.1488E-2     1.176       0.1145E-2     1.155   
   -6.840       0.1490E-2     1.176       0.1146E-2     1.155   
   -6.830       0.1493E-2     1.176       0.1148E-2     1.156   
   -6.820       0.1496E-2     1.176       0.1150E-2     1.156   
   -6.810       0.1498E-2     1.176       0.1152E-2     1.156   
   -6.800       0.1501E-2     1.176       0.1153E-2     1.156   
   -6.790       0.1503E-2     1.177       0.1155E-2     1.156   
   -6.780       0.1506E-2     1.177       0.1157E-2     1.156   
   -6.770       0.1509E-2     1.177       0.1159E-2     1.156   
   -6.760       0.1511E-2     1.177       0.1160E-2     1.156   
   -6.750       0.1514E-2     1.177       0.1162E-2     1.156   
   -6.740       0.1517E-2     1.177       0.1164E-2     1.157   
   -6.730       0.1519E-2     1.177       0.1166E-2     1.157   
   -6.720       0.1522E-2     1.178       0.1167E-2     1.157   
   -6.710       0.1525E-2     1.178       0.1169E-2     1.157   
   -6.700       0.1528E-2     1.178       0.1171E-2     1.157   
   -6.690       0.1530E-2     1.178       0.1173E-2     1.157   
   -6.680       0.1533E-2     1.178       0.1174E-2     1.157   
   -6.670       0.1536E-2     1.178       0.1176E-2     1.157   
   -6.660       0.1538E-2     1.179       0.1178E-2     1.158   
   -6.650       0.1541E-2     1.179       0.1180E-2     1.158   
   -6.640       0.1544E-2     1.179       0.1182E-2     1.158   
   -6.630       0.1547E-2     1.179       0.1184E-2     1.158   
   -6.620       0.1549E-2     1.179       0.1185E-2     1.158   
   -6.610       0.1552E-2     1.179       0.1187E-2     1.158   
   -6.600       0.1555E-2     1.179       0.1189E-2     1.158   
   -6.590       0.1558E-2     1.180       0.1191E-2     1.158   
   -6.580       0.1561E-2     1.180       0.1193E-2     1.158   
   -6.570       0.1563E-2     1.180       0.1194E-2     1.159   
   -6.560       0.1566E-2     1.180       0.1196E-2     1.159   
   -6.550       0.1569E-2     1.180       0.1198E-2     1.159   
   -6.540       0.1572E-2     1.180       0.1200E-2     1.159   
   -6.530       0.1575E-2     1.181       0.1202E-2     1.159   
   -6.520       0.1577E-2     1.181       0.1204E-2     1.159   
   -6.510       0.1580E-2     1.181       0.1206E-2     1.159   
   -6.500       0.1583E-2     1.181       0.1207E-2     1.159   
   -6.490       0.1586E-2     1.181       0.1209E-2     1.160   
   -6.480       0.1589E-2     1.181       0.1211E-2     1.160   
   -6.470       0.1592E-2     1.182       0.1213E-2     1.160   
   -6.460       0.1595E-2     1.182       0.1215E-2     1.160   
   -6.450       0.1598E-2     1.182       0.1217E-2     1.160   
   -6.440       0.1600E-2     1.182       0.1219E-2     1.160   
   -6.430       0.1603E-2     1.182       0.1221E-2     1.160   
   -6.420       0.1606E-2     1.182       0.1223E-2     1.160   
   -6.410       0.1609E-2     1.182       0.1224E-2     1.161   
   -6.400       0.1612E-2     1.183       0.1226E-2     1.161   
   -6.390       0.1615E-2     1.183       0.1228E-2     1.161   
   -6.380       0.1618E-2     1.183       0.1230E-2     1.161   
   -6.370       0.1621E-2     1.183       0.1232E-2     1.161   
   -6.360       0.1624E-2     1.183       0.1234E-2     1.161   
   -6.350       0.1627E-2     1.183       0.1236E-2     1.161   
   -6.340       0.1630E-2     1.184       0.1238E-2     1.161   
   -6.330       0.1633E-2     1.184       0.1240E-2     1.162   
   -6.320       0.1636E-2     1.184       0.1242E-2     1.162   
   -6.310       0.1639E-2     1.184       0.1244E-2     1.162   
   -6.300       0.1642E-2     1.184       0.1246E-2     1.162   
   -6.290       0.1645E-2     1.184       0.1248E-2     1.162   
   -6.280       0.1648E-2     1.185       0.1250E-2     1.162   
   -6.270       0.1651E-2     1.185       0.1252E-2     1.162   
   -6.260       0.1654E-2     1.185       0.1254E-2     1.162   
   -6.250       0.1657E-2     1.185       0.1256E-2     1.163   
   -6.240       0.1660E-2     1.185       0.1258E-2     1.163   
   -6.230       0.1663E-2     1.185       0.1260E-2     1.163   
   -6.220       0.1667E-2     1.186       0.1262E-2     1.163   
   -6.210       0.1670E-2     1.186       0.1264E-2     1.163   
   -6.200       0.1673E-2     1.186       0.1266E-2     1.163   
   -6.190       0.1676E-2     1.186       0.1268E-2     1.163   
   -6.180       0.1679E-2     1.186       0.1270E-2     1.163   
   -6.170       0.1682E-2     1.186       0.1272E-2     1.164   
   -6.160       0.1685E-2     1.187       0.1274E-2     1.164   
   -6.150       0.1688E-2     1.187       0.1276E-2     1.164   
   -6.140       0.1692E-2     1.187       0.1278E-2     1.164   
   -6.130       0.1695E-2     1.187       0.1280E-2     1.164   
   -6.120       0.1698E-2     1.187       0.1282E-2     1.164   
   -6.110       0.1701E-2     1.187       0.1284E-2     1.164   
   -6.100       0.1704E-2     1.188       0.1286E-2     1.164   
   -6.090       0.1708E-2     1.188       0.1288E-2     1.165   
   -6.080       0.1711E-2     1.188       0.1290E-2     1.165   
   -6.070       0.1714E-2     1.188       0.1292E-2     1.165   
   -6.060       0.1717E-2     1.188       0.1294E-2     1.165   
   -6.050       0.1720E-2     1.188       0.1296E-2     1.165   
   -6.040       0.1724E-2     1.189       0.1298E-2     1.165   
   -6.030       0.1727E-2     1.189       0.1300E-2     1.165   
   -6.020       0.1730E-2     1.189       0.1303E-2     1.165   
   -6.010       0.1734E-2     1.189       0.1305E-2     1.166   
   -6.000       0.1737E-2     1.189       0.1307E-2     1.166   
   -5.990       0.1740E-2     1.190       0.1309E-2     1.166   
   -5.980       0.1743E-2     1.190       0.1311E-2     1.166   
   -5.970       0.1747E-2     1.190       0.1313E-2     1.166   
   -5.960       0.1750E-2     1.190       0.1315E-2     1.166   
   -5.950       0.1753E-2     1.190       0.1317E-2     1.166   
   -5.940       0.1757E-2     1.190       0.1320E-2     1.167   
   -5.930       0.1760E-2     1.191       0.1322E-2     1.167   
   -5.920       0.1764E-2     1.191       0.1324E-2     1.167   
   -5.910       0.1767E-2     1.191       0.1326E-2     1.167   
   -5.900       0.1770E-2     1.191       0.1328E-2     1.167   
   -5.890       0.1774E-2     1.191       0.1330E-2     1.167   
   -5.880       0.1777E-2     1.191       0.1333E-2     1.167   
   -5.870       0.1781E-2     1.192       0.1335E-2     1.167   
   -5.860       0.1784E-2     1.192       0.1337E-2     1.168   
   -5.850       0.1787E-2     1.192       0.1339E-2     1.168   
   -5.840       0.1791E-2     1.192       0.1341E-2     1.168   
   -5.830       0.1794E-2     1.192       0.1343E-2     1.168   
   -5.820       0.1798E-2     1.193       0.1346E-2     1.168   
   -5.810       0.1801E-2     1.193       0.1348E-2     1.168   
   -5.800       0.1805E-2     1.193       0.1350E-2     1.168   
   -5.790       0.1808E-2     1.193       0.1352E-2     1.169   
   -5.780       0.1812E-2     1.193       0.1355E-2     1.169   
   -5.770       0.1815E-2     1.193       0.1357E-2     1.169   
   -5.760       0.1819E-2     1.194       0.1359E-2     1.169   
   -5.750       0.1822E-2     1.194       0.1361E-2     1.169   
   -5.740       0.1826E-2     1.194       0.1363E-2     1.169   
   -5.730       0.1830E-2     1.194       0.1366E-2     1.169   
   -5.720       0.1833E-2     1.194       0.1368E-2     1.169   
   -5.710       0.1837E-2     1.195       0.1370E-2     1.170   
   -5.700       0.1840E-2     1.195       0.1373E-2     1.170   
   -5.690       0.1844E-2     1.195       0.1375E-2     1.170   
   -5.680       0.1848E-2     1.195       0.1377E-2     1.170   
   -5.670       0.1851E-2     1.195       0.1379E-2     1.170   
   -5.660       0.1855E-2     1.195       0.1382E-2     1.170   
   -5.650       0.1858E-2     1.196       0.1384E-2     1.170   
   -5.640       0.1862E-2     1.196       0.1386E-2     1.171   
   -5.630       0.1866E-2     1.196       0.1389E-2     1.171   
   -5.620       0.1869E-2     1.196       0.1391E-2     1.171   
   -5.610       0.1873E-2     1.196       0.1393E-2     1.171   
   -5.600       0.1877E-2     1.197       0.1396E-2     1.171   
   -5.590       0.1881E-2     1.197       0.1398E-2     1.171   
   -5.580       0.1884E-2     1.197       0.1400E-2     1.171   
   -5.570       0.1888E-2     1.197       0.1403E-2     1.172   
   -5.560       0.1892E-2     1.197       0.1405E-2     1.172   
   -5.550       0.1896E-2     1.197       0.1407E-2     1.172   
   -5.540       0.1899E-2     1.198       0.1410E-2     1.172   
   -5.530       0.1903E-2     1.198       0.1412E-2     1.172   
   -5.520       0.1907E-2     1.198       0.1414E-2     1.172   
   -5.510       0.1911E-2     1.198       0.1417E-2     1.172   
   -5.500       0.1915E-2     1.198       0.1419E-2     1.173   
   -5.490       0.1918E-2     1.199       0.1422E-2     1.173   
   -5.480       0.1922E-2     1.199       0.1424E-2     1.173   
   -5.470       0.1926E-2     1.199       0.1426E-2     1.173   
   -5.460       0.1930E-2     1.199       0.1429E-2     1.173   
   -5.450       0.1934E-2     1.199       0.1431E-2     1.173   
   -5.440       0.1938E-2     1.200       0.1434E-2     1.173   
   -5.430       0.1942E-2     1.200       0.1436E-2     1.174   
   -5.420       0.1946E-2     1.200       0.1439E-2     1.174   
   -5.410       0.1950E-2     1.200       0.1441E-2     1.174   
   -5.400       0.1954E-2     1.200       0.1444E-2     1.174   
   -5.390       0.1957E-2     1.201       0.1446E-2     1.174   
   -5.380       0.1961E-2     1.201       0.1448E-2     1.174   
   -5.370       0.1965E-2     1.201       0.1451E-2     1.174   
   -5.360       0.1969E-2     1.201       0.1453E-2     1.175   
   -5.350       0.1973E-2     1.201       0.1456E-2     1.175   
   -5.340       0.1977E-2     1.202       0.1458E-2     1.175   
   -5.330       0.1982E-2     1.202       0.1461E-2     1.175   
   -5.320       0.1986E-2     1.202       0.1463E-2     1.175   
   -5.310       0.1990E-2     1.202       0.1466E-2     1.175   
   -5.300       0.1994E-2     1.202       0.1468E-2     1.175   
   -5.290       0.1998E-2     1.203       0.1471E-2     1.176   
   -5.280       0.2002E-2     1.203       0.1473E-2     1.176   
   -5.270       0.2006E-2     1.203       0.1476E-2     1.176   
   -5.260       0.2010E-2     1.203       0.1479E-2     1.176   
   -5.250       0.2014E-2     1.203       0.1481E-2     1.176   
   -5.240       0.2018E-2     1.204       0.1484E-2     1.176   
   -5.230       0.2023E-2     1.204       0.1486E-2     1.176   
   -5.220       0.2027E-2     1.204       0.1489E-2     1.177   
   -5.210       0.2031E-2     1.204       0.1491E-2     1.177   
   -5.200       0.2035E-2     1.204       0.1494E-2     1.177   
   -5.190       0.2039E-2     1.205       0.1497E-2     1.177   
   -5.180       0.2044E-2     1.205       0.1499E-2     1.177   
   -5.170       0.2048E-2     1.205       0.1502E-2     1.177   
   -5.160       0.2052E-2     1.205       0.1504E-2     1.178   
   -5.150       0.2056E-2     1.205       0.1507E-2     1.178   
   -5.140       0.2061E-2     1.206       0.1510E-2     1.178   
   -5.130       0.2065E-2     1.206       0.1512E-2     1.178   
   -5.120       0.2069E-2     1.206       0.1515E-2     1.178   
   -5.110       0.2074E-2     1.206       0.1518E-2     1.178   
   -5.100       0.2078E-2     1.206       0.1520E-2     1.178   
   -5.090       0.2082E-2     1.207       0.1523E-2     1.179   
   -5.080       0.2087E-2     1.207       0.1526E-2     1.179   
   -5.070       0.2091E-2     1.207       0.1528E-2     1.179   
   -5.060       0.2095E-2     1.207       0.1531E-2     1.179   
   -5.050       0.2100E-2     1.207       0.1534E-2     1.179   
   -5.040       0.2104E-2     1.208       0.1536E-2     1.179   
   -5.030       0.2109E-2     1.208       0.1539E-2     1.179   
   -5.020       0.2113E-2     1.208       0.1542E-2     1.180   
   -5.010       0.2118E-2     1.208       0.1545E-2     1.180   
   -5.000       0.2122E-2     1.209       0.1547E-2     1.180   
   -4.990       0.2127E-2     1.209       0.1550E-2     1.180   
   -4.980       0.2131E-2     1.209       0.1553E-2     1.180   
   -4.970       0.2136E-2     1.209       0.1555E-2     1.180   
   -4.960       0.2140E-2     1.209       0.1558E-2     1.181   
   -4.950       0.2145E-2     1.210       0.1561E-2     1.181   
   -4.940       0.2149E-2     1.210       0.1564E-2     1.181   
   -4.930       0.2154E-2     1.210       0.1567E-2     1.181   
   -4.920       0.2159E-2     1.210       0.1569E-2     1.181   
   -4.910       0.2163E-2     1.210       0.1572E-2     1.181   
   -4.900       0.2168E-2     1.211       0.1575E-2     1.182   
   -4.890       0.2172E-2     1.211       0.1578E-2     1.182   
   -4.880       0.2177E-2     1.211       0.1581E-2     1.182   
   -4.870       0.2182E-2     1.211       0.1583E-2     1.182   
   -4.860       0.2186E-2     1.212       0.1586E-2     1.182   
   -4.850       0.2191E-2     1.212       0.1589E-2     1.182   
   -4.840       0.2196E-2     1.212       0.1592E-2     1.182   
   -4.830       0.2201E-2     1.212       0.1595E-2     1.183   
   -4.820       0.2205E-2     1.212       0.1598E-2     1.183   
   -4.810       0.2210E-2     1.213       0.1601E-2     1.183   
   -4.800       0.2215E-2     1.213       0.1603E-2     1.183   
   -4.790       0.2220E-2     1.213       0.1606E-2     1.183   
   -4.780       0.2225E-2     1.213       0.1609E-2     1.183   
   -4.770       0.2229E-2     1.214       0.1612E-2     1.184   
   -4.760       0.2234E-2     1.214       0.1615E-2     1.184   
   -4.750       0.2239E-2     1.214       0.1618E-2     1.184   
   -4.740       0.2244E-2     1.214       0.1621E-2     1.184   
   -4.730       0.2249E-2     1.214       0.1624E-2     1.184   
   -4.720       0.2254E-2     1.215       0.1627E-2     1.184   
   -4.710       0.2259E-2     1.215       0.1630E-2     1.185   
   -4.700       0.2264E-2     1.215       0.1633E-2     1.185   
   -4.690       0.2269E-2     1.215       0.1636E-2     1.185   
   -4.680       0.2274E-2     1.216       0.1639E-2     1.185   
   -4.670       0.2279E-2     1.216       0.1642E-2     1.185   
   -4.660       0.2284E-2     1.216       0.1645E-2     1.185   
   -4.650       0.2289E-2     1.216       0.1648E-2     1.186   
   -4.640       0.2294E-2     1.216       0.1651E-2     1.186   
   -4.630       0.2299E-2     1.217       0.1654E-2     1.186   
   -4.620       0.2304E-2     1.217       0.1657E-2     1.186   
   -4.610       0.2309E-2     1.217       0.1660E-2     1.186   
   -4.600       0.2314E-2     1.217       0.1663E-2     1.186   
   -4.590       0.2319E-2     1.218       0.1666E-2     1.187   
   -4.580       0.2325E-2     1.218       0.1669E-2     1.187   
   -4.570       0.2330E-2     1.218       0.1672E-2     1.187   
   -4.560       0.2335E-2     1.218       0.1675E-2     1.187   
   -4.550       0.2340E-2     1.219       0.1678E-2     1.187   
   -4.540       0.2345E-2     1.219       0.1681E-2     1.187   
   -4.530       0.2351E-2     1.219       0.1684E-2     1.188   
   -4.520       0.2356E-2     1.219       0.1688E-2     1.188   
   -4.510       0.2361E-2     1.219       0.1691E-2     1.188   
   -4.500       0.2366E-2     1.220       0.1694E-2     1.188   
   -4.490       0.2372E-2     1.220       0.1697E-2     1.188   
   -4.480       0.2377E-2     1.220       0.1700E-2     1.188   
   -4.470       0.2382E-2     1.220       0.1703E-2     1.189   
   -4.460       0.2388E-2     1.221       0.1706E-2     1.189   
   -4.450       0.2393E-2     1.221       0.1710E-2     1.189   
   -4.440       0.2399E-2     1.221       0.1713E-2     1.189   
   -4.430       0.2404E-2     1.221       0.1716E-2     1.189   
   -4.420       0.2410E-2     1.222       0.1719E-2     1.189   
   -4.410       0.2415E-2     1.222       0.1722E-2     1.190   
   -4.400       0.2420E-2     1.222       0.1726E-2     1.190   
   -4.390       0.2426E-2     1.222       0.1729E-2     1.190   
   -4.380       0.2432E-2     1.223       0.1732E-2     1.190   
   -4.370       0.2437E-2     1.223       0.1735E-2     1.190   
   -4.360       0.2443E-2     1.223       0.1739E-2     1.190   
   -4.350       0.2448E-2     1.223       0.1742E-2     1.191   
   -4.340       0.2454E-2     1.224       0.1745E-2     1.191   
   -4.330       0.2459E-2     1.224       0.1749E-2     1.191   
   -4.320       0.2465E-2     1.224       0.1752E-2     1.191   
   -4.310       0.2471E-2     1.224       0.1755E-2     1.191   
   -4.300       0.2476E-2     1.225       0.1759E-2     1.191   
   -4.290       0.2482E-2     1.225       0.1762E-2     1.192   
   -4.280       0.2488E-2     1.225       0.1765E-2     1.192   
   -4.270       0.2494E-2     1.225       0.1769E-2     1.192   
   -4.260       0.2499E-2     1.226       0.1772E-2     1.192   
   -4.250       0.2505E-2     1.226       0.1775E-2     1.192   
   -4.240       0.2511E-2     1.226       0.1779E-2     1.193   
   -4.230       0.2517E-2     1.226       0.1782E-2     1.193   
   -4.220       0.2523E-2     1.227       0.1785E-2     1.193   
   -4.210       0.2529E-2     1.227       0.1789E-2     1.193   
   -4.200       0.2535E-2     1.227       0.1792E-2     1.193   
   -4.190       0.2540E-2     1.227       0.1796E-2     1.193   
   -4.180       0.2546E-2     1.228       0.1799E-2     1.194   
   -4.170       0.2552E-2     1.228       0.1803E-2     1.194   
   -4.160       0.2558E-2     1.228       0.1806E-2     1.194   
   -4.150       0.2564E-2     1.228       0.1810E-2     1.194   
   -4.140       0.2570E-2     1.229       0.1813E-2     1.194   
   -4.130       0.2576E-2     1.229       0.1817E-2     1.195   
   -4.120       0.2582E-2     1.229       0.1820E-2     1.195   
   -4.110       0.2589E-2     1.229       0.1824E-2     1.195   
   -4.100       0.2595E-2     1.230       0.1827E-2     1.195   
   -4.090       0.2601E-2     1.230       0.1831E-2     1.195   
   -4.080       0.2607E-2     1.230       0.1834E-2     1.195   
   -4.070       0.2613E-2     1.230       0.1838E-2     1.196   
   -4.060       0.2619E-2     1.231       0.1841E-2     1.196   
   -4.050       0.2626E-2     1.231       0.1845E-2     1.196   
   -4.040       0.2632E-2     1.231       0.1848E-2     1.196   
   -4.030       0.2638E-2     1.231       0.1852E-2     1.196   
   -4.020       0.2644E-2     1.232       0.1856E-2     1.197   
   -4.010       0.2651E-2     1.232       0.1859E-2     1.197   
   -4.000       0.2657E-2     1.232       0.1863E-2     1.197   
   -3.990       0.2663E-2     1.233       0.1867E-2     1.197   
   -3.980       0.2670E-2     1.233       0.1870E-2     1.197   
   -3.970       0.2676E-2     1.233       0.1874E-2     1.197   
   -3.960       0.2683E-2     1.233       0.1878E-2     1.198   
   -3.950       0.2689E-2     1.234       0.1881E-2     1.198   
   -3.940       0.2696E-2     1.234       0.1885E-2     1.198   
   -3.930       0.2702E-2     1.234       0.1889E-2     1.198   
   -3.920       0.2709E-2     1.234       0.1892E-2     1.198   
   -3.910       0.2715E-2     1.235       0.1896E-2     1.199   
   -3.900       0.2722E-2     1.235       0.1900E-2     1.199   
   -3.890       0.2728E-2     1.235       0.1904E-2     1.199   
   -3.880       0.2735E-2     1.235       0.1907E-2     1.199   
   -3.870       0.2742E-2     1.236       0.1911E-2     1.199   
   -3.860       0.2748E-2     1.236       0.1915E-2     1.200   
   -3.850       0.2755E-2     1.236       0.1919E-2     1.200   
   -3.840       0.2762E-2     1.237       0.1923E-2     1.200   
   -3.830       0.2769E-2     1.237       0.1926E-2     1.200   
   -3.820       0.2775E-2     1.237       0.1930E-2     1.200   
   -3.810       0.2782E-2     1.237       0.1934E-2     1.201   
   -3.800       0.2789E-2     1.238       0.1938E-2     1.201   
   -3.790       0.2796E-2     1.238       0.1942E-2     1.201   
   -3.780       0.2803E-2     1.238       0.1946E-2     1.201   
   -3.770       0.2810E-2     1.239       0.1950E-2     1.201   
   -3.760       0.2817E-2     1.239       0.1953E-2     1.202   
   -3.750       0.2824E-2     1.239       0.1957E-2     1.202   
   -3.740       0.2831E-2     1.239       0.1961E-2     1.202   
   -3.730       0.2838E-2     1.240       0.1965E-2     1.202   
   -3.720       0.2845E-2     1.240       0.1969E-2     1.202   
   -3.710       0.2852E-2     1.240       0.1973E-2     1.202   
   -3.700       0.2859E-2     1.241       0.1977E-2     1.203   
   -3.690       0.2866E-2     1.241       0.1981E-2     1.203   
   -3.680       0.2873E-2     1.241       0.1985E-2     1.203   
   -3.670       0.2880E-2     1.241       0.1989E-2     1.203   
   -3.660       0.2888E-2     1.242       0.1993E-2     1.203   
   -3.650       0.2895E-2     1.242       0.1997E-2     1.204   
   -3.640       0.2902E-2     1.242       0.2001E-2     1.204   
   -3.630       0.2909E-2     1.243       0.2005E-2     1.204   
   -3.620       0.2917E-2     1.243       0.2009E-2     1.204   
   -3.610       0.2924E-2     1.243       0.2014E-2     1.204   
   -3.600       0.2931E-2     1.243       0.2018E-2     1.205   
   -3.590       0.2939E-2     1.244       0.2022E-2     1.205   
   -3.580       0.2946E-2     1.244       0.2026E-2     1.205   
   -3.570       0.2954E-2     1.244       0.2030E-2     1.205   
   -3.560       0.2961E-2     1.245       0.2034E-2     1.205   
   -3.550       0.2969E-2     1.245       0.2038E-2     1.206   
   -3.540       0.2976E-2     1.245       0.2043E-2     1.206   
   -3.530       0.2984E-2     1.245       0.2047E-2     1.206   
   -3.520       0.2992E-2     1.246       0.2051E-2     1.206   
   -3.510       0.2999E-2     1.246       0.2055E-2     1.207   
   -3.500       0.3007E-2     1.246       0.2059E-2     1.207   
   -3.490       0.3015E-2     1.247       0.2064E-2     1.207   
   -3.480       0.3022E-2     1.247       0.2068E-2     1.207   
   -3.470       0.3030E-2     1.247       0.2072E-2     1.207   
   -3.460       0.3038E-2     1.248       0.2077E-2     1.208   
   -3.450       0.3046E-2     1.248       0.2081E-2     1.208   
   -3.440       0.3054E-2     1.248       0.2085E-2     1.208   
   -3.430       0.3061E-2     1.249       0.2089E-2     1.208   
   -3.420       0.3069E-2     1.249       0.2094E-2     1.208   
   -3.410       0.3077E-2     1.249       0.2098E-2     1.209   
   -3.400       0.3085E-2     1.249       0.2103E-2     1.209   
   -3.390       0.3093E-2     1.250       0.2107E-2     1.209   
   -3.380       0.3101E-2     1.250       0.2111E-2     1.209   
   -3.370       0.3110E-2     1.250       0.2116E-2     1.209   
   -3.360       0.3118E-2     1.251       0.2120E-2     1.210   
   -3.350       0.3126E-2     1.251       0.2125E-2     1.210   
   -3.340       0.3134E-2     1.251       0.2129E-2     1.210   
   -3.330       0.3142E-2     1.252       0.2134E-2     1.210   
   -3.320       0.3150E-2     1.252       0.2138E-2     1.210   
   -3.310       0.3159E-2     1.252       0.2143E-2     1.211   
   -3.300       0.3167E-2     1.253       0.2147E-2     1.211   
   -3.290       0.3175E-2     1.253       0.2152E-2     1.211   
   -3.280       0.3184E-2     1.253       0.2156E-2     1.211   
   -3.270       0.3192E-2     1.254       0.2161E-2     1.212   
   -3.260       0.3201E-2     1.254       0.2165E-2     1.212   
   -3.250       0.3209E-2     1.254       0.2170E-2     1.212   
   -3.240       0.3218E-2     1.254       0.2175E-2     1.212   
   -3.230       0.3226E-2     1.255       0.2179E-2     1.212   
   -3.220       0.3235E-2     1.255       0.2184E-2     1.213   
   -3.210       0.3244E-2     1.255       0.2188E-2     1.213   
   -3.200       0.3252E-2     1.256       0.2193E-2     1.213   
   -3.190       0.3261E-2     1.256       0.2198E-2     1.213   
   -3.180       0.3270E-2     1.256       0.2203E-2     1.214   
   -3.170       0.3278E-2     1.257       0.2207E-2     1.214   
   -3.160       0.3287E-2     1.257       0.2212E-2     1.214   
   -3.150       0.3296E-2     1.257       0.2217E-2     1.214   
   -3.140       0.3305E-2     1.258       0.2221E-2     1.214   
   -3.130       0.3314E-2     1.258       0.2226E-2     1.215   
   -3.120       0.3323E-2     1.258       0.2231E-2     1.215   
   -3.110       0.3332E-2     1.259       0.2236E-2     1.215   
   -3.100       0.3341E-2     1.259       0.2241E-2     1.215   
   -3.090       0.3350E-2     1.259       0.2246E-2     1.216   
   -3.080       0.3359E-2     1.260       0.2250E-2     1.216   
   -3.070       0.3368E-2     1.260       0.2255E-2     1.216   
   -3.060       0.3378E-2     1.260       0.2260E-2     1.216   
   -3.050       0.3387E-2     1.261       0.2265E-2     1.216   
   -3.040       0.3396E-2     1.261       0.2270E-2     1.217   
   -3.030       0.3405E-2     1.261       0.2275E-2     1.217   
   -3.020       0.3415E-2     1.262       0.2280E-2     1.217   
   -3.010       0.3424E-2     1.262       0.2285E-2     1.217   
   -3.000       0.3434E-2     1.262       0.2290E-2     1.218   
   -2.990       0.3443E-2     1.263       0.2295E-2     1.218   
   -2.980       0.3452E-2     1.263       0.2300E-2     1.218   
   -2.970       0.3462E-2     1.263       0.2305E-2     1.218   
   -2.960       0.3472E-2     1.264       0.2310E-2     1.218   
   -2.950       0.3481E-2     1.264       0.2315E-2     1.219   
   -2.940       0.3491E-2     1.265       0.2320E-2     1.219   
   -2.930       0.3501E-2     1.265       0.2325E-2     1.219   
   -2.920       0.3510E-2     1.265       0.2330E-2     1.219   
   -2.910       0.3520E-2     1.266       0.2336E-2     1.220   
   -2.900       0.3530E-2     1.266       0.2341E-2     1.220   
   -2.890       0.3540E-2     1.266       0.2346E-2     1.220   
   -2.880       0.3550E-2     1.267       0.2351E-2     1.220   
   -2.870       0.3560E-2     1.267       0.2356E-2     1.221   
   -2.860       0.3570E-2     1.267       0.2362E-2     1.221   
   -2.850       0.3580E-2     1.268       0.2367E-2     1.221   
   -2.840       0.3590E-2     1.268       0.2372E-2     1.221   
   -2.830       0.3600E-2     1.268       0.2377E-2     1.222   
   -2.820       0.3610E-2     1.269       0.2383E-2     1.222   
   -2.810       0.3621E-2     1.269       0.2388E-2     1.222   
   -2.800       0.3631E-2     1.269       0.2393E-2     1.222   
   -2.790       0.3641E-2     1.270       0.2399E-2     1.222   
   -2.780       0.3652E-2     1.270       0.2404E-2     1.223   
   -2.770       0.3662E-2     1.271       0.2409E-2     1.223   
   -2.760       0.3673E-2     1.271       0.2415E-2     1.223   
   -2.750       0.3683E-2     1.271       0.2420E-2     1.223   
   -2.740       0.3694E-2     1.272       0.2426E-2     1.224   
   -2.730       0.3704E-2     1.272       0.2431E-2     1.224   
   -2.720       0.3715E-2     1.272       0.2437E-2     1.224   
   -2.710       0.3726E-2     1.273       0.2442E-2     1.224   
   -2.700       0.3736E-2     1.273       0.2448E-2     1.225   
   -2.690       0.3747E-2     1.274       0.2453E-2     1.225   
   -2.680       0.3758E-2     1.274       0.2459E-2     1.225   
   -2.670       0.3769E-2     1.274       0.2465E-2     1.225   
   -2.660       0.3780E-2     1.275       0.2470E-2     1.226   
   -2.650       0.3791E-2     1.275       0.2476E-2     1.226   
   -2.640       0.3802E-2     1.275       0.2481E-2     1.226   
   -2.630       0.3813E-2     1.276       0.2487E-2     1.226   
   -2.620       0.3824E-2     1.276       0.2493E-2     1.227   
   -2.610       0.3835E-2     1.277       0.2499E-2     1.227   
   -2.600       0.3847E-2     1.277       0.2504E-2     1.227   
   -2.590       0.3858E-2     1.277       0.2510E-2     1.227   
   -2.580       0.3869E-2     1.278       0.2516E-2     1.228   
   -2.570       0.3881E-2     1.278       0.2522E-2     1.228   
   -2.560       0.3892E-2     1.279       0.2527E-2     1.228   
   -2.550       0.3904E-2     1.279       0.2533E-2     1.228   
   -2.540       0.3915E-2     1.279       0.2539E-2     1.229   
     -2.5300       0.0039       1.2797       0.0025       1.2289
     -2.5200       0.0039       1.2801       0.0026       1.2292
     -2.5100       0.0040       1.2805       0.0026       1.2294
     -2.5000       0.0040       1.2809       0.0026       1.2297
     -2.4900       0.0040       1.2813       0.0026       1.2299
     -2.4800       0.0040       1.2817       0.0026       1.2302
     -2.4700       0.0040       1.2821       0.0026       1.2305
     -2.4600       0.0040       1.2825       0.0026       1.2307
     -2.4500       0.0040       1.2829       0.0026       1.2310
     -2.4400       0.0040       1.2833       0.0026       1.2312
     -2.4300       0.0040       1.2837       0.0026       1.2315
     -2.4200       0.0041       1.2841       0.0026       1.2317
     -2.4100       0.0041       1.2845       0.0026       1.2320
     -2.4000       0.0041       1.2849       0.0026       1.2323
     -2.3900       0.0041       1.2853       0.0026       1.2325
     -2.3800       0.0041       1.2857       0.0026       1.2328
     -2.3700       0.0041       1.2861       0.0026       1.2331
     -2.3600       0.0041       1.2865       0.0026       1.2333
     -2.3500       0.0041       1.2869       0.0027       1.2336
     -2.3400       0.0042       1.2874       0.0027       1.2339
     -2.3300       0.0042       1.2878       0.0027       1.2341
     -2.3200       0.0042       1.2882       0.0027       1.2344
     -2.3100       0.0042       1.2886       0.0027       1.2347
     -2.3000       0.0042       1.2890       0.0027       1.2349
     -2.2900       0.0042       1.2895       0.0027       1.2352
     -2.2800       0.0042       1.2899       0.0027       1.2355
     -2.2700       0.0042       1.2903       0.0027       1.2357
     -2.2600       0.0043       1.2907       0.0027       1.2360
     -2.2500       0.0043       1.2912       0.0027       1.2363
     -2.2400       0.0043       1.2916       0.0027       1.2365
     -2.2300       0.0043       1.2920       0.0027       1.2368
     -2.2200       0.0043       1.2924       0.0027       1.2371
     -2.2100       0.0043       1.2929       0.0027       1.2374
     -2.2000       0.0043       1.2933       0.0028       1.2376
     -2.1900       0.0044       1.2937       0.0028       1.2379
     -2.1800       0.0044       1.2942       0.0028       1.2382
     -2.1700       0.0044       1.2946       0.0028       1.2385
     -2.1600       0.0044       1.2951       0.0028       1.2388
     -2.1500       0.0044       1.2955       0.0028       1.2390
     -2.1400       0.0044       1.2959       0.0028       1.2393
     -2.1300       0.0044       1.2964       0.0028       1.2396
     -2.1200       0.0045       1.2968       0.0028       1.2399
     -2.1100       0.0045       1.2973       0.0028       1.2401
     -2.1000       0.0045       1.2977       0.0028       1.2404
     -2.0900       0.0045       1.2982       0.0028       1.2407
     -2.0800       0.0045       1.2986       0.0028       1.2410
     -2.0700       0.0045       1.2991       0.0028       1.2413
     -2.0600       0.0045       1.2995       0.0028       1.2416
     -2.0500       0.0046       1.3000       0.0029       1.2418
     -2.0400       0.0046       1.3004       0.0029       1.2421
     -2.0300       0.0046       1.3009       0.0029       1.2424
     -2.0200       0.0046       1.3013       0.0029       1.2427
     -2.0100       0.0046       1.3018       0.0029       1.2430
     -2.0000       0.0046       1.3023       0.0029       1.2433
     -1.9900       0.0046       1.3027       0.0029       1.2436
     -1.9800       0.0047       1.3032       0.0029       1.2439
     -1.9700       0.0047       1.3037       0.0029       1.2442
     -1.9600       0.0047       1.3041       0.0029       1.2444
     -1.9500       0.0047       1.3046       0.0029       1.2447
     -1.9400       0.0047       1.3051       0.0029       1.2450
     -1.9300       0.0047       1.3055       0.0029       1.2453
     -1.9200       0.0048       1.3060       0.0029       1.2456
     -1.9100       0.0048       1.3065       0.0030       1.2459
     -1.9000       0.0048       1.3070       0.0030       1.2462
     -1.8900       0.0048       1.3075       0.0030       1.2465
     -1.8800       0.0048       1.3079       0.0030       1.2468
     -1.8700       0.0048       1.3084       0.0030       1.2471
     -1.8600       0.0048       1.3089       0.0030       1.2474
     -1.8500       0.0049       1.3094       0.0030       1.2477
     -1.8400       0.0049       1.3099       0.0030       1.2480
     -1.8300       0.0049       1.3104       0.0030       1.2483
     -1.8200       0.0049       1.3108       0.0030       1.2486
     -1.8100       0.0049       1.3113       0.0030       1.2489
     -1.8000       0.0049       1.3118       0.0030       1.2492
     -1.7900       0.0050       1.3123       0.0030       1.2495
     -1.7800       0.0050       1.3128       0.0031       1.2498
     -1.7700       0.0050       1.3133       0.0031       1.2501
     -1.7600       0.0050       1.3138       0.0031       1.2504
     -1.7500       0.0050       1.3143       0.0031       1.2507
     -1.7400       0.0050       1.3148       0.0031       1.2510
     -1.7300       0.0051       1.3153       0.0031       1.2514
     -1.7200       0.0051       1.3158       0.0031       1.2517
     -1.7100       0.0051       1.3163       0.0031       1.2520
     -1.7000       0.0051       1.3169       0.0031       1.2523
     -1.6900       0.0051       1.3174       0.0031       1.2526
     -1.6800       0.0052       1.3179       0.0031       1.2529
     -1.6700       0.0052       1.3184       0.0031       1.2532
     -1.6600       0.0052       1.3189       0.0031       1.2535
     -1.6500       0.0052       1.3194       0.0032       1.2539
     -1.6400       0.0052       1.3200       0.0032       1.2542
     -1.6300       0.0052       1.3205       0.0032       1.2545
     -1.6200       0.0053       1.3210       0.0032       1.2548
     -1.6100       0.0053       1.3215       0.0032       1.2551
     -1.6000       0.0053       1.3221       0.0032       1.2554
     -1.5900       0.0053       1.3226       0.0032       1.2558
     -1.5800       0.0053       1.3231       0.0032       1.2561
     -1.5700       0.0054       1.3237       0.0032       1.2564
     -1.5600       0.0054       1.3242       0.0032       1.2567
     -1.5500       0.0054       1.3247       0.0032       1.2570
     -1.5400       0.0054       1.3253       0.0033       1.2574
     -1.5300       0.0054       1.3258       0.0033       1.2577
     -1.5200       0.0054       1.3264       0.0033       1.2580
     -1.5100       0.0055       1.3269       0.0033       1.2584
     -1.5000       0.0055       1.3274       0.0033       1.2587
     -1.4900       0.0055       1.3280       0.0033       1.2590
     -1.4800       0.0055       1.3286       0.0033       1.2593
     -1.4700       0.0055       1.3291       0.0033       1.2597
     -1.4600       0.0056       1.3297       0.0033       1.2600
     -1.4500       0.0056       1.3302       0.0033       1.2603
     -1.4400       0.0056       1.3308       0.0033       1.2607
     -1.4300       0.0056       1.3313       0.0033       1.2610
     -1.4200       0.0056       1.3319       0.0034       1.2613
     -1.4100       0.0057       1.3325       0.0034       1.2617
     -1.4000       0.0057       1.3330       0.0034       1.2620
     -1.3900       0.0057       1.3336       0.0034       1.2623
     -1.3800       0.0057       1.3342       0.0034       1.2627
     -1.3700       0.0058       1.3347       0.0034       1.2630
     -1.3600       0.0058       1.3353       0.0034       1.2634
     -1.3500       0.0058       1.3359       0.0034       1.2637
     -1.3400       0.0058       1.3365       0.0034       1.2640
     -1.3300       0.0058       1.3371       0.0034       1.2644
     -1.3200       0.0059       1.3376       0.0034       1.2647
     -1.3100       0.0059       1.3382       0.0035       1.2651
     -1.3000       0.0059       1.3388       0.0035       1.2654
     -1.2900       0.0059       1.3394       0.0035       1.2658
     -1.2800       0.0059       1.3400       0.0035       1.2661
     -1.2700       0.0060       1.3406       0.0035       1.2665
     -1.2600       0.0060       1.3412       0.0035       1.2668
     -1.2500       0.0060       1.3418       0.0035       1.2672
     -1.2400       0.0060       1.3424       0.0035       1.2675
     -1.2300       0.0061       1.3430       0.0035       1.2679
     -1.2200       0.0061       1.3436       0.0035       1.2682
     -1.2100       0.0061       1.3442       0.0036       1.2686
     -1.2000       0.0061       1.3448       0.0036       1.2689
     -1.1900       0.0062       1.3454       0.0036       1.2693
     -1.1800       0.0062       1.3461       0.0036       1.2697
     -1.1700       0.0062       1.3467       0.0036       1.2700
     -1.1600       0.0062       1.3473       0.0036       1.2704
     -1.1500       0.0062       1.3479       0.0036       1.2707
     -1.1400       0.0063       1.3485       0.0036       1.2711
     -1.1300       0.0063       1.3492       0.0036       1.2715
     -1.1200       0.0063       1.3498       0.0036       1.2718
     -1.1100       0.0063       1.3504       0.0037       1.2722
     -1.1000       0.0064       1.3511       0.0037       1.2726
     -1.0900       0.0064       1.3517       0.0037       1.2729
     -1.0800       0.0064       1.3524       0.0037       1.2733
     -1.0700       0.0064       1.3530       0.0037       1.2737
     -1.0600       0.0065       1.3536       0.0037       1.2740
     -1.0500       0.0065       1.3543       0.0037       1.2744
     -1.0400       0.0065       1.3549       0.0037       1.2748
     -1.0300       0.0065       1.3556       0.0037       1.2751
     -1.0200       0.0066       1.3562       0.0038       1.2755
     -1.0100       0.0066       1.3569       0.0038       1.2759
     -1.0000       0.0066       1.3576       0.0038       1.2763
     -0.9900       0.0066       1.3582       0.0038       1.2767
     -0.9800       0.0067       1.3589       0.0038       1.2770
     -0.9700       0.0067       1.3596       0.0038       1.2774
     -0.9600       0.0067       1.3602       0.0038       1.2778
     -0.9500       0.0068       1.3609       0.0038       1.2782
     -0.9400       0.0068       1.3616       0.0038       1.2786
     -0.9300       0.0068       1.3623       0.0038       1.2789
     -0.9200       0.0068       1.3629       0.0039       1.2793
     -0.9100       0.0069       1.3636       0.0039       1.2797
     -0.9000       0.0069       1.3643       0.0039       1.2801
     -0.8900       0.0069       1.3650       0.0039       1.2805
     -0.8800       0.0070       1.3657       0.0039       1.2809
     -0.8700       0.0070       1.3664       0.0039       1.2813
     -0.8600       0.0070       1.3671       0.0039       1.2817
     -0.8500       0.0070       1.3678       0.0039       1.2821
     -0.8400       0.0071       1.3685       0.0040       1.2825
     -0.8300       0.0071       1.3692       0.0040       1.2828
     -0.8200       0.0071       1.3699       0.0040       1.2832
     -0.8100       0.0072       1.3706       0.0040       1.2836
     -0.8000       0.0072       1.3713       0.0040       1.2840
     -0.7900       0.0072       1.3721       0.0040       1.2844
     -0.7800       0.0072       1.3728       0.0040       1.2848
     -0.7700       0.0073       1.3735       0.0040       1.2852
     -0.7600       0.0073       1.3742       0.0040       1.2856
     -0.7500       0.0073       1.3750       0.0041       1.2861
     -0.7400       0.0074       1.3757       0.0041       1.2865
     -0.7300       0.0074       1.3764       0.0041       1.2869
     -0.7200       0.0074       1.3772       0.0041       1.2873
     -0.7100       0.0075       1.3779       0.0041       1.2877
     -0.7000       0.0075       1.3787       0.0041       1.2881
     -0.6900       0.0075       1.3794       0.0041       1.2885
     -0.6800       0.0076       1.3802       0.0041       1.2889
     -0.6700       0.0076       1.3809       0.0042       1.2893
     -0.6600       0.0076       1.3817       0.0042       1.2898
     -0.6500       0.0077       1.3825       0.0042       1.2902
     -0.6400       0.0077       1.3832       0.0042       1.2906
     -0.6300       0.0077       1.3840       0.0042       1.2910
     -0.6200       0.0078       1.3848       0.0042       1.2914
     -0.6100       0.0078       1.3855       0.0042       1.2919
     -0.6000       0.0078       1.3863       0.0042       1.2923
     -0.5900       0.0079       1.3871       0.0043       1.2927
     -0.5800       0.0079       1.3879       0.0043       1.2931
     -0.5700       0.0079       1.3887       0.0043       1.2936
     -0.5600       0.0080       1.3895       0.0043       1.2940
     -0.5500       0.0080       1.3903       0.0043       1.2944
     -0.5400       0.0080       1.3911       0.0043       1.2949
     -0.5300       0.0081       1.3919       0.0043       1.2953
     -0.5200       0.0081       1.3927       0.0044       1.2957
     -0.5100       0.0081       1.3935       0.0044       1.2962
     -0.5000       0.0082       1.3943       0.0044       1.2966
     -0.4900       0.0082       1.3951       0.0044       1.2970
     -0.4800       0.0082       1.3960       0.0044       1.2975
     -0.4700       0.0083       1.3968       0.0044       1.2979
     -0.4600       0.0083       1.3976       0.0044       1.2984
     -0.4500       0.0084       1.3984       0.0045       1.2988
     -0.4400       0.0084       1.3993       0.0045       1.2992
     -0.4300       0.0084       1.4001       0.0045       1.2997
     -0.4200       0.0085       1.4010       0.0045       1.3001
     -0.4100       0.0085       1.4018       0.0045       1.3006
     -0.4000       0.0086       1.4027       0.0045       1.3010
     -0.3900       0.0086       1.4035       0.0045       1.3015
     -0.3800       0.0086       1.4044       0.0046       1.3020
     -0.3700       0.0087       1.4052       0.0046       1.3024
     -0.3600       0.0087       1.4061       0.0046       1.3029
     -0.3500       0.0088       1.4070       0.0046       1.3033
     -0.3400       0.0088       1.4079       0.0046       1.3038
     -0.3300       0.0088       1.4087       0.0046       1.3042
     -0.3200       0.0089       1.4096       0.0046       1.3047
     -0.3100       0.0089       1.4105       0.0047       1.3052
     -0.3000       0.0090       1.4114       0.0047       1.3056
     -0.2900       0.0090       1.4123       0.0047       1.3061
     -0.2800       0.0090       1.4132       0.0047       1.3066
     -0.2700       0.0091       1.4141       0.0047       1.3070
     -0.2600       0.0091       1.4150       0.0047       1.3075
     -0.2500       0.0092       1.4159       0.0047       1.3080
     -0.2400       0.0092       1.4169       0.0048       1.3085
     -0.2300       0.0093       1.4178       0.0048       1.3089
     -0.2200       0.0093       1.4187       0.0048       1.3094
     -0.2100       0.0094       1.4196       0.0048       1.3099
     -0.2000       0.0094       1.4206       0.0048       1.3104
     -0.1900       0.0094       1.4215       0.0048       1.3109
     -0.1800       0.0095       1.4225       0.0049       1.3114
     -0.1700       0.0095       1.4234       0.0049       1.3118
     -0.1600       0.0096       1.4244       0.0049       1.3123
     -0.1500       0.0096       1.4253       0.0049       1.3128
     -0.1400       0.0097       1.4263       0.0049       1.3133
     -0.1300       0.0097       1.4273       0.0049       1.3138
     -0.1200       0.0098       1.4282       0.0050       1.3143
     -0.1100       0.0098       1.4292       0.0050       1.3148
     -0.1000       0.0099       1.4302       0.0050       1.3153
     -0.0900       0.0099       1.4312       0.0050       1.3158
     -0.0800       0.0100       1.4322       0.0050       1.3163
     -0.0700       0.0100       1.4332       0.0050       1.3168
     -0.0600       0.0101       1.4342       0.0051       1.3173
     -0.0500       0.0101       1.4352       0.0051       1.3178
     -0.0400       0.0102       1.4362       0.0051       1.3183
     -0.0300       0.0102       1.4372       0.0051       1.3188
     -0.0200       0.0103       1.4382       0.0051       1.3193
     -0.0100       0.0103       1.4393       0.0051       1.3198
      0.0000       0.0104       1.4403       0.0052       1.3204
      0.0100       0.0104       1.4413       0.0052       1.3209
      0.0200       0.0105       1.4424       0.0052       1.3214
      0.0300       0.0105       1.4434       0.0052       1.3219
      0.0400       0.0106       1.4445       0.0052       1.3224
      0.0500       0.0107       1.4455       0.0053       1.3230
      0.0600       0.0107       1.4466       0.0053       1.3235
      0.0700       0.0108       1.4477       0.0053       1.3240
      0.0800       0.0108       1.4488       0.0053       1.3245
      0.0900       0.0109       1.4498       0.0053       1.3251
      0.1000       0.0109       1.4509       0.0053       1.3256
      0.1100       0.0110       1.4520       0.0054       1.3261
      0.1200       0.0110       1.4531       0.0054       1.3267
      0.1300       0.0111       1.4542       0.0054       1.3272
      0.1400       0.0112       1.4553       0.0054       1.3278
      0.1500       0.0112       1.4565       0.0054       1.3283
      0.1600       0.0113       1.4576       0.0055       1.3289
      0.1700       0.0113       1.4587       0.0055       1.3294
      0.1800       0.0114       1.4599       0.0055       1.3299
      0.1900       0.0115       1.4610       0.0055       1.3305
      0.2000       0.0115       1.4621       0.0055       1.3310
      0.2100       0.0116       1.4633       0.0056       1.3316
      0.2200       0.0117       1.4645       0.0056       1.3322
      0.2300       0.0117       1.4656       0.0056       1.3327
      0.2400       0.0118       1.4668       0.0056       1.3333
      0.2500       0.0119       1.4680       0.0056       1.3338
      0.2600       0.0119       1.4692       0.0057       1.3344
      0.2700       0.0120       1.4704       0.0057       1.3350
      0.2800       0.0121       1.4716       0.0057       1.3355
      0.2900       0.0121       1.4728       0.0057       1.3361
      0.3000       0.0122       1.4740       0.0057       1.3367
      0.3100       0.0123       1.4752       0.0058       1.3373
      0.3200       0.0123       1.4764       0.0058       1.3378
      0.3300       0.0124       1.4777       0.0058       1.3384
      0.3400       0.0125       1.4789       0.0058       1.3390
      0.3500       0.0125       1.4801       0.0058       1.3396
      0.3600       0.0126       1.4814       0.0059       1.3402
      0.3700       0.0127       1.4827       0.0059       1.3408
      0.3800       0.0128       1.4839       0.0059       1.3413
      0.3900       0.0128       1.4852       0.0059       1.3419
      0.4000       0.0129       1.4865       0.0060       1.3425
      0.4100       0.0130       1.4878       0.0060       1.3431
      0.4200       0.0131       1.4891       0.0060       1.3437
      0.4300       0.0131       1.4904       0.0060       1.3443
      0.4400       0.0132       1.4917       0.0060       1.3449
      0.4500       0.0133       1.4930       0.0061       1.3455
      0.4600       0.0134       1.4944       0.0061       1.3461
      0.4700       0.0134       1.4957       0.0061       1.3467
      0.4800       0.0135       1.4970       0.0061       1.3474
      0.4900       0.0136       1.4984       0.0062       1.3480
      0.5000       0.0137       1.4998       0.0062       1.3486
      0.5100       0.0138       1.5011       0.0062       1.3492
      0.5200       0.0139       1.5025       0.0062       1.3498
      0.5300       0.0139       1.5039       0.0063       1.3505
      0.5400       0.0140       1.5053       0.0063       1.3511
      0.5500       0.0141       1.5067       0.0063       1.3517
      0.5600       0.0142       1.5081       0.0063       1.3523
      0.5700       0.0143       1.5095       0.0064       1.3530
      0.5800       0.0144       1.5110       0.0064       1.3536
      0.5900       0.0145       1.5124       0.0064       1.3542
      0.6000       0.0145       1.5138       0.0064       1.3549
      0.6100       0.0146       1.5153       0.0065       1.3555
      0.6200       0.0147       1.5168       0.0065       1.3562
      0.6300       0.0148       1.5182       0.0065       1.3568
      0.6400       0.0149       1.5197       0.0065       1.3575
      0.6500       0.0150       1.5212       0.0066       1.3581
      0.6600       0.0151       1.5227       0.0066       1.3588
      0.6700       0.0152       1.5242       0.0066       1.3594
      0.6800       0.0153       1.5257       0.0066       1.3601
      0.6900       0.0154       1.5273       0.0067       1.3608
      0.7000       0.0155       1.5288       0.0067       1.3614
      0.7100       0.0156       1.5304       0.0067       1.3621
      0.7200       0.0157       1.5319       0.0067       1.3628
      0.7300       0.0158       1.5335       0.0068       1.3635
      0.7400       0.0159       1.5351       0.0068       1.3641
      0.7500       0.0160       1.5367       0.0068       1.3648
      0.7600       0.0161       1.5383       0.0068       1.3655
      0.7700       0.0162       1.5399       0.0069       1.3662
      0.7800       0.0163       1.5415       0.0069       1.3669
      0.7900       0.0164       1.5431       0.0069       1.3676
      0.8000       0.0165       1.5448       0.0070       1.3683
      0.8100       0.0167       1.5464       0.0070       1.3690
      0.8200       0.0168       1.5481       0.0070       1.3697
      0.8300       0.0169       1.5498       0.0070       1.3704
      0.8400       0.0170       1.5515       0.0071       1.3711
      0.8500       0.0171       1.5532       0.0071       1.3718
      0.8600       0.0172       1.5549       0.0071       1.3725
      0.8700       0.0173       1.5566       0.0072       1.3732
      0.8800       0.0175       1.5584       0.0072       1.3739
      0.8900       0.0176       1.5601       0.0072       1.3746
      0.9000       0.0177       1.5619       0.0073       1.3754
      0.9100       0.0178       1.5636       0.0073       1.3761
      0.9200       0.0180       1.5654       0.0073       1.3768
      0.9300       0.0181       1.5672       0.0073       1.3775
      0.9400       0.0182       1.5690       0.0074       1.3783
      0.9500       0.0183       1.5709       0.0074       1.3790
      0.9600       0.0185       1.5727       0.0074       1.3798
      0.9700       0.0186       1.5745       0.0075       1.3805
      0.9800       0.0187       1.5764       0.0075       1.3812
      0.9900       0.0189       1.5783       0.0075       1.3820
      1.0000       0.0190       1.5802       0.0076       1.3828
      1.0100       0.0191       1.5821       0.0076       1.3835
      1.0200       0.0193       1.5840       0.0076       1.3843
      1.0300       0.0194       1.5859       0.0077       1.3850
      1.0400       0.0196       1.5879       0.0077       1.3858
      1.0500       0.0197       1.5898       0.0077       1.3866
      1.0600       0.0199       1.5918       0.0078       1.3873
      1.0700       0.0200       1.5938       0.0078       1.3881
      1.0800       0.0202       1.5958       0.0078       1.3889
      1.0900       0.0203       1.5978       0.0079       1.3897
      1.1000       0.0205       1.5998       0.0079       1.3905
      1.1100       0.0206       1.6019       0.0079       1.3913
      1.1200       0.0208       1.6039       0.0080       1.3921
      1.1300       0.0209       1.6060       0.0080       1.3929
      1.1400       0.0211       1.6081       0.0080       1.3937
      1.1500       0.0213       1.6102       0.0081       1.3945
      1.1600       0.0214       1.6124       0.0081       1.3953
      1.1700       0.0216       1.6145       0.0081       1.3961
      1.1800       0.0218       1.6167       0.0082       1.3969
      1.1900       0.0219       1.6188       0.0082       1.3977
      1.2000       0.0221       1.6210       0.0083       1.3985
      1.2100       0.0223       1.6233       0.0083       1.3994
      1.2200       0.0225       1.6255       0.0083       1.4002
      1.2300       0.0227       1.6277       0.0084       1.4010
      1.2400       0.0228       1.6300       0.0084       1.4019
      1.2500       0.0230       1.6323       0.0084       1.4027
      1.2600       0.0232       1.6346       0.0085       1.4036
      1.2700       0.0234       1.6369       0.0085       1.4044
      1.2800       0.0236       1.6393       0.0086       1.4053
      1.2900       0.0238       1.6416       0.0086       1.4061
      1.3000       0.0240       1.6440       0.0086       1.4070
      1.3100       0.0242       1.6464       0.0087       1.4079
      1.3200       0.0244       1.6488       0.0087       1.4087
      1.3300       0.0246       1.6513       0.0088       1.4096
      1.3400       0.0248       1.6537       0.0088       1.4105
      1.3500       0.0250       1.6562       0.0088       1.4114
      1.3600       0.0252       1.6587       0.0089       1.4122
      1.3700       0.0254       1.6612       0.0089       1.4131
      1.3800       0.0257       1.6638       0.0090       1.4140
      1.3900       0.0259       1.6663       0.0090       1.4149
      1.4000       0.0261       1.6689       0.0091       1.4158
      1.4100       0.0263       1.6715       0.0091       1.4167
      1.4200       0.0266       1.6742       0.0091       1.4176
      1.4300       0.0268       1.6768       0.0092       1.4186
      1.4400       0.0270       1.6795       0.0092       1.4195
      1.4500       0.0273       1.6822       0.0093       1.4204
      1.4600       0.0275       1.6849       0.0093       1.4213
      1.4700       0.0278       1.6877       0.0094       1.4223
      1.4800       0.0280       1.6905       0.0094       1.4232
      1.4900       0.0283       1.6933       0.0095       1.4242
      1.5000       0.0286       1.6961       0.0095       1.4251
      1.5100       0.0288       1.6990       0.0096       1.4261
      1.5200       0.0291       1.7018       0.0096       1.4270
      1.5300       0.0294       1.7047       0.0096       1.4280
      1.5400       0.0296       1.7077       0.0097       1.4289
      1.5500       0.0299       1.7106       0.0097       1.4299
      1.5600       0.0302       1.7136       0.0098       1.4309
      1.5700       0.0305       1.7167       0.0098       1.4319
      1.5800       0.0308       1.7197       0.0099       1.4328
      1.5900       0.0311       1.7228       0.0099       1.4338
      1.6000       0.0314       1.7259       0.0100       1.4348
     1.61000      0.03169      1.72903      0.01004      1.43584
     1.62000      0.03200      1.73220      0.01009      1.43684
     1.63000      0.03232      1.73540      0.01015      1.43785
     1.64000      0.03264      1.73863      0.01020      1.43887
     1.65000      0.03297      1.74189      0.01025      1.43989
     1.66000      0.03330      1.74519      0.01030      1.44091
     1.67000      0.03364      1.74852      0.01036      1.44195
     1.68000      0.03398      1.75188      0.01041      1.44298
     1.69000      0.03433      1.75527      0.01046      1.44403
     1.70000      0.03469      1.75871      0.01052      1.44507
     1.71000      0.03505      1.76217      0.01057      1.44613
     1.72000      0.03542      1.76568      0.01063      1.44718
     1.73000      0.03579      1.76921      0.01068      1.44825
     1.74000      0.03617      1.77279      0.01074      1.44932
     1.75000      0.03656      1.77641      0.01080      1.45039
     1.76000      0.03695      1.78006      0.01085      1.45147
     1.77000      0.03735      1.78375      0.01091      1.45256
     1.78000      0.03776      1.78748      0.01097      1.45365
     1.79000      0.03817      1.79125      0.01103      1.45475
     1.80000      0.03859      1.79507      0.01109      1.45586
     1.81000      0.03902      1.79892      0.01115      1.45697
     1.82000      0.03946      1.80282      0.01121      1.45808
     1.83000      0.03990      1.80676      0.01127      1.45920
     1.84000      0.04035      1.81075      0.01133      1.46033
     1.85000      0.04082      1.81478      0.01139      1.46147
     1.86000      0.04129      1.81885      0.01145      1.46261
     1.87000      0.04176      1.82297      0.01152      1.46375
     1.88000      0.04225      1.82714      0.01158      1.46491
     1.89000      0.04275      1.83136      0.01165      1.46607
     1.90000      0.04325      1.83563      0.01171      1.46723
     1.91000      0.04377      1.83995      0.01178      1.46840
     1.92000      0.04430      1.84432      0.01184      1.46958
     1.93000      0.04483      1.84874      0.01191      1.47077
     1.94000      0.04538      1.85321      0.01197      1.47196
     1.95000      0.04594      1.85774      0.01204      1.47316
     1.96000      0.04651      1.86232      0.01211      1.47436
     1.97000      0.04709      1.86697      0.01218      1.47558
     1.98000      0.04768      1.87166      0.01225      1.47680
     1.99000      0.04829      1.87642      0.01232      1.47802
     2.00000      0.04890      1.88124      0.01239      1.47926
     2.01000      0.04953      1.88611      0.01246      1.48050
     2.02000      0.05018      1.89105      0.01253      1.48174
     2.03000      0.05084      1.89606      0.01261      1.48300
     2.04000      0.05151      1.90112      0.01268      1.48426
     2.05000      0.05220      1.90626      0.01275      1.48553
     2.06000      0.05290      1.91146      0.01283      1.48681
     2.07000      0.05362      1.91673      0.01290      1.48809
     2.08000      0.05435      1.92208      0.01298      1.48938
     2.09000      0.05510      1.92749      0.01306      1.49068
     2.10000      0.05587      1.93298      0.01314      1.49199
     2.11000      0.05665      1.93854      0.01321      1.49330
     2.12000      0.05746      1.94419      0.01329      1.49463
     2.13000      0.05828      1.94991      0.01337      1.49596
     2.14000      0.05913      1.95571      0.01345      1.49730
     2.15000      0.05999      1.96159      0.01354      1.49864
     2.16000      0.06087      1.96756      0.01362      1.50000
     2.17000      0.06178      1.97362      0.01370      1.50136
     2.18000      0.06271      1.97976      0.01379      1.50273
     2.19000      0.06367      1.98600      0.01387      1.50411
     2.20000      0.06465      1.99233      0.01396      1.50550
     2.21000      0.06565      1.99876      0.01404      1.50690
     2.22000      0.06668      2.00528      0.01413      1.50830
     2.23000      0.06774      2.01190      0.01422      1.50972
     2.24000      0.06883      2.01863      0.01431      1.51114
     2.25000      0.06995      2.02546      0.01440      1.51257
     2.26000      0.07110      2.03240      0.01449      1.51402
     2.27000      0.07229      2.03946      0.01458      1.51547
     2.28000      0.07351      2.04662      0.01468      1.51693
     2.29000      0.07476      2.05391      0.01477      1.51840
     2.30000      0.07606      2.06131      0.01487      1.51987
     2.31000      0.07739      2.06884      0.01496      1.52136
     2.32000      0.07877      2.07650      0.01506      1.52286
     2.33000      0.08019      2.08428      0.01516      1.52437
     2.34000      0.08166      2.09220      0.01526      1.52588
     2.35000      0.08318      2.10026      0.01536      1.52741
     2.36000      0.08476      2.10846      0.01546      1.52895
     2.37000      0.08639      2.11681      0.01556      1.53050
     2.38000      0.08808      2.12530      0.01567      1.53205
     2.39000      0.08983      2.13395      0.01577      1.53362
     2.40000      0.09165      2.14275      0.01588      1.53520
     2.41000      0.09354      2.15172      0.01598      1.53679
     2.42000      0.09551      2.16085      0.01609      1.53839
     2.43000      0.09756      2.17014      0.01620      1.54000
     2.44000      0.09970      2.17961      0.01631      1.54162
     2.45000      0.10193      2.18924      0.01642      1.54325
     2.46000      0.10426      2.19906      0.01654      1.54490
     2.47000      0.10669      2.20905      0.01665      1.54655
     2.48000      0.10922      2.21922      0.01677      1.54822
     2.49000      0.11187      2.22958      0.01689      1.54990
     2.50000      0.11465      2.24013      0.01700      1.55159
     2.51000      0.11756      2.25087      0.01712      1.55329
     2.52000      0.12061      2.26181      0.01725      1.55500
     2.53000      0.12382      2.27293      0.01737      1.55673
     2.54000      0.12721      2.28424      0.01749      1.55847
     2.55000      0.13079      2.29571      0.01762      1.56022
     2.56000      0.13456      2.30733      0.01775      1.56198
     2.57000      0.13853      2.31907      0.01788      1.56376
     2.58000      0.14269      2.33089      0.01801      1.56555
     2.59000      0.14701      2.34277      0.01814      1.56735
     2.60000      0.15144      2.35468      0.01827      1.56916
     2.61000      0.15593      2.36659      0.01841      1.57099
     2.62000      0.16039      2.37854      0.01854      1.57283
     2.63000      0.16475      2.39055      0.01868      1.57469
     2.64000      0.16893      2.40271      0.01882      1.57656
     2.65000      0.17289      2.41513      0.01897      1.57844
     2.66000      0.17663      2.42795      0.01911      1.58034
     2.67000      0.18020      2.44129      0.01926      1.58225
     2.68000      0.18367      2.45523      0.01940      1.58418
     2.69000      0.18714      2.46986      0.01955      1.58612
     2.70000      0.19073      2.48521      0.01971      1.58808
     2.71000      0.19452      2.50127      0.01986      1.59005
     2.72000      0.19859      2.51803      0.02002      1.59203
     2.73000      0.20300      2.53548      0.02017      1.59404
     2.74000      0.20780      2.55359      0.02033      1.59605
     2.75000      0.21301      2.57235      0.02050      1.59809
     2.76000      0.21867      2.59174      0.02066      1.60014
     2.77000      0.22479      2.61177      0.02083      1.60220
     2.78000      0.23140      2.63243      0.02100      1.60429
     2.79000      0.23852      2.65373      0.02117      1.60639
     2.80000      0.24617      2.67570      0.02134      1.60851
     2.81000      0.25438      2.69834      0.02152      1.61064
     2.82000      0.26317      2.72168      0.02169      1.61279
     2.83000      0.27259      2.74574      0.02188      1.61496
     2.84000      0.28265      2.77056      0.02206      1.61715
     2.85000      0.29341      2.79619      0.02225      1.61936
     2.86000      0.30491      2.82265      0.02244      1.62158
     2.87000      0.31720      2.85001      0.02263      1.62382
     2.88000      0.33036      2.87832      0.02282      1.62609
     2.89000      0.34447      2.90764      0.02302      1.62837
     2.90000      0.35962      2.93803      0.02322      1.63067
     2.91000      0.37592      2.96955      0.02342      1.63299
     2.92000      0.39349      3.00225      0.02363      1.63534
     2.93000      0.41247      3.03621      0.02384      1.63770
     2.94000      0.43302      3.07148      0.02406      1.64008
     2.95000      0.45531      3.10813      0.02427      1.64249
     2.96000      0.47954      3.14623      0.02449      1.64491
     2.97000      0.50594      3.18584      0.02472      1.64736
     2.98000      0.53478      3.22702      0.02494      1.64983
     2.99000      0.56637      3.26984      0.02517      1.65233
     3.00000      0.60106      3.31432      0.02541      1.65484
     3.01000      0.63927      3.36048      0.02565      1.65738
     3.02000      0.68145      3.40833      0.02589      1.65994
     3.03000      0.72815      3.45781      0.02614      1.66253
     3.04000      0.77997      3.50884      0.02639      1.66514
     3.05000      0.83761      3.56126      0.02664      1.66778
     3.06000      0.90189      3.61481      0.02690      1.67044
     3.07000      0.97372      3.66913      0.02717      1.67313
     3.08000      1.05414      3.72368      0.02744      1.67585
     3.09000      1.14432      3.77770      0.02771      1.67859
     3.10000      1.24552      3.83012      0.02799      1.68135
     3.11000      1.35914      3.87952      0.02828      1.68415
     3.12000      1.48657      3.92393      0.02857      1.68697
     3.13000      1.62916      3.96077      0.02886      1.68983
     3.14000      1.78801      3.98667      0.02916      1.69271
     3.15000      1.96374      3.99738      0.02947      1.69562
     3.16000      2.15604      3.98762      0.02978      1.69856
     3.17000      2.36318      3.95123      0.03010      1.70153
     3.18000      2.58135      3.88141      0.03042      1.70454
     3.19000      2.80396      3.77145      0.03075      1.70758
     3.20000      3.02120      3.61586      0.03109      1.71064
     3.21000      3.22013      3.41210      0.03144      1.71375
     3.22000      3.38568      3.16228      0.03179      1.71688
     3.23000      3.50289      2.87460      0.03215      1.72005
     3.24000      3.55985      2.56330      0.03252      1.72326
     3.25000      3.55068      2.24696      0.03289      1.72650
     3.26000      3.47713      1.94523      0.03328      1.72978
     3.27000      3.34805      1.67512      0.03367      1.73310
     3.28000      3.17711      1.44830      0.03407      1.73646
     3.29000      2.97970      1.27018      0.03448      1.73985
     3.30000      2.77016      1.14064      0.03490      1.74329
     3.31000      2.56016      1.05560      0.03533      1.74677
     3.32000      2.35808      1.00888      0.03577      1.75028
     3.33000      2.16923      0.99364      0.03622      1.75385
     3.34000      1.99646      1.00330      0.03668      1.75745
     3.35000      1.84081      1.03211      0.03716      1.76110
     3.36000      1.70219      1.07527      0.03764      1.76480
     3.37000      1.57976      1.12894      0.03814      1.76855
     3.38000      1.47231      1.19015      0.03865      1.77234
     3.39000      1.37851      1.25666      0.03918      1.77619
     3.40000      1.29699      1.32678      0.03972      1.78008
     3.41000      1.22648      1.39930      0.04028      1.78403
     3.42000      1.16578      1.47335      0.04085      1.78803
     3.43000      1.11386      1.54831      0.04144      1.79208
     3.44000      1.06978      1.62378      0.04204      1.79620
     3.45000      1.03277      1.69951      0.04267      1.80037
     3.46000      1.00212      1.77535      0.04331      1.80460
     3.47000      0.97728      1.85125      0.04397      1.80889
     3.48000      0.95776      1.92721      0.04466      1.81325
     3.49000      0.94316      2.00328      0.04536      1.81767
     3.50000      0.93316      2.07955      0.04609      1.82216
     3.51000      0.92752      2.15613      0.04685      1.82672
     3.52000      0.92605      2.23315      0.04763      1.83135
     3.53000      0.92860      2.31076      0.04844      1.83605
     3.54000      0.93512      2.38913      0.04928      1.84083
     3.55000      0.94556      2.46841      0.05015      1.84569
     3.56000      0.95996      2.54879      0.05106      1.85063
     3.57000      0.97839      2.63046      0.05200      1.85566
     3.58000      1.00097      2.71360      0.05297      1.86077
     3.59000      1.02788      2.79840      0.05399      1.86597
     3.60000      1.05934      2.88507      0.05505      1.87127
     3.61000      1.09566      2.97380      0.05616      1.87666
     3.62000      1.13718      3.06479      0.05731      1.88216
     3.63000      1.18432      3.15823      0.05852      1.88776
     3.64000      1.23760      3.25432      0.05979      1.89347
     3.65000      1.29761      3.35321      0.06112      1.89929
     3.66000      1.36506      3.45509      0.06251      1.90523
     3.67000      1.44074      3.56006      0.06397      1.91128
     3.68000      1.52565      3.66824      0.06551      1.91747
     3.69000      1.62086      3.77963      0.06714      1.92379
     3.70000      1.72769      3.89419      0.06885      1.93025
     3.71000      1.84760      4.01172      0.07067      1.93686
     3.72000      1.98237      4.13192      0.07259      1.94361
     3.73000      2.13393      4.25421      0.07463      1.95052
     3.74000      2.30463      4.37777      0.07679      1.95760
     3.75000      2.49701      4.50132      0.07910      1.96485
     3.76000      2.71407      4.62309      0.08157      1.97228
     3.77000      2.95899      4.74055      0.08420      1.97989
     3.78000      3.23539      4.85028      0.08702      1.98771
     3.79000      3.54686      4.94758      0.09006      1.99572
     3.80000      3.89713      5.02625      0.09332      2.00395
     3.81000      4.28925      5.07810      0.09685      2.01240
    3.820000     4.725463     5.092694     0.100659     2.021083
    3.830000     5.205760     5.056997     0.104794     2.030001
    3.840000     5.727149     4.955432     0.109293     2.039165
    3.850000     6.281411     4.770468     0.114198     2.048578
    3.860000     6.853954     4.483916     0.119563     2.058246
    3.869999     7.421597     4.079853     0.125447     2.068166
    3.880000     7.952912     3.548212     0.131919     2.078338
    3.889999     8.409297     2.890085     0.139057     2.088749
    3.900000     8.750413     2.121214     0.146954     2.099384
    3.910001     8.941031     1.274179     0.155714     2.110212
    3.920000     8.959533     0.395142     0.165453     2.121185
    3.930001     8.803533    -0.464176     0.176312     2.132240
    3.940000     8.490571    -1.255296     0.188437     2.143280
    3.950001     8.053230    -1.942392     0.202002     2.154176
    3.960000     7.531610    -2.505441     0.217183     2.164743
    3.970001     6.964981    -2.940518     0.234173     2.174738
    3.980000     6.386969    -3.255335     0.253148     2.183833
    3.990001     5.822407    -3.464998     0.274271     2.191603
    4.000000     5.288043    -3.587364     0.297631     2.197501
    4.010001     4.793143    -3.640351     0.323225     2.200852
    4.020000     4.341986    -3.640051     0.350857     2.200854
    4.030001     3.934914    -3.600111     0.380087     2.196612
    4.040000     3.570295    -3.531583     0.410105     2.187217
    4.050001     3.245008    -3.443130     0.439697     2.171889
    4.060000     2.955583    -3.341430     0.467200     2.150197
    4.070001     2.698209    -3.231472     0.490651     2.122279
    4.080000     2.469373    -3.117009     0.508011     2.089070
    4.090001     2.265656    -3.000724     0.517585     2.052316
    4.100000     2.084087    -2.884610     0.518405     2.014423
    4.110001     1.921904    -2.770009     0.510500     1.978012
    4.120000     1.776778    -2.657915     0.494887     1.945466
    4.130001     1.646572    -2.548925     0.473291     1.918487
    4.140000     1.529511    -2.443479     0.447756     1.897968
    4.150001     1.423975    -2.341770     0.420239     1.884010
    4.160000     1.328626    -2.243942     0.392380     1.876158
    4.170001     1.242242    -2.149978     0.365373     1.873621
    4.180000     1.163817    -2.059867     0.340008     1.875491
    4.190001     1.092426    -1.973493     0.316710     1.880877
    4.200000     1.027308    -1.890766     0.295666     1.888981
    4.210001     0.967760    -1.811527     0.276874     1.899141
    4.219999     0.913205    -1.735654     0.260241     1.910816
    4.230000     0.863103    -1.662973     0.245606     1.923590
    4.239999     0.817012    -1.593354     0.232792     1.937140
    4.250000     0.774513    -1.526627     0.221610     1.951231
    4.259999     0.735266    -1.462662     0.211883     1.965682
    4.270000     0.698944    -1.401299     0.203445     1.980371
    4.280001     0.665276    -1.342412     0.196147     1.995204
    4.290000     0.634019    -1.285877     0.189858     2.010118
    4.300001     0.604946    -1.231553     0.184459     2.025076
    4.310000     0.577869    -1.179339     0.179851     2.040048
    4.320001     0.552606    -1.129108     0.175945     2.055024
    4.330000     0.529009    -1.080770     0.172666     2.069994
    4.340001     0.506930    -1.034211     0.169946     2.084963
    4.350000     0.486251    -0.989352     0.167731     2.099931
    4.360001     0.466852    -0.946090     0.165971     2.114912
    4.370000     0.448636    -0.904358     0.164624     2.129910
    4.380001     0.431507    -0.864063     0.163655     2.144943
    4.390000     0.415385    -0.825146     0.163032     2.160017
    4.400001     0.400191    -0.787525     0.162728     2.175154
    4.410000     0.385859    -0.751149     0.162722     2.190363
    4.420001     0.372323    -0.715944     0.162994     2.205661
    4.430000     0.359531    -0.681863     0.163527     2.221061
    4.440001     0.347425    -0.648844     0.164308     2.236582
    4.450000     0.335963    -0.616845     0.165325     2.252234
    4.460001     0.325098    -0.585807     0.166568     2.268037
    4.470000     0.314792    -0.555696     0.168030     2.284002
    4.480000     0.305007    -0.526461     0.169704     2.300149
    4.490000     0.295711    -0.498070     0.171586     2.316489
    4.500000     0.286870    -0.470476     0.173672     2.333043
    4.510000     0.278460    -0.443652     0.175961     2.349820
    4.520000     0.270451    -0.417556     0.178451     2.366842
    4.530000     0.262821    -0.392163     0.181142     2.384121
    4.540000     0.255545    -0.367435     0.184035     2.401677
    4.550000     0.248606    -0.343352     0.187133     2.419522
    4.560000     0.241981    -0.319878     0.190438     2.437680
    4.570000     0.235655    -0.296995     0.193955     2.456161
    4.580000     0.229610    -0.274672     0.197688     2.474990
    4.590000     0.223831    -0.252892     0.201643     2.494178
    4.600000     0.218303    -0.231626     0.205827     2.513752
    4.610000     0.213015    -0.210859     0.210247     2.533725
    4.620000     0.207952    -0.190564     0.214912     2.554123
    4.630001     0.203104    -0.170727     0.219833     2.574965
    4.640000     0.198460    -0.151331     0.225019     2.596271
    4.650001     0.194010    -0.132354     0.230484     2.618068
    4.660000     0.189745    -0.113785     0.236238     2.640374
     4.67000      0.18566     -0.09560      0.24230      2.66322
     4.68000      0.18173     -0.07779      0.24868      2.68663
     4.69000      0.17797     -0.06034      0.25540      2.71063
     4.70000      0.17436     -0.04324      0.26248      2.73525
     4.71000      0.17090     -0.02646      0.26993      2.76053
     4.72000      0.16758     -0.01001      0.27779      2.78648
      4.7300       0.1644       0.0061       0.2861       2.8131
     4.74000      0.16134      0.02199      0.29480      2.84057
     4.75000      0.15841      0.03757      0.30401      2.86878
     4.76000      0.15559      0.05286      0.31374      2.89781
     4.77000      0.15289      0.06790      0.32401      2.92772
     4.78000      0.15031      0.08269      0.33487      2.95854
     4.79000      0.14783      0.09723      0.34636      2.99032
    4.800000     0.145459     0.111542     0.358524     3.023104
    4.810000     0.143187     0.125633     0.371412     3.056954
    4.820000     0.141015     0.139507     0.385077     3.091915
    4.830000     0.138939     0.153179     0.399586     3.128056
    4.840000     0.136957     0.166651     0.415000     3.165429
    4.850000     0.135068     0.179937     0.431398     3.204111
    4.860000     0.133270     0.193040     0.448858     3.244160
    4.870000     0.131562     0.205970     0.467477     3.285663
    4.880000     0.129943     0.218733     0.487347     3.328686
    4.890000     0.128412     0.231339     0.508590     3.373327
    4.900000     0.126969     0.243791     0.531321     3.419661
    4.910000     0.125614     0.256098     0.555689     3.467795
    4.920000     0.124348     0.268263     0.581840     3.517815
    4.930000     0.123171     0.280295     0.609959     3.569840
    4.940000     0.122085     0.292196     0.640232     3.623966
    4.950000     0.121090     0.303972     0.672889     3.680324
    4.960000     0.120187     0.315625     0.708168     3.739018
    4.970000     0.119378     0.327159     0.746363     3.800189
    4.980000     0.118663     0.338574     0.787780     3.863950
    4.990000     0.118041     0.349874     0.832794     3.930448
    5.000001     0.117511     0.361059     0.881810     3.999805
    5.010000     0.117070     0.372129     0.935290     4.072135
    5.020001     0.116713     0.383089     0.993786     4.147582
    5.030000     0.116438     0.393942     1.057896     4.226229
    5.040001     0.116240     0.404698     1.128343     4.308186
    5.050000     0.116119     0.415360     1.205916     4.393480
    5.060001     0.116078     0.425939     1.291569     4.482148
    5.070000     0.116119     0.436436     1.386347     4.574101
    5.080001     0.116248     0.446853     1.491512     4.669219
    5.090000     0.116465     0.457185     1.608444     4.767190
    5.100001     0.116765     0.467426     1.738802     4.867588
    5.110000     0.117136     0.477571     1.884395     4.969684
    5.120001     0.117556     0.487622     2.047361     5.072489
    5.130000     0.118001     0.497588     2.229992     5.174512
    5.140001     0.118447     0.507499     2.434927     5.273750
    5.150000     0.118879     0.517389     2.664864     5.367379
    5.160001     0.119296     0.527311     2.922718     5.451662
    5.170000     0.119713     0.537307     3.211124     5.521566
    5.180001     0.120164     0.547422     3.532435     5.570609
    5.190000     0.120688     0.557682     3.887830     5.590520
    5.200001     0.121331     0.568106     4.276957     5.571179
    5.210000     0.122135     0.578695     4.696454     5.500744
    5.220001     0.123140     0.589450     5.139214     5.366249
    5.230000     0.124376     0.600362     5.592611     5.155084
    5.240001     0.125876     0.611427     6.038283     4.857111
    5.250000     0.127664     0.622636     6.451908     4.468081
    5.260001     0.129768     0.633986     6.805953     3.992543
    5.270000     0.132215     0.645469     7.073487     3.446584
    5.280000     0.135035     0.657084     7.234338     2.856855
    5.289999     0.138261     0.668822     7.279988     2.257475
    5.300000     0.141929     0.680678     7.216250     1.682842
    5.309999     0.146078     0.692639     7.061699     1.161497
    5.320000     0.150753     0.704692     6.842737     0.710627
    5.329999     0.155997     0.716811     6.587640     0.335375
     5.34000      0.16186      0.72897      6.32099      0.02999
    5.349999     0.168377     0.741134     6.060670    -0.218220
    5.360000     0.175599     0.753259     5.816280    -0.425333
    5.370001     0.183558     0.765299     5.589777    -0.607016
    5.380000     0.192281     0.777207     5.376814    -0.775807
    5.390001     0.201797     0.788942     5.168955    -0.939231
    5.400000     0.212125     0.800470     4.956755    -1.098793
    5.410001     0.223304     0.811775     4.732361    -1.250754
    5.420000     0.235387     0.822844     4.491976    -1.387807
    5.430001     0.248470     0.833674     4.236390    -1.501899
    5.440000     0.262691     0.844234     3.970594    -1.586516
    5.450001     0.278243     0.854455     3.701743    -1.638293
    5.460000     0.295341     0.864185     3.437570    -1.657164
    5.470001     0.314217     0.873188     3.184595    -1.645770
    5.480000     0.335068     0.881121     2.947729    -1.608377
    5.490001     0.358053     0.887548     2.729832    -1.549869
    5.500000     0.383236     0.891933     2.532285    -1.475070
    5.510001     0.410589     0.893651     2.355113    -1.388239
    5.520000     0.439920     0.891991     2.197655    -1.292987
    5.530001     0.470856     0.886183     2.058668    -1.192136
    5.540000     0.502746     0.875451     1.936785    -1.087902
    5.550001     0.534659     0.859096     1.830506    -0.981853
    5.560000     0.565339     0.836638     1.738481    -0.875153
    5.570001     0.593300     0.807924     1.659438    -0.768527
    5.580000     0.616905     0.773266     1.592355    -0.662492
    5.590001     0.634549     0.733469     1.536356    -0.557311
    5.600000     0.644817     0.689886     1.490806    -0.453198
    5.610001     0.646695     0.644317     1.455215    -0.350230
    5.620000     0.639757     0.598925     1.429284    -0.248523
    5.630001     0.624305     0.555934     1.412846    -0.148120
     5.64000      0.60138      0.51737      1.40590     -0.04915
     5.65000      0.57258      0.48474      1.40856      0.04828
    5.659999     0.539826     0.458865     1.421126     0.143931
    5.670001     0.504990     0.439899     1.444022     0.237524
    5.679999     0.469725     0.427458     1.477824     0.328563
    5.690001     0.435286     0.420794     1.523274     0.416402
    5.699999     0.402554     0.419007     1.581216     0.500055
    5.710001     0.372037     0.421174     1.652625     0.578223
    5.719999     0.343990     0.426445     1.738464     0.649071
    5.730000     0.318456     0.434093     1.839664     0.710214
    5.740001     0.295369     0.443517     1.956854     0.758503
    5.750000     0.274595     0.454235     2.090114     0.789976
    5.760001     0.255952     0.465876     2.238657     0.799828
    5.770000     0.239266     0.478142     2.400166     0.782512
    5.780001     0.224349     0.490812     2.570388     0.732128
    5.790000     0.211031     0.503705     2.742392     0.643206
    5.800001     0.199144     0.516692     2.906513     0.511831
    5.810000     0.188539     0.529669     3.050508     0.337288
    5.820001     0.179070     0.542566     3.161033     0.123382
    5.830000     0.170613     0.555329     3.225722    -0.120547
    5.840001     0.163052     0.567930     3.235996    -0.380441
    5.850000     0.156289     0.580349     3.189213    -0.639333
    5.860001     0.150236     0.592580     3.089366    -0.880795
    5.870000     0.144821     0.604619     2.946051    -1.091590
    5.880001     0.139979     0.616473     2.771922    -1.263764
    5.890000     0.135656     0.628144     2.580201    -1.394573
    5.900001     0.131805     0.639643     2.382419    -1.485692
    5.910000     0.128384     0.650977     2.187594    -1.541496
    5.920001     0.125356     0.662159     2.001790    -1.567712
    5.930000     0.122692     0.673196     1.828717    -1.570240
    5.940001     0.120362     0.684105     1.670058    -1.554531
    5.950000     0.118345     0.694894     1.526279    -1.525272
    5.960001     0.116619     0.705580     1.396896    -1.486276
    5.970000     0.115167     0.716173     1.281030    -1.440583
    5.980000     0.113977     0.726690     1.177488    -1.390501
    5.990000     0.113036     0.737140     1.085070    -1.337810
    6.000000     0.112336     0.747542     1.002536    -1.283796
    6.010000     0.111870     0.757905     0.928776    -1.229430
    6.020000     0.111636     0.768246     0.862728    -1.175380
    6.030000     0.111630     0.778576     0.803487    -1.122144
    6.040000     0.111853     0.788912     0.750211    -1.070036
    6.050000     0.112309     0.799263     0.702199    -1.019291
    6.060000     0.113002     0.809646     0.658804    -0.970029
    6.070000     0.113940     0.820073     0.619494    -0.922340
    6.080000     0.115132     0.830558     0.583780    -0.876240
    6.089999     0.116592     0.841112     0.551259    -0.831746
    6.100000     0.118336     0.851752     0.521561    -0.788819
    6.110001     0.120382     0.862486     0.494379    -0.747432
    6.120000     0.122753     0.873327     0.469442    -0.707544
    6.130001     0.125477     0.884286     0.446505    -0.669090
    6.140000     0.128585     0.895371     0.425367    -0.632022
    6.150001     0.132114     0.906591     0.405838    -0.596272
    6.160000     0.136105     0.917946     0.387762    -0.561792
    6.170001     0.140610     0.929440     0.370994    -0.528513
    6.180000     0.145682     0.941062     0.355414    -0.496388
    6.190001     0.151386     0.952803     0.340906    -0.465352
    6.200000     0.157790     0.964634     0.327376    -0.435361
    6.210001     0.164975     0.976520     0.314733    -0.406356
    6.220000     0.173019     0.988401     0.302905    -0.378296
    6.230001     0.182010     1.000202     0.291816    -0.351129
    6.240000     0.192025     1.011814     0.281409    -0.324817
    6.250000     0.203134     1.023101     0.271626    -0.299314
    6.260000     0.215376     1.033890     0.262418    -0.274585
    6.270000     0.228754     1.043984     0.253738    -0.250589
    6.280000     0.243202     1.053162     0.245549    -0.227296
    6.290000     0.258584     1.061220     0.237810    -0.204667
    6.300000     0.274672     1.067996     0.230491    -0.182679
    6.310000     0.291180     1.073430     0.223559    -0.161294
    6.320000     0.307797     1.077600     0.216989    -0.140492
    6.330000     0.324286     1.080744     0.210754    -0.120241
    6.340000     0.340551     1.083223     0.204833    -0.100522
     6.35000      0.35673      1.08543      0.19920     -0.08131
     6.36000      0.37318      1.08769      0.19385     -0.06258
     6.37000      0.39046      1.09012      0.18875     -0.04431
     6.38000      0.40920      1.09259      0.18388     -0.02648
      6.3900       0.4300       1.0947       0.1792      -0.0091
      6.4000       0.4535       1.0957       0.1748       0.0079
     6.41000      0.47987      1.09469      0.17059      0.02452
     6.42000      0.50929      1.09051      0.16655      0.04075
     6.43000      0.54144      1.08179      0.16269      0.05662
     6.44000      0.57552      1.06712      0.15899      0.07215
     6.45000      0.61015      1.04518      0.15545      0.08734
    6.460001     0.643286     1.014979     0.152058     0.102223
    6.470000     0.672349     0.976270     0.148806     0.116794
    6.480001     0.694494     0.929775     0.145688     0.131073
    6.490000     0.707093     0.877419     0.142697     0.145068
    6.500001     0.708328     0.822143     0.139826     0.158793
    6.510000     0.697656     0.767502     0.137069     0.172255
    6.520001     0.675940     0.716934     0.134421     0.185466
    6.530000     0.645226     0.673187     0.131877     0.198434
    6.540001     0.608193     0.637892     0.129432     0.211169
    6.550000     0.567630     0.611578     0.127082     0.223678
    6.560001     0.525958     0.593850     0.124821     0.235972
    6.570000     0.485062     0.583749     0.122648     0.248056
    6.580001     0.446200     0.580045     0.120557     0.259940
    6.590000     0.410138     0.581475     0.118546     0.271629
    6.600001     0.377212     0.586876     0.116611     0.283132
    6.610000     0.347507     0.595254     0.114750     0.294454
    6.620001     0.320909     0.605800     0.112959     0.305604
    6.630000     0.297222     0.617868     0.111237     0.316585
    6.640001     0.276188     0.630969     0.109580     0.327406
    6.650000     0.257547     0.644728     0.107987     0.338071
    6.660001     0.241033     0.658873     0.106455     0.348588
    6.670000     0.226408     0.673199     0.104984     0.358958
    6.680001     0.213444     0.687565     0.103570     0.369192
    6.690000     0.201949     0.701867     0.102213     0.379290
    6.700000     0.191744     0.716039     0.100911     0.389261
     6.71000      0.18268      0.73003      0.09966      0.39911
     6.72000      0.17462      0.74383      0.09847      0.40884
     6.73000      0.16745      0.75740      0.09732      0.41845
     6.74000      0.16107      0.77075      0.09623      0.42796
     6.75000      0.15539      0.78387      0.09519      0.43735
     6.76000      0.15034      0.79679      0.09419      0.44665
     6.77000      0.14585      0.80949      0.09325      0.45586
     6.78000      0.14186      0.82201      0.09236      0.46497
     6.79000      0.13834      0.83434      0.09151      0.47399
     6.80000      0.13523      0.84651      0.09072      0.48293
     6.81000      0.13250      0.85852      0.08997      0.49179
     6.82000      0.13011      0.87040      0.08928      0.50057
     6.83000      0.12805      0.88217      0.08863      0.50928
     6.84000      0.12628      0.89382      0.08804      0.51793
     6.85000      0.12479      0.90538      0.08751      0.52651
     6.86000      0.12356      0.91687      0.08703      0.53502
     6.87000      0.12258      0.92830      0.08661      0.54349
     6.88000      0.12183      0.93967      0.08625      0.55190
     6.89000      0.12130      0.95101      0.08596      0.56026
     6.90000      0.12099      0.96232      0.08573      0.56858
     6.91000      0.12089      0.97362      0.08558      0.57685
     6.92000      0.12099      0.98492      0.08551      0.58508
     6.93000      0.12129      0.99623      0.08552      0.59328
     6.94000      0.12179      1.00755      0.08563      0.60143
     6.95000      0.12248      1.01890      0.08584      0.60956
     6.96000      0.12337      1.03028      0.08616      0.61765
     6.97000      0.12445      1.04170      0.08661      0.62571
     6.98000      0.12572      1.05317      0.08719      0.63372
     6.99000      0.12718      1.06469      0.08793      0.64169
     7.00000      0.12883      1.07627      0.08883      0.64961
     7.01000      0.13065      1.08791      0.08993      0.65746
     7.02000      0.13264      1.09963      0.09123      0.66522
     7.03000      0.13480      1.11143      0.09277      0.67286
     7.04000      0.13711      1.12333      0.09456      0.68036
     7.05000      0.13956      1.13537      0.09661      0.68765
     7.06000      0.14215      1.14757      0.09894      0.69469
    7.070001     0.144887     1.159985     0.101539     0.701382
    7.079999     0.147800     1.172638     0.104381     0.707646
    7.090001     0.150917     1.185573     0.107407     0.713383
    7.099999     0.154277     1.198812     0.110517     0.718494
    7.110001     0.157926     1.212375     0.113563     0.722902
    7.119999     0.161907     1.226269     0.116348     0.726575
    7.130001     0.166265     1.240501     0.118651     0.729553
    7.139999     0.171043     1.255064     0.120248     0.731964
    7.150000     0.176281     1.269959     0.120968     0.734027
    7.159999     0.182021     1.285175     0.120730     0.736025
    7.170000     0.188307     1.300709     0.119569     0.738252
    7.179999     0.195181     1.316544     0.117621     0.740958
    7.190000     0.202692     1.332669     0.115093     0.744315
    7.200001     0.210887     1.349060     0.112217     0.748402
    7.210000     0.219814     1.365689     0.109204     0.753214
    7.220001     0.229529     1.382529     0.106227     0.758692
    7.230000     0.240086     1.399537     0.103409     0.764745
    7.240001     0.251551     1.416667     0.100827     0.771275
     7.25000      0.26399      1.43384      0.09852      0.77819
     7.26000      0.27749      1.45096      0.09652      0.78540
     7.27000      0.29210      1.46787      0.09480      0.79285
     7.28000      0.30786      1.48438      0.09338      0.80047
     7.29000      0.32472      1.50023      0.09222      0.80824
     7.30000      0.34254      1.51514      0.09131      0.81612
     7.31000      0.36103      1.52884      0.09063      0.82410
     7.32000      0.37978      1.54116      0.09017      0.83215
     7.33000      0.39822      1.55206      0.08992      0.84027
     7.34000      0.41572      1.56178      0.08985      0.84846
     7.35000      0.43171      1.57081      0.08997      0.85671
     7.36000      0.44583      1.57995      0.09027      0.86503
     7.37000      0.45800      1.59010      0.09073      0.87341
     7.38000      0.46856      1.60221      0.09137      0.88187
     7.39000      0.47813      1.61702      0.09217      0.89042
     7.40000      0.48751      1.63502      0.09314      0.89904
     7.41000      0.49758      1.65641      0.09428      0.90777
     7.42000      0.50913      1.68117      0.09560      0.91660
     7.43000      0.52286      1.70914      0.09710      0.92554
     7.44000      0.53936      1.74005      0.09879      0.93461
    7.450000     0.559093     1.773638     0.100689     0.943805
    7.460001     0.582497     1.809660     0.102804     0.953150
    7.470000     0.609962     1.847876     0.105151     0.962650
    7.480000     0.641908     1.888096     0.107751     0.972320
    7.490000     0.678775     1.930118     0.110623     0.982170
    7.500000     0.721089     1.973759     0.113794     0.992215
    7.510000     0.769434     2.018783     0.117291     1.002466
    7.520000     0.824520     2.064926     0.121148     1.012939
    7.529999     0.887141     2.111804     0.125403     1.023644
    7.540000     0.958251     2.158934     0.130101     1.034597
    7.549999     1.038895     2.205610     0.135290     1.045807
    7.560000     1.130296     2.250906     0.141031     1.057287
    7.570001     1.233751     2.293528     0.147390     1.069046
    7.580000     1.350623     2.331738     0.154443     1.081086
    7.590001     1.482328     2.363242     0.162281     1.093413
    7.600000     1.630055     2.385004     0.171005     1.106016
    7.610001     1.794724     2.393144     0.180736     1.118887
    7.620000     1.976449     2.382804     0.191608     1.131995
    7.630001     2.174286     2.348136     0.203781     1.145299
    7.640000     2.385377     2.282494     0.217433     1.158730
    7.650001     2.604521     2.178883     0.232771     1.172194
    7.660000     2.823287     2.030996     0.250021     1.185548
    7.670001     3.030059     1.834533     0.269445     1.198601
    7.680000     3.210315     1.589213     0.291313     1.211082
    7.690001     3.348529     1.300192     0.315922     1.222630
    7.700000     3.430692     0.979153     0.343550     1.232760
    7.710001     3.447627     0.643051     0.374455     1.240839
    7.720000     3.397298     0.311837     0.408799     1.246051
    7.730        3.285       0.4328E-2    0.4466        1.247   
    7.740000     3.123812    -0.264738     0.487636     1.243628
    7.750000     2.927649    -0.486944     0.531279     1.233405
    7.760000     2.712268    -0.659857     0.576383     1.215300
    7.770000     2.490840    -0.786008     0.621185     1.188043
    7.780000     2.273507    -0.870830     0.663213     1.150847
    7.790000     2.066988    -0.921150     0.699485     1.103742
    7.800000     1.875321    -0.943859     0.726815     1.047954
    7.810000     1.700267    -0.945268     0.742441     0.985974
    7.820000     1.542233    -0.930747     0.744625     0.921398
    7.830000     1.400589    -0.904666     0.733133     0.858278
    7.840000     1.274277    -0.870481     0.709297     0.800427
    7.850000     1.161904    -0.830837     0.675642     0.750689
    7.860000     1.062083    -0.787747     0.635302     0.710669
    7.870000     0.973393    -0.742688     0.591361     0.680711
    7.880000     0.894565    -0.696763     0.546471     0.660233
    7.890000     0.824393    -0.650743     0.502597     0.648065
    7.900000     0.761847    -0.605199     0.461071     0.642811
    7.910000     0.705977    -0.560499     0.422635     0.643070
    7.920000     0.655987    -0.516914     0.387633     0.647574
    7.930000     0.611153    -0.474595     0.356101     0.655253
    7.940001     0.570868    -0.433641     0.327911     0.665236
    7.950000     0.534602    -0.394105     0.302835     0.676838
    7.960001     0.501882    -0.355981     0.280587     0.689539
    7.970000     0.472318    -0.319265     0.260884     0.702939
    7.980001     0.445553    -0.283910     0.243439     0.716752
    7.990000     0.421294    -0.249882     0.227997     0.730759
    8.000001     0.399273    -0.217114     0.214314     0.744813
    8.010000     0.379270    -0.185558     0.202186     0.758801
    8.020000     0.361082    -0.155143     0.191421     0.772655
    8.030000     0.344543    -0.125814     0.181862     0.786322
     8.04000      0.32950     -0.09750      0.17336      0.79978
     8.05000      0.31583     -0.07015      0.16581      0.81300
     8.06000      0.30342     -0.04370      0.15908      0.82599
     8.07000      0.29218     -0.01809      0.15311      0.83874
    8.080       0.2820       0.6740E-2    0.1478       0.8513   
     8.09000      0.27287      0.03083      0.14308      0.86357
     8.10000      0.26469      0.05424      0.13890      0.87567
     8.11000      0.25742      0.07702      0.13521      0.88758
     8.12000      0.25103      0.09920      0.13196      0.89931
    8.130000     0.245489     0.120834     0.129131     0.910883
    8.140000     0.240791     0.141957     0.126673     0.922310
    8.150000     0.236926     0.162595     0.124567     0.933606
    8.160001     0.233899     0.182784     0.122790     0.944792
    8.170000     0.231725     0.202539     0.121324     0.955880
    8.180000     0.230428     0.221880     0.120154     0.966890
    8.190000     0.230044     0.240803     0.119269     0.977834
    8.200001     0.230619     0.259308     0.118660     0.988731
    8.210000     0.232211     0.277364     0.118322     0.999592
    8.220000     0.234887     0.294933     0.118252     1.010437
    8.230000     0.238719     0.311939     0.118452     1.021276
    8.240001     0.243787     0.328286     0.118923     1.032127
    8.249999     0.250161     0.343830     0.119673     1.043002
    8.260000     0.257903     0.358392     0.120710     1.053917
    8.270000     0.267038     0.371736     0.122047     1.064882
    8.280001     0.277547     0.383587     0.123701     1.075912
    8.290001     0.289336     0.393629     0.125690     1.087018
    8.300000     0.302210     0.401530     0.128040     1.098206
    8.310001     0.315873     0.406986     0.130778     1.109490
    8.320000     0.329918     0.409753     0.133939     1.120869
    8.330001     0.343865     0.409692     0.137561     1.132351
    8.340000     0.357196     0.406792     0.141689     1.143928
    8.350001     0.369411     0.401157     0.146372     1.155597
    8.360000     0.380042     0.392990     0.151665     1.167337
    8.370001     0.388668     0.382561     0.157628     1.179129
    8.380000     0.394900     0.370216     0.164322     1.190935
    8.390000     0.398398     0.356378     0.171813     1.202713
    8.400000     0.398899     0.341563     0.180162     1.214405
    8.410001     0.396252     0.326348     0.189435     1.225952
    8.420000     0.390442     0.311345     0.199692     1.237282
    8.430000     0.381579     0.297152     0.211006     1.248328
    8.440000     0.369908     0.284345     0.223460     1.259010
    8.450001     0.355784     0.273432     0.237174     1.269236
    8.460000     0.339695     0.264842     0.252294     1.278872
    8.470000     0.322213     0.258862     0.269011     1.287719
    8.480000     0.303968     0.255615     0.287519     1.295465
    8.490001     0.285563     0.255044     0.307995     1.301670
    8.500000     0.267534     0.256945     0.330518     1.305734
    8.510000     0.250290     0.261015     0.355024     1.306913
    8.520000     0.234129     0.266893     0.381185     1.304340
    8.530001     0.219220     0.274216     0.408356     1.297106
    8.540000     0.205645     0.282638     0.435463     1.284396
    8.550000     0.193409     0.291860     0.461021     1.265667
    8.559999     0.182474     0.301621     0.483177     1.240906
    8.570001     0.172765     0.311716     0.499969     1.210806
    8.580000     0.164202     0.321971     0.509652     1.176889
    8.590000     0.156694     0.332255     0.511122     1.141331
    8.599999     0.150153     0.342453     0.504191     1.106654
    8.610001     0.144495     0.352477     0.489642     1.075209
    8.620000     0.139639     0.362244     0.469021     1.048800
    8.630000     0.135504     0.371682     0.444247     1.028433
    8.639999     0.132006     0.380721     0.417248     1.014357
    8.650001     0.129052     0.389296     0.389659     1.006219
    8.660001     0.126532     0.397349     0.362724     1.003310
    8.670000     0.124318     0.404838     0.337273     1.004767
    8.680001     0.122264     0.411754     0.313774     1.009721
    8.690001     0.120215     0.418123     0.292446     1.017385
    8.700001     0.118026     0.424029     0.273316     1.027094
    8.710000     0.115585     0.429594     0.256307     1.038304
    8.720001     0.112833     0.434980     0.241271     1.050594
    8.730000     0.109778     0.440342     0.228041     1.063636
    8.740001     0.106479     0.445818     0.216430     1.077190
    8.750000     0.103034     0.451493     0.206269     1.091071
     8.76000      0.09955      0.45741      0.19739      1.10515
     8.77000      0.09612      0.46357      0.18965      1.11934
     8.78000      0.09282      0.46993      0.18292      1.13357
     8.79000      0.08971      0.47646      0.17707      1.14780
     8.80000      0.08681      0.48311      0.17202      1.16201
     8.81000      0.08413      0.48984      0.16766      1.17617
     8.82000      0.08167      0.49660      0.16394      1.19028
     8.83000      0.07943      0.50336      0.16077      1.20435
     8.84000      0.07739      0.51011      0.15811      1.21837
     8.85000      0.07553      0.51683      0.15591      1.23235
     8.86000      0.07384      0.52350      0.15412      1.24632
     8.87000      0.07231      0.53011      0.15271      1.26026
     8.88000      0.07093      0.53667      0.15165      1.27421
     8.89000      0.06967      0.54317      0.15092      1.28817
     8.90000      0.06853      0.54961      0.15048      1.30216
     8.91000      0.06750      0.55599      0.15033      1.31619
     8.92000      0.06657      0.56232      0.15045      1.33028
     8.93000      0.06573      0.56858      0.15082      1.34444
     8.94000      0.06498      0.57480      0.15144      1.35870
     8.95000      0.06431      0.58098      0.15229      1.37305
     8.96000      0.06371      0.58711      0.15337      1.38753
     8.97000      0.06319      0.59320      0.15467      1.40214
     8.98000      0.06273      0.59925      0.15620      1.41691
     8.99000      0.06234      0.60528      0.15794      1.43184
     9.00000      0.06201      0.61128      0.15991      1.44696
     9.01000      0.06175      0.61725      0.16209      1.46228
     9.02000      0.06154      0.62321      0.16451      1.47782
     9.03000      0.06139      0.62916      0.16714      1.49360
     9.04000      0.06129      0.63510      0.17002      1.50963
     9.05000      0.06125      0.64103      0.17313      1.52593
     9.06000      0.06127      0.64696      0.17649      1.54253
     9.07000      0.06134      0.65290      0.18011      1.55944
     9.08000      0.06147      0.65885      0.18400      1.57667
     9.09000      0.06165      0.66481      0.18818      1.59427
     9.10000      0.06190      0.67078      0.19265      1.61224
     9.11000      0.06220      0.67678      0.19743      1.63061
     9.12000      0.06256      0.68281      0.20255      1.64940
     9.13000      0.06298      0.68887      0.20802      1.66864
     9.14000      0.06346      0.69497      0.21386      1.68835
     9.15000      0.06401      0.70111      0.22011      1.70857
     9.16000      0.06463      0.70730      0.22679      1.72932
     9.17000      0.06532      0.71355      0.23393      1.75063
     9.18000      0.06608      0.71985      0.24158      1.77254
     9.19000      0.06692      0.72622      0.24977      1.79508
     9.20000      0.06785      0.73267      0.25854      1.81827
     9.21000      0.06886      0.73919      0.26795      1.84217
     9.22000      0.06996      0.74579      0.27805      1.86681
     9.23000      0.07117      0.75250      0.28892      1.89224
     9.24000      0.07247      0.75930      0.30062      1.91848
     9.25000      0.07389      0.76621      0.31323      1.94559
     9.26000      0.07543      0.77323      0.32685      1.97361
     9.27000      0.07709      0.78039      0.34158      2.00260
     9.28000      0.07890      0.78767      0.35754      2.03258
     9.29000      0.08085      0.79511      0.37488      2.06362
     9.30000      0.08296      0.80270      0.39372      2.09575
     9.31000      0.08525      0.81045      0.41428      2.12902
     9.32000      0.08773      0.81838      0.43672      2.16346
     9.33000      0.09041      0.82650      0.46131      2.19910
     9.34000      0.09333      0.83483      0.48829      2.23595
     9.35000      0.09649      0.84337      0.51797      2.27401
     9.36000      0.09991      0.85214      0.55071      2.31324
    9.370000     0.103643     0.861159     0.586905     2.353601
    9.379999     0.107700     0.870435     0.627010     2.394953
    9.390000     0.112120     0.879990     0.671559     2.437130
    9.400001     0.116943     0.889839     0.721135     2.479854
    9.410000     0.122211     0.899996     0.776388     2.522723
    9.420001     0.127978     0.910481     0.838054     2.565192
    9.430000     0.134298     0.921309     0.906884     2.606478
    9.440001     0.141241     0.932500     0.983683     2.645552
    9.450000     0.148878     0.944063     1.069164     2.681010
    9.460001     0.157300     0.956016     1.163951     2.711058
    9.470000     0.166602     0.968363     1.268319     2.733395
    9.480000     0.176903     0.981114     1.382083     2.745225
    9.490000     0.188331     0.994261     1.504189     2.743290
    9.500001     0.201042     1.007796     1.632499     2.724072
    9.510000     0.215206     1.021686     1.763301     2.684214
    9.520000     0.231030     1.035891     1.891278     2.621169
    9.530000     0.248739     1.050332     2.009481     2.534137
    9.540001     0.268603     1.064904     2.110160     2.424916
    9.550000     0.290914     1.079446     2.185877     2.298585
    9.560000     0.316013     1.093738     2.231249     2.163202
    9.570000     0.344259     1.107468     2.244274     2.028834
    9.580001     0.376054     1.120217     2.227008     1.905581
    9.590000     0.411790     1.131413     2.185063     1.801876
    9.600000     0.451859     1.140307     2.126243     1.723106
    9.610000     0.496558     1.145921     2.058980     1.671458
    9.620001     0.546059     1.147016     1.990951     1.646323
    9.630000     0.600243     1.142074     1.928430     1.645259
    9.640000     0.658601     1.129314     1.876030     1.664852
    9.650000     0.719982     1.106792     1.836955     1.701414
    9.660001     0.782472     1.072592     1.813283     1.751418
    9.669999     0.843195     1.025200     1.806382     1.811652
    9.680000     0.898427     0.963932     1.817196     1.879300
    9.690000     0.943836     0.889515     1.846497     1.951803
    9.700001     0.975194     0.804364     1.895064     2.026813
    9.709999     0.989187     0.712667     1.963744     2.101938
    9.720000     0.984276     0.619739     2.053556     2.174659
    9.730000     0.961096     0.531187     2.165573     2.242032
    9.740000     0.922283     0.451747     2.300953     2.300560
    9.750001     0.871801     0.384645     2.460632     2.345904
    9.760000     0.814056     0.331313     2.645056     2.372705
    9.770001     0.753091     0.291591     2.853829     2.374454
    9.780000     0.692201     0.264263     3.084856     2.343465
    9.790001     0.633704     0.247514     3.333803     2.271151
    9.800000     0.579091     0.239364     3.592931     2.148789
    9.810000     0.529122     0.237920     3.850694     1.968747
    9.820000     0.484092     0.241512     4.091292     1.726592
    9.830001     0.443928     0.248747     4.295935     1.423157
    9.840000     0.408384     0.258488     4.444936     1.066817
    9.850000     0.377074     0.269849     4.521613     0.673675
    9.860000     0.349579     0.282134     4.515993     0.266407
    9.870001     0.325441     0.294825     4.427517    -0.129995
    9.880000     0.304226     0.307536     4.265182    -0.492436
    9.890000     0.285506     0.320008     4.044989    -0.804130
    9.900000     0.268903     0.332064     3.786303    -1.055968
    9.910001     0.254072     0.343611     3.507862    -1.246498
    9.920000     0.240725     0.354599     3.225555    -1.379731
    9.930000     0.228608     0.365021     2.951013    -1.463070
    9.940000     0.217512     0.374883     2.692004    -1.505135
    9.950001     0.207252     0.384216     2.452754    -1.514482
    9.960000     0.197673     0.393052     2.235152    -1.498769
    9.970000     0.188634     0.401440     2.039250    -1.464442
    9.980000     0.180012     0.409440     1.864190    -1.416724
    9.990001     0.171700     0.417132     1.708429    -1.359674
    10.00000      0.16362      0.42461      1.57028     -1.29643
# 
# 04/08/2018 at 00:58 YAMBO @ narro [start]
# 04/08/2018 at 00:59               [end]
#  
# Timing   [Min/Max/Average]: 15s/15s/15s
#
# .-Input file : yambo.in
# | optics                         # [R OPT] Optics
# | bse                            # [R BSE] Bethe Salpeter Equation.
# | bsk                            # [R BSK] Bethe Salpeter Equation kernel
# | bss                            # [R BSS] Bethe Salpeter Equation solver
# | em1s                           # [R Xs] Static Inverse Dielectric Matrix
# | BoseTemp= 0.000000     eV      # Bosonic Temperature
# | FFTGvecs=  3473        RL      # [FFT] Plane-waves
# | Chimod= "hartree"              # [X] IP/Hartree/ALDA/LRC/BSfxc
# | BSEmod= "resonant"             # [BSE] resonant/retarded/coupling
# | BSKmod= "SEX"                  # [BSE] IP/Hartree/HF/ALDA/SEX/BSfxc
# | BSSmod= "d"                    # [BSS] (h)aydock/(d)iagonalization/(i)nversion/(t)ddft`
# | BSENGexx=  51          RL      # [BSK] Exchange components
# | BSENGBlk=  51          RL      # [BSK] Screened interaction block size
# | #WehCpl                        # [BSK] eh interaction included also in coupling
# | % BEnRange
# | -10.00000 | 10.00000 | eV      # [BSS] Energy range
# | %
# | % BDmRange
# |   0.10000 |  0.10000 | eV      # [BSS] Damping range
# | %
# | BEnSteps= 2001                 # [BSS] Energy steps
# | % BLongDir
# | 0.5774E-5 |0.5774E-5 |0.5774E-5 |        # [BSS] [cc] Electric Field
# | %
# | % BSEQptR
# |   1 |  4 |                     # [BSK] Transferred momenta range
# | %
# | % BSEBands
# |   3 | 10 |                     # [BSK] Bands range
# | %
# | % BndsRnXs
# |    1 |  60 |                   # [Xs] Polarization function bands
# | %
# | NGsBlkXs=  51          RL      # [Xs] Response block size
# | % DmRngeXs
# | 0.1000E-2 |0.1000E-2 | eV      # [Xs] Damping range
# | %
# | % LongDrXs
# | 0.1000E-4 | 0.000    | 0.000    |        # [Xs] [cc] Electric Field
# | %
