#                                                           
#  ____  ____     _       ____    ____  ______      ___     
# |_  _||_  _|   / \     |_   \  /   _||_   _ \   ."   `.   
#   \ \  / /    / _ \      |   \/   |    | |_) | /  .-.  \  
#    \ \/ /    / ___ \     | |\  /| |    |  __". | |   | |  
#    _|  |_  _/ /   \ \_  _| |_\/_| |_  _| |__) |\  `-"  /  
#   |______||____| |____||_____||_____||_______/  `.___."   
#                                                           
#                                                           
#                                                           
#        Version 4.3.0 Revision 15338 Hash 3cdf17c          
#                      MPI+SLK Build                        
#                http://www.yambo-code.org                  
#
# Absorption @ Q(4) [iku] : 0.500000  0.250000  0.500000
#
#
# - Energies      are Teter 93(XC)
# - Wavefunctions are Teter 93(XC)
#
# - The Green`s function is Resonant -
#
#   BSK|Identifier              :7789
#      |Dimension               :96
#      |Bands                   :3 - 10
#      |Exchange           [res]: yes
#      |Correlation        [res]: yes
#      |Kernel`s coupling       : no
#      |Exchange           [cpl]: no
#      |Correlation        [cpl]: no
#      |W interaction is bare   : no
#      |ALDA kernel in R-space  : no
#      |RL vectors    [exchange]:51
#      |RL vectors [correlation]:51
#      |E/h energy range    [ev]:-1.000000 - -1.000000
#      |Coupling range     [o/o]: 100.0000 -  100.0000
#    W |Interaction is diagonal : no
#      |Matrix size             :51
#      |Bands                   :1 - 60
#      |e/h energy range    [ev]:-1.000000 - -1.000000
#      |Poles              [o/o]: 100.0000
#      |RL vectors in the sum   :3473
#      |[r,Vnl] included        : yes
#      |Field direction         :0.1000E-4  0.000000  0.000000
#      |Coulomb Cutoff          :none
#      |xc-Kernel               :none
#   RIM|RL components      [col]:0
#      |Random points      [col]:0
#
#    E/ev[1]      EPS-Im[2]    EPS-Re[3]    EPSo-Im[4]   EPSo-Re[5]
#
   -10.00       0.7246E-3     1.113       0.6101E-3     1.105   
   -9.990       0.7255E-3     1.113       0.6108E-3     1.105   
   -9.980       0.7265E-3     1.114       0.6116E-3     1.105   
   -9.970       0.7274E-3     1.114       0.6123E-3     1.105   
   -9.960       0.7284E-3     1.114       0.6130E-3     1.105   
   -9.950       0.7294E-3     1.114       0.6138E-3     1.105   
   -9.940       0.7303E-3     1.114       0.6145E-3     1.105   
   -9.930       0.7313E-3     1.114       0.6152E-3     1.105   
   -9.920       0.7322E-3     1.114       0.6159E-3     1.105   
   -9.910       0.7332E-3     1.114       0.6167E-3     1.105   
   -9.900       0.7342E-3     1.114       0.6174E-3     1.105   
   -9.890       0.7352E-3     1.114       0.6182E-3     1.105   
   -9.880       0.7361E-3     1.114       0.6189E-3     1.105   
   -9.870       0.7371E-3     1.114       0.6196E-3     1.105   
   -9.860       0.7381E-3     1.114       0.6204E-3     1.105   
   -9.850       0.7391E-3     1.114       0.6211E-3     1.106   
   -9.840       0.7400E-3     1.115       0.6219E-3     1.106   
   -9.830       0.7410E-3     1.115       0.6226E-3     1.106   
   -9.820       0.7420E-3     1.115       0.6234E-3     1.106   
   -9.810       0.7430E-3     1.115       0.6241E-3     1.106   
   -9.800       0.7440E-3     1.115       0.6249E-3     1.106   
   -9.790       0.7450E-3     1.115       0.6256E-3     1.106   
   -9.780       0.7460E-3     1.115       0.6264E-3     1.106   
   -9.770       0.7470E-3     1.115       0.6271E-3     1.106   
   -9.760       0.7480E-3     1.115       0.6279E-3     1.106   
   -9.750       0.7490E-3     1.115       0.6286E-3     1.106   
   -9.740       0.7500E-3     1.115       0.6294E-3     1.106   
   -9.730       0.7510E-3     1.115       0.6301E-3     1.106   
   -9.720       0.7520E-3     1.115       0.6309E-3     1.106   
   -9.710       0.7530E-3     1.116       0.6317E-3     1.106   
   -9.700       0.7540E-3     1.116       0.6324E-3     1.106   
   -9.690       0.7550E-3     1.116       0.6332E-3     1.107   
   -9.680       0.7560E-3     1.116       0.6340E-3     1.107   
   -9.670       0.7570E-3     1.116       0.6347E-3     1.107   
   -9.660       0.7580E-3     1.116       0.6355E-3     1.107   
   -9.650       0.7591E-3     1.116       0.6363E-3     1.107   
   -9.640       0.7601E-3     1.116       0.6370E-3     1.107   
   -9.630       0.7611E-3     1.116       0.6378E-3     1.107   
   -9.620       0.7621E-3     1.116       0.6386E-3     1.107   
   -9.610       0.7632E-3     1.116       0.6394E-3     1.107   
   -9.600       0.7642E-3     1.116       0.6401E-3     1.107   
   -9.590       0.7652E-3     1.116       0.6409E-3     1.107   
   -9.580       0.7662E-3     1.116       0.6417E-3     1.107   
   -9.570       0.7673E-3     1.117       0.6425E-3     1.107   
   -9.560       0.7683E-3     1.117       0.6433E-3     1.107   
   -9.550       0.7694E-3     1.117       0.6441E-3     1.107   
   -9.540       0.7704E-3     1.117       0.6448E-3     1.107   
   -9.530       0.7715E-3     1.117       0.6456E-3     1.108   
   -9.520       0.7725E-3     1.117       0.6464E-3     1.108   
   -9.510       0.7736E-3     1.117       0.6472E-3     1.108   
   -9.500       0.7746E-3     1.117       0.6480E-3     1.108   
   -9.490       0.7757E-3     1.117       0.6488E-3     1.108   
   -9.480       0.7767E-3     1.117       0.6496E-3     1.108   
   -9.470       0.7778E-3     1.117       0.6504E-3     1.108   
   -9.460       0.7788E-3     1.117       0.6512E-3     1.108   
   -9.450       0.7799E-3     1.117       0.6520E-3     1.108   
   -9.440       0.7810E-3     1.118       0.6528E-3     1.108   
   -9.430       0.7820E-3     1.118       0.6536E-3     1.108   
   -9.420       0.7831E-3     1.118       0.6544E-3     1.108   
   -9.410       0.7842E-3     1.118       0.6552E-3     1.108   
   -9.400       0.7852E-3     1.118       0.6560E-3     1.108   
   -9.390       0.7863E-3     1.118       0.6568E-3     1.108   
   -9.380       0.7874E-3     1.118       0.6576E-3     1.109   
   -9.370       0.7885E-3     1.118       0.6584E-3     1.109   
   -9.360       0.7896E-3     1.118       0.6593E-3     1.109   
   -9.350       0.7906E-3     1.118       0.6601E-3     1.109   
   -9.340       0.7917E-3     1.118       0.6609E-3     1.109   
   -9.330       0.7928E-3     1.118       0.6617E-3     1.109   
   -9.320       0.7939E-3     1.119       0.6625E-3     1.109   
   -9.310       0.7950E-3     1.119       0.6633E-3     1.109   
   -9.300       0.7961E-3     1.119       0.6642E-3     1.109   
   -9.290       0.7972E-3     1.119       0.6650E-3     1.109   
   -9.280       0.7983E-3     1.119       0.6658E-3     1.109   
   -9.270       0.7994E-3     1.119       0.6666E-3     1.109   
   -9.260       0.8005E-3     1.119       0.6675E-3     1.109   
   -9.250       0.8016E-3     1.119       0.6683E-3     1.109   
   -9.240       0.8027E-3     1.119       0.6691E-3     1.109   
   -9.230       0.8039E-3     1.119       0.6700E-3     1.110   
   -9.220       0.8050E-3     1.119       0.6708E-3     1.110   
   -9.210       0.8061E-3     1.119       0.6716E-3     1.110   
   -9.200       0.8072E-3     1.119       0.6725E-3     1.110   
   -9.190       0.8083E-3     1.120       0.6733E-3     1.110   
   -9.180       0.8095E-3     1.120       0.6742E-3     1.110   
   -9.170       0.8106E-3     1.120       0.6750E-3     1.110   
   -9.160       0.8117E-3     1.120       0.6759E-3     1.110   
   -9.150       0.8128E-3     1.120       0.6767E-3     1.110   
   -9.140       0.8140E-3     1.120       0.6775E-3     1.110   
   -9.130       0.8151E-3     1.120       0.6784E-3     1.110   
   -9.120       0.8163E-3     1.120       0.6792E-3     1.110   
   -9.110       0.8174E-3     1.120       0.6801E-3     1.110   
   -9.100       0.8185E-3     1.120       0.6810E-3     1.110   
   -9.090       0.8197E-3     1.120       0.6818E-3     1.110   
   -9.080       0.8208E-3     1.120       0.6827E-3     1.111   
   -9.070       0.8220E-3     1.121       0.6835E-3     1.111   
   -9.060       0.8231E-3     1.121       0.6844E-3     1.111   
   -9.050       0.8243E-3     1.121       0.6853E-3     1.111   
   -9.040       0.8255E-3     1.121       0.6861E-3     1.111   
   -9.030       0.8266E-3     1.121       0.6870E-3     1.111   
   -9.020       0.8278E-3     1.121       0.6879E-3     1.111   
   -9.010       0.8290E-3     1.121       0.6887E-3     1.111   
   -9.000       0.8301E-3     1.121       0.6896E-3     1.111   
   -8.990       0.8313E-3     1.121       0.6905E-3     1.111   
   -8.980       0.8325E-3     1.121       0.6913E-3     1.111   
   -8.970       0.8337E-3     1.121       0.6922E-3     1.111   
   -8.960       0.8348E-3     1.121       0.6931E-3     1.111   
   -8.950       0.8360E-3     1.122       0.6940E-3     1.111   
   -8.940       0.8372E-3     1.122       0.6949E-3     1.112   
   -8.930       0.8384E-3     1.122       0.6957E-3     1.112   
   -8.920       0.8396E-3     1.122       0.6966E-3     1.112   
   -8.910       0.8408E-3     1.122       0.6975E-3     1.112   
   -8.900       0.8420E-3     1.122       0.6984E-3     1.112   
   -8.890       0.8432E-3     1.122       0.6993E-3     1.112   
   -8.880       0.8444E-3     1.122       0.7002E-3     1.112   
   -8.870       0.8456E-3     1.122       0.7011E-3     1.112   
   -8.860       0.8468E-3     1.122       0.7020E-3     1.112   
   -8.850       0.8480E-3     1.122       0.7029E-3     1.112   
   -8.840       0.8492E-3     1.122       0.7038E-3     1.112   
   -8.830       0.8504E-3     1.123       0.7047E-3     1.112   
   -8.820       0.8516E-3     1.123       0.7056E-3     1.112   
   -8.810       0.8528E-3     1.123       0.7065E-3     1.112   
   -8.800       0.8541E-3     1.123       0.7074E-3     1.112   
   -8.790       0.8553E-3     1.123       0.7083E-3     1.113   
   -8.780       0.8565E-3     1.123       0.7092E-3     1.113   
   -8.770       0.8578E-3     1.123       0.7101E-3     1.113   
   -8.760       0.8590E-3     1.123       0.7110E-3     1.113   
   -8.750       0.8602E-3     1.123       0.7119E-3     1.113   
   -8.740       0.8615E-3     1.123       0.7129E-3     1.113   
   -8.730       0.8627E-3     1.123       0.7138E-3     1.113   
   -8.720       0.8639E-3     1.123       0.7147E-3     1.113   
   -8.710       0.8652E-3     1.124       0.7156E-3     1.113   
   -8.700       0.8664E-3     1.124       0.7165E-3     1.113   
   -8.690       0.8677E-3     1.124       0.7175E-3     1.113   
   -8.680       0.8689E-3     1.124       0.7184E-3     1.113   
   -8.670       0.8702E-3     1.124       0.7193E-3     1.113   
   -8.660       0.8715E-3     1.124       0.7202E-3     1.113   
   -8.650       0.8727E-3     1.124       0.7212E-3     1.114   
   -8.640       0.8740E-3     1.124       0.7221E-3     1.114   
   -8.630       0.8753E-3     1.124       0.7231E-3     1.114   
   -8.620       0.8765E-3     1.124       0.7240E-3     1.114   
   -8.610       0.8778E-3     1.124       0.7249E-3     1.114   
   -8.600       0.8791E-3     1.125       0.7259E-3     1.114   
   -8.590       0.8804E-3     1.125       0.7268E-3     1.114   
   -8.580       0.8816E-3     1.125       0.7278E-3     1.114   
   -8.570       0.8829E-3     1.125       0.7287E-3     1.114   
   -8.560       0.8842E-3     1.125       0.7297E-3     1.114   
   -8.550       0.8855E-3     1.125       0.7306E-3     1.114   
   -8.540       0.8868E-3     1.125       0.7316E-3     1.114   
   -8.530       0.8881E-3     1.125       0.7325E-3     1.114   
   -8.520       0.8894E-3     1.125       0.7335E-3     1.115   
   -8.510       0.8907E-3     1.125       0.7344E-3     1.115   
   -8.500       0.8920E-3     1.125       0.7354E-3     1.115   
   -8.490       0.8933E-3     1.126       0.7364E-3     1.115   
   -8.480       0.8946E-3     1.126       0.7373E-3     1.115   
   -8.470       0.8960E-3     1.126       0.7383E-3     1.115   
   -8.460       0.8973E-3     1.126       0.7393E-3     1.115   
   -8.450       0.8986E-3     1.126       0.7402E-3     1.115   
   -8.440       0.8999E-3     1.126       0.7412E-3     1.115   
   -8.430       0.9012E-3     1.126       0.7422E-3     1.115   
   -8.420       0.9026E-3     1.126       0.7432E-3     1.115   
   -8.410       0.9039E-3     1.126       0.7441E-3     1.115   
   -8.400       0.9052E-3     1.126       0.7451E-3     1.115   
   -8.390       0.9066E-3     1.126       0.7461E-3     1.115   
   -8.380       0.9079E-3     1.126       0.7471E-3     1.116   
   -8.370       0.9093E-3     1.127       0.7481E-3     1.116   
   -8.360       0.9106E-3     1.127       0.7491E-3     1.116   
   -8.350       0.9120E-3     1.127       0.7501E-3     1.116   
   -8.340       0.9133E-3     1.127       0.7510E-3     1.116   
   -8.330       0.9147E-3     1.127       0.7520E-3     1.116   
   -8.320       0.9160E-3     1.127       0.7530E-3     1.116   
   -8.310       0.9174E-3     1.127       0.7540E-3     1.116   
   -8.300       0.9188E-3     1.127       0.7550E-3     1.116   
   -8.290       0.9202E-3     1.127       0.7560E-3     1.116   
   -8.280       0.9215E-3     1.127       0.7570E-3     1.116   
   -8.270       0.9229E-3     1.128       0.7580E-3     1.116   
   -8.260       0.9243E-3     1.128       0.7591E-3     1.116   
   -8.250       0.9257E-3     1.128       0.7601E-3     1.117   
   -8.240       0.9270E-3     1.128       0.7611E-3     1.117   
   -8.230       0.9284E-3     1.128       0.7621E-3     1.117   
   -8.220       0.9298E-3     1.128       0.7631E-3     1.117   
   -8.210       0.9312E-3     1.128       0.7641E-3     1.117   
   -8.200       0.9326E-3     1.128       0.7652E-3     1.117   
   -8.190       0.9340E-3     1.128       0.7662E-3     1.117   
   -8.180       0.9354E-3     1.128       0.7672E-3     1.117   
   -8.170       0.9368E-3     1.128       0.7682E-3     1.117   
   -8.160       0.9383E-3     1.129       0.7693E-3     1.117   
   -8.150       0.9397E-3     1.129       0.7703E-3     1.117   
   -8.140       0.9411E-3     1.129       0.7713E-3     1.117   
   -8.130       0.9425E-3     1.129       0.7724E-3     1.117   
   -8.120       0.9439E-3     1.129       0.7734E-3     1.118   
   -8.110       0.9454E-3     1.129       0.7744E-3     1.118   
   -8.100       0.9468E-3     1.129       0.7755E-3     1.118   
   -8.090       0.9482E-3     1.129       0.7765E-3     1.118   
   -8.080       0.9497E-3     1.129       0.7776E-3     1.118   
   -8.070       0.9511E-3     1.129       0.7786E-3     1.118   
   -8.060       0.9526E-3     1.129       0.7797E-3     1.118   
   -8.050       0.9540E-3     1.130       0.7807E-3     1.118   
   -8.040       0.9555E-3     1.130       0.7818E-3     1.118   
   -8.030       0.9569E-3     1.130       0.7828E-3     1.118   
   -8.020       0.9584E-3     1.130       0.7839E-3     1.118   
   -8.010       0.9598E-3     1.130       0.7850E-3     1.118   
   -8.000       0.9613E-3     1.130       0.7860E-3     1.118   
   -7.990       0.9628E-3     1.130       0.7871E-3     1.119   
   -7.980       0.9642E-3     1.130       0.7882E-3     1.119   
   -7.970       0.9657E-3     1.130       0.7892E-3     1.119   
   -7.960       0.9672E-3     1.130       0.7903E-3     1.119   
   -7.950       0.9687E-3     1.131       0.7914E-3     1.119   
   -7.940       0.9702E-3     1.131       0.7925E-3     1.119   
   -7.930       0.9717E-3     1.131       0.7935E-3     1.119   
   -7.920       0.9732E-3     1.131       0.7946E-3     1.119   
   -7.910       0.9747E-3     1.131       0.7957E-3     1.119   
   -7.900       0.9762E-3     1.131       0.7968E-3     1.119   
   -7.890       0.9777E-3     1.131       0.7979E-3     1.119   
   -7.880       0.9792E-3     1.131       0.7990E-3     1.119   
   -7.870       0.9807E-3     1.131       0.8001E-3     1.119   
   -7.860       0.9822E-3     1.131       0.8011E-3     1.120   
   -7.850       0.9837E-3     1.132       0.8022E-3     1.120   
   -7.840       0.9852E-3     1.132       0.8033E-3     1.120   
   -7.830       0.9868E-3     1.132       0.8044E-3     1.120   
   -7.820       0.9883E-3     1.132       0.8056E-3     1.120   
   -7.810       0.9898E-3     1.132       0.8067E-3     1.120   
   -7.800       0.9914E-3     1.132       0.8078E-3     1.120   
   -7.790       0.9929E-3     1.132       0.8089E-3     1.120   
   -7.780       0.9944E-3     1.132       0.8100E-3     1.120   
   -7.770       0.9960E-3     1.132       0.8111E-3     1.120   
   -7.760       0.9975E-3     1.132       0.8122E-3     1.120   
   -7.750       0.9991E-3     1.132       0.8134E-3     1.120   
   -7.740       0.1001E-2     1.133       0.8145E-3     1.121   
   -7.730       0.1002E-2     1.133       0.8156E-3     1.121   
   -7.720       0.1004E-2     1.133       0.8167E-3     1.121   
   -7.710       0.1005E-2     1.133       0.8179E-3     1.121   
   -7.700       0.1007E-2     1.133       0.8190E-3     1.121   
   -7.690       0.1009E-2     1.133       0.8201E-3     1.121   
   -7.680       0.1010E-2     1.133       0.8213E-3     1.121   
   -7.670       0.1012E-2     1.133       0.8224E-3     1.121   
   -7.660       0.1013E-2     1.133       0.8235E-3     1.121   
   -7.650       0.1015E-2     1.134       0.8247E-3     1.121   
   -7.640       0.1016E-2     1.134       0.8258E-3     1.121   
   -7.630       0.1018E-2     1.134       0.8270E-3     1.121   
   -7.620       0.1020E-2     1.134       0.8281E-3     1.122   
   -7.610       0.1021E-2     1.134       0.8293E-3     1.122   
   -7.600       0.1023E-2     1.134       0.8305E-3     1.122   
   -7.590       0.1025E-2     1.134       0.8316E-3     1.122   
   -7.580       0.1026E-2     1.134       0.8328E-3     1.122   
   -7.570       0.1028E-2     1.134       0.8339E-3     1.122   
   -7.560       0.1029E-2     1.134       0.8351E-3     1.122   
   -7.550       0.1031E-2     1.135       0.8363E-3     1.122   
   -7.540       0.1033E-2     1.135       0.8374E-3     1.122   
   -7.530       0.1034E-2     1.135       0.8386E-3     1.122   
   -7.520       0.1036E-2     1.135       0.8398E-3     1.122   
   -7.510       0.1038E-2     1.135       0.8410E-3     1.122   
   -7.500       0.1039E-2     1.135       0.8422E-3     1.123   
   -7.490       0.1041E-2     1.135       0.8433E-3     1.123   
   -7.480       0.1043E-2     1.135       0.8445E-3     1.123   
   -7.470       0.1044E-2     1.135       0.8457E-3     1.123   
   -7.460       0.1046E-2     1.135       0.8469E-3     1.123   
   -7.450       0.1048E-2     1.136       0.8481E-3     1.123   
   -7.440       0.1049E-2     1.136       0.8493E-3     1.123   
   -7.430       0.1051E-2     1.136       0.8505E-3     1.123   
   -7.420       0.1053E-2     1.136       0.8517E-3     1.123   
   -7.410       0.1054E-2     1.136       0.8529E-3     1.123   
   -7.400       0.1056E-2     1.136       0.8541E-3     1.123   
   -7.390       0.1058E-2     1.136       0.8553E-3     1.123   
   -7.380       0.1059E-2     1.136       0.8566E-3     1.124   
   -7.370       0.1061E-2     1.136       0.8578E-3     1.124   
   -7.360       0.1063E-2     1.137       0.8590E-3     1.124   
   -7.350       0.1065E-2     1.137       0.8602E-3     1.124   
   -7.340       0.1066E-2     1.137       0.8614E-3     1.124   
   -7.330       0.1068E-2     1.137       0.8627E-3     1.124   
   -7.320       0.1070E-2     1.137       0.8639E-3     1.124   
   -7.310       0.1071E-2     1.137       0.8651E-3     1.124   
   -7.300       0.1073E-2     1.137       0.8664E-3     1.124   
   -7.290       0.1075E-2     1.137       0.8676E-3     1.124   
   -7.280       0.1077E-2     1.137       0.8688E-3     1.124   
   -7.270       0.1078E-2     1.137       0.8701E-3     1.124   
   -7.260       0.1080E-2     1.138       0.8713E-3     1.125   
   -7.250       0.1082E-2     1.138       0.8726E-3     1.125   
   -7.240       0.1084E-2     1.138       0.8738E-3     1.125   
   -7.230       0.1085E-2     1.138       0.8751E-3     1.125   
   -7.220       0.1087E-2     1.138       0.8763E-3     1.125   
   -7.210       0.1089E-2     1.138       0.8776E-3     1.125   
   -7.200       0.1091E-2     1.138       0.8788E-3     1.125   
   -7.190       0.1093E-2     1.138       0.8801E-3     1.125   
   -7.180       0.1094E-2     1.138       0.8814E-3     1.125   
   -7.170       0.1096E-2     1.139       0.8827E-3     1.125   
   -7.160       0.1098E-2     1.139       0.8839E-3     1.125   
   -7.150       0.1100E-2     1.139       0.8852E-3     1.126   
   -7.140       0.1102E-2     1.139       0.8865E-3     1.126   
   -7.130       0.1103E-2     1.139       0.8878E-3     1.126   
   -7.120       0.1105E-2     1.139       0.8890E-3     1.126   
   -7.110       0.1107E-2     1.139       0.8903E-3     1.126   
   -7.100       0.1109E-2     1.139       0.8916E-3     1.126   
   -7.090       0.1111E-2     1.139       0.8929E-3     1.126   
   -7.080       0.1113E-2     1.140       0.8942E-3     1.126   
   -7.070       0.1114E-2     1.140       0.8955E-3     1.126   
   -7.060       0.1116E-2     1.140       0.8968E-3     1.126   
   -7.050       0.1118E-2     1.140       0.8981E-3     1.126   
   -7.040       0.1120E-2     1.140       0.8994E-3     1.127   
   -7.030       0.1122E-2     1.140       0.9007E-3     1.127   
   -7.020       0.1124E-2     1.140       0.9020E-3     1.127   
   -7.010       0.1125E-2     1.140       0.9034E-3     1.127   
   -7.000       0.1127E-2     1.140       0.9047E-3     1.127   
   -6.990       0.1129E-2     1.141       0.9060E-3     1.127   
   -6.980       0.1131E-2     1.141       0.9073E-3     1.127   
   -6.970       0.1133E-2     1.141       0.9087E-3     1.127   
   -6.960       0.1135E-2     1.141       0.9100E-3     1.127   
   -6.950       0.1137E-2     1.141       0.9113E-3     1.127   
   -6.940       0.1139E-2     1.141       0.9127E-3     1.127   
   -6.930       0.1141E-2     1.141       0.9140E-3     1.128   
   -6.920       0.1143E-2     1.141       0.9153E-3     1.128   
   -6.910       0.1144E-2     1.141       0.9167E-3     1.128   
   -6.900       0.1146E-2     1.142       0.9180E-3     1.128   
   -6.890       0.1148E-2     1.142       0.9194E-3     1.128   
   -6.880       0.1150E-2     1.142       0.9207E-3     1.128   
   -6.870       0.1152E-2     1.142       0.9221E-3     1.128   
   -6.860       0.1154E-2     1.142       0.9235E-3     1.128   
   -6.850       0.1156E-2     1.142       0.9248E-3     1.128   
   -6.840       0.1158E-2     1.142       0.9262E-3     1.128   
   -6.830       0.1160E-2     1.142       0.9276E-3     1.128   
   -6.820       0.1162E-2     1.143       0.9289E-3     1.129   
   -6.810       0.1164E-2     1.143       0.9303E-3     1.129   
   -6.800       0.1166E-2     1.143       0.9317E-3     1.129   
   -6.790       0.1168E-2     1.143       0.9331E-3     1.129   
   -6.780       0.1170E-2     1.143       0.9345E-3     1.129   
   -6.770       0.1172E-2     1.143       0.9359E-3     1.129   
   -6.760       0.1174E-2     1.143       0.9372E-3     1.129   
   -6.750       0.1176E-2     1.143       0.9386E-3     1.129   
   -6.740       0.1178E-2     1.143       0.9400E-3     1.129   
   -6.730       0.1180E-2     1.144       0.9414E-3     1.129   
   -6.720       0.1182E-2     1.144       0.9429E-3     1.129   
   -6.710       0.1184E-2     1.144       0.9443E-3     1.130   
   -6.700       0.1186E-2     1.144       0.9457E-3     1.130   
   -6.690       0.1188E-2     1.144       0.9471E-3     1.130   
   -6.680       0.1190E-2     1.144       0.9485E-3     1.130   
   -6.670       0.1192E-2     1.144       0.9499E-3     1.130   
   -6.660       0.1194E-2     1.144       0.9514E-3     1.130   
   -6.650       0.1196E-2     1.145       0.9528E-3     1.130   
   -6.640       0.1198E-2     1.145       0.9542E-3     1.130   
   -6.630       0.1200E-2     1.145       0.9556E-3     1.130   
   -6.620       0.1202E-2     1.145       0.9571E-3     1.130   
   -6.610       0.1204E-2     1.145       0.9585E-3     1.131   
   -6.600       0.1206E-2     1.145       0.9600E-3     1.131   
   -6.590       0.1209E-2     1.145       0.9614E-3     1.131   
   -6.580       0.1211E-2     1.145       0.9629E-3     1.131   
   -6.570       0.1213E-2     1.145       0.9643E-3     1.131   
   -6.560       0.1215E-2     1.146       0.9658E-3     1.131   
   -6.550       0.1217E-2     1.146       0.9672E-3     1.131   
   -6.540       0.1219E-2     1.146       0.9687E-3     1.131   
   -6.530       0.1221E-2     1.146       0.9702E-3     1.131   
   -6.520       0.1223E-2     1.146       0.9716E-3     1.131   
   -6.510       0.1225E-2     1.146       0.9731E-3     1.131   
   -6.500       0.1228E-2     1.146       0.9746E-3     1.132   
   -6.490       0.1230E-2     1.146       0.9761E-3     1.132   
   -6.480       0.1232E-2     1.147       0.9776E-3     1.132   
   -6.470       0.1234E-2     1.147       0.9791E-3     1.132   
   -6.460       0.1236E-2     1.147       0.9805E-3     1.132   
   -6.450       0.1238E-2     1.147       0.9820E-3     1.132   
   -6.440       0.1241E-2     1.147       0.9835E-3     1.132   
   -6.430       0.1243E-2     1.147       0.9850E-3     1.132   
   -6.420       0.1245E-2     1.147       0.9866E-3     1.132   
   -6.410       0.1247E-2     1.147       0.9881E-3     1.132   
   -6.400       0.1249E-2     1.148       0.9896E-3     1.133   
   -6.390       0.1252E-2     1.148       0.9911E-3     1.133   
   -6.380       0.1254E-2     1.148       0.9926E-3     1.133   
   -6.370       0.1256E-2     1.148       0.9941E-3     1.133   
   -6.360       0.1258E-2     1.148       0.9957E-3     1.133   
   -6.350       0.1260E-2     1.148       0.9972E-3     1.133   
   -6.340       0.1263E-2     1.148       0.9987E-3     1.133   
   -6.330       0.1265E-2     1.148       0.1000E-2     1.133   
   -6.320       0.1267E-2     1.149       0.1002E-2     1.133   
   -6.310       0.1269E-2     1.149       0.1003E-2     1.133   
   -6.300       0.1272E-2     1.149       0.1005E-2     1.134   
   -6.290       0.1274E-2     1.149       0.1006E-2     1.134   
   -6.280       0.1276E-2     1.149       0.1008E-2     1.134   
   -6.270       0.1278E-2     1.149       0.1010E-2     1.134   
   -6.260       0.1281E-2     1.149       0.1011E-2     1.134   
   -6.250       0.1283E-2     1.149       0.1013E-2     1.134   
   -6.240       0.1285E-2     1.150       0.1014E-2     1.134   
   -6.230       0.1288E-2     1.150       0.1016E-2     1.134   
   -6.220       0.1290E-2     1.150       0.1017E-2     1.134   
   -6.210       0.1292E-2     1.150       0.1019E-2     1.134   
   -6.200       0.1295E-2     1.150       0.1021E-2     1.135   
   -6.190       0.1297E-2     1.150       0.1022E-2     1.135   
   -6.180       0.1299E-2     1.150       0.1024E-2     1.135   
   -6.170       0.1302E-2     1.151       0.1025E-2     1.135   
   -6.160       0.1304E-2     1.151       0.1027E-2     1.135   
   -6.150       0.1306E-2     1.151       0.1029E-2     1.135   
   -6.140       0.1309E-2     1.151       0.1030E-2     1.135   
   -6.130       0.1311E-2     1.151       0.1032E-2     1.135   
   -6.120       0.1313E-2     1.151       0.1033E-2     1.135   
   -6.110       0.1316E-2     1.151       0.1035E-2     1.136   
   -6.100       0.1318E-2     1.151       0.1037E-2     1.136   
   -6.090       0.1320E-2     1.152       0.1038E-2     1.136   
   -6.080       0.1323E-2     1.152       0.1040E-2     1.136   
   -6.070       0.1325E-2     1.152       0.1042E-2     1.136   
   -6.060       0.1328E-2     1.152       0.1043E-2     1.136   
   -6.050       0.1330E-2     1.152       0.1045E-2     1.136   
   -6.040       0.1333E-2     1.152       0.1047E-2     1.136   
   -6.030       0.1335E-2     1.152       0.1048E-2     1.136   
   -6.020       0.1337E-2     1.152       0.1050E-2     1.136   
   -6.010       0.1340E-2     1.153       0.1051E-2     1.137   
   -6.000       0.1342E-2     1.153       0.1053E-2     1.137   
   -5.990       0.1345E-2     1.153       0.1055E-2     1.137   
   -5.980       0.1347E-2     1.153       0.1056E-2     1.137   
   -5.970       0.1350E-2     1.153       0.1058E-2     1.137   
   -5.960       0.1352E-2     1.153       0.1060E-2     1.137   
   -5.950       0.1355E-2     1.153       0.1062E-2     1.137   
   -5.940       0.1357E-2     1.154       0.1063E-2     1.137   
   -5.930       0.1360E-2     1.154       0.1065E-2     1.137   
   -5.920       0.1362E-2     1.154       0.1067E-2     1.137   
   -5.910       0.1365E-2     1.154       0.1068E-2     1.138   
   -5.900       0.1367E-2     1.154       0.1070E-2     1.138   
   -5.890       0.1370E-2     1.154       0.1072E-2     1.138   
   -5.880       0.1372E-2     1.154       0.1073E-2     1.138   
   -5.870       0.1375E-2     1.155       0.1075E-2     1.138   
   -5.860       0.1377E-2     1.155       0.1077E-2     1.138   
   -5.850       0.1380E-2     1.155       0.1079E-2     1.138   
   -5.840       0.1383E-2     1.155       0.1080E-2     1.138   
   -5.830       0.1385E-2     1.155       0.1082E-2     1.138   
   -5.820       0.1388E-2     1.155       0.1084E-2     1.139   
   -5.810       0.1390E-2     1.155       0.1086E-2     1.139   
   -5.800       0.1393E-2     1.155       0.1087E-2     1.139   
   -5.790       0.1396E-2     1.156       0.1089E-2     1.139   
   -5.780       0.1398E-2     1.156       0.1091E-2     1.139   
   -5.770       0.1401E-2     1.156       0.1093E-2     1.139   
   -5.760       0.1403E-2     1.156       0.1094E-2     1.139   
   -5.750       0.1406E-2     1.156       0.1096E-2     1.139   
   -5.740       0.1409E-2     1.156       0.1098E-2     1.139   
   -5.730       0.1411E-2     1.156       0.1100E-2     1.140   
   -5.720       0.1414E-2     1.157       0.1101E-2     1.140   
   -5.710       0.1417E-2     1.157       0.1103E-2     1.140   
   -5.700       0.1419E-2     1.157       0.1105E-2     1.140   
   -5.690       0.1422E-2     1.157       0.1107E-2     1.140   
   -5.680       0.1425E-2     1.157       0.1109E-2     1.140   
   -5.670       0.1427E-2     1.157       0.1110E-2     1.140   
   -5.660       0.1430E-2     1.157       0.1112E-2     1.140   
   -5.650       0.1433E-2     1.158       0.1114E-2     1.140   
   -5.640       0.1436E-2     1.158       0.1116E-2     1.141   
   -5.630       0.1438E-2     1.158       0.1118E-2     1.141   
   -5.620       0.1441E-2     1.158       0.1120E-2     1.141   
   -5.610       0.1444E-2     1.158       0.1121E-2     1.141   
   -5.600       0.1447E-2     1.158       0.1123E-2     1.141   
   -5.590       0.1449E-2     1.158       0.1125E-2     1.141   
   -5.580       0.1452E-2     1.159       0.1127E-2     1.141   
   -5.570       0.1455E-2     1.159       0.1129E-2     1.141   
   -5.560       0.1458E-2     1.159       0.1131E-2     1.141   
   -5.550       0.1460E-2     1.159       0.1132E-2     1.142   
   -5.540       0.1463E-2     1.159       0.1134E-2     1.142   
   -5.530       0.1466E-2     1.159       0.1136E-2     1.142   
   -5.520       0.1469E-2     1.159       0.1138E-2     1.142   
   -5.510       0.1472E-2     1.160       0.1140E-2     1.142   
   -5.500       0.1475E-2     1.160       0.1142E-2     1.142   
   -5.490       0.1477E-2     1.160       0.1144E-2     1.142   
   -5.480       0.1480E-2     1.160       0.1146E-2     1.142   
   -5.470       0.1483E-2     1.160       0.1148E-2     1.142   
   -5.460       0.1486E-2     1.160       0.1149E-2     1.143   
   -5.450       0.1489E-2     1.161       0.1151E-2     1.143   
   -5.440       0.1492E-2     1.161       0.1153E-2     1.143   
   -5.430       0.1495E-2     1.161       0.1155E-2     1.143   
   -5.420       0.1498E-2     1.161       0.1157E-2     1.143   
   -5.410       0.1501E-2     1.161       0.1159E-2     1.143   
   -5.400       0.1503E-2     1.161       0.1161E-2     1.143   
   -5.390       0.1506E-2     1.161       0.1163E-2     1.143   
   -5.380       0.1509E-2     1.162       0.1165E-2     1.144   
   -5.370       0.1512E-2     1.162       0.1167E-2     1.144   
   -5.360       0.1515E-2     1.162       0.1169E-2     1.144   
   -5.350       0.1518E-2     1.162       0.1171E-2     1.144   
   -5.340       0.1521E-2     1.162       0.1173E-2     1.144   
   -5.330       0.1524E-2     1.162       0.1175E-2     1.144   
   -5.320       0.1527E-2     1.162       0.1177E-2     1.144   
   -5.310       0.1530E-2     1.163       0.1179E-2     1.144   
   -5.300       0.1533E-2     1.163       0.1181E-2     1.144   
   -5.290       0.1536E-2     1.163       0.1183E-2     1.145   
   -5.280       0.1539E-2     1.163       0.1185E-2     1.145   
   -5.270       0.1542E-2     1.163       0.1187E-2     1.145   
   -5.260       0.1545E-2     1.163       0.1189E-2     1.145   
   -5.250       0.1548E-2     1.164       0.1191E-2     1.145   
   -5.240       0.1552E-2     1.164       0.1193E-2     1.145   
   -5.230       0.1555E-2     1.164       0.1195E-2     1.145   
   -5.220       0.1558E-2     1.164       0.1197E-2     1.145   
   -5.210       0.1561E-2     1.164       0.1199E-2     1.146   
   -5.200       0.1564E-2     1.164       0.1201E-2     1.146   
   -5.190       0.1567E-2     1.164       0.1203E-2     1.146   
   -5.180       0.1570E-2     1.165       0.1205E-2     1.146   
   -5.170       0.1573E-2     1.165       0.1207E-2     1.146   
   -5.160       0.1577E-2     1.165       0.1209E-2     1.146   
   -5.150       0.1580E-2     1.165       0.1211E-2     1.146   
   -5.140       0.1583E-2     1.165       0.1213E-2     1.146   
   -5.130       0.1586E-2     1.165       0.1215E-2     1.146   
   -5.120       0.1589E-2     1.166       0.1217E-2     1.147   
   -5.110       0.1592E-2     1.166       0.1219E-2     1.147   
   -5.100       0.1596E-2     1.166       0.1221E-2     1.147   
   -5.090       0.1599E-2     1.166       0.1224E-2     1.147   
   -5.080       0.1602E-2     1.166       0.1226E-2     1.147   
   -5.070       0.1605E-2     1.166       0.1228E-2     1.147   
   -5.060       0.1609E-2     1.167       0.1230E-2     1.147   
   -5.050       0.1612E-2     1.167       0.1232E-2     1.147   
   -5.040       0.1615E-2     1.167       0.1234E-2     1.148   
   -5.030       0.1618E-2     1.167       0.1236E-2     1.148   
   -5.020       0.1622E-2     1.167       0.1238E-2     1.148   
   -5.010       0.1625E-2     1.167       0.1240E-2     1.148   
   -5.000       0.1628E-2     1.168       0.1243E-2     1.148   
   -4.990       0.1632E-2     1.168       0.1245E-2     1.148   
   -4.980       0.1635E-2     1.168       0.1247E-2     1.148   
   -4.970       0.1638E-2     1.168       0.1249E-2     1.148   
   -4.960       0.1642E-2     1.168       0.1251E-2     1.149   
   -4.950       0.1645E-2     1.168       0.1253E-2     1.149   
   -4.940       0.1648E-2     1.169       0.1256E-2     1.149   
   -4.930       0.1652E-2     1.169       0.1258E-2     1.149   
   -4.920       0.1655E-2     1.169       0.1260E-2     1.149   
   -4.910       0.1659E-2     1.169       0.1262E-2     1.149   
   -4.900       0.1662E-2     1.169       0.1264E-2     1.149   
   -4.890       0.1665E-2     1.169       0.1267E-2     1.149   
   -4.880       0.1669E-2     1.170       0.1269E-2     1.150   
   -4.870       0.1672E-2     1.170       0.1271E-2     1.150   
   -4.860       0.1676E-2     1.170       0.1273E-2     1.150   
   -4.850       0.1679E-2     1.170       0.1276E-2     1.150   
   -4.840       0.1683E-2     1.170       0.1278E-2     1.150   
   -4.830       0.1686E-2     1.170       0.1280E-2     1.150   
   -4.820       0.1690E-2     1.171       0.1282E-2     1.150   
   -4.810       0.1693E-2     1.171       0.1285E-2     1.150   
   -4.800       0.1697E-2     1.171       0.1287E-2     1.151   
   -4.790       0.1700E-2     1.171       0.1289E-2     1.151   
   -4.780       0.1704E-2     1.171       0.1291E-2     1.151   
   -4.770       0.1708E-2     1.171       0.1294E-2     1.151   
   -4.760       0.1711E-2     1.172       0.1296E-2     1.151   
   -4.750       0.1715E-2     1.172       0.1298E-2     1.151   
   -4.740       0.1718E-2     1.172       0.1301E-2     1.151   
   -4.730       0.1722E-2     1.172       0.1303E-2     1.152   
   -4.720       0.1726E-2     1.172       0.1305E-2     1.152   
   -4.710       0.1729E-2     1.172       0.1307E-2     1.152   
   -4.700       0.1733E-2     1.173       0.1310E-2     1.152   
   -4.690       0.1736E-2     1.173       0.1312E-2     1.152   
   -4.680       0.1740E-2     1.173       0.1314E-2     1.152   
   -4.670       0.1744E-2     1.173       0.1317E-2     1.152   
   -4.660       0.1748E-2     1.173       0.1319E-2     1.152   
   -4.650       0.1751E-2     1.173       0.1322E-2     1.153   
   -4.640       0.1755E-2     1.174       0.1324E-2     1.153   
   -4.630       0.1759E-2     1.174       0.1326E-2     1.153   
   -4.620       0.1762E-2     1.174       0.1329E-2     1.153   
   -4.610       0.1766E-2     1.174       0.1331E-2     1.153   
   -4.600       0.1770E-2     1.174       0.1333E-2     1.153   
   -4.590       0.1774E-2     1.174       0.1336E-2     1.153   
   -4.580       0.1778E-2     1.175       0.1338E-2     1.154   
   -4.570       0.1781E-2     1.175       0.1341E-2     1.154   
   -4.560       0.1785E-2     1.175       0.1343E-2     1.154   
   -4.550       0.1789E-2     1.175       0.1346E-2     1.154   
   -4.540       0.1793E-2     1.175       0.1348E-2     1.154   
   -4.530       0.1797E-2     1.176       0.1350E-2     1.154   
   -4.520       0.1801E-2     1.176       0.1353E-2     1.154   
   -4.510       0.1805E-2     1.176       0.1355E-2     1.154   
   -4.500       0.1808E-2     1.176       0.1358E-2     1.155   
   -4.490       0.1812E-2     1.176       0.1360E-2     1.155   
   -4.480       0.1816E-2     1.176       0.1363E-2     1.155   
   -4.470       0.1820E-2     1.177       0.1365E-2     1.155   
   -4.460       0.1824E-2     1.177       0.1368E-2     1.155   
   -4.450       0.1828E-2     1.177       0.1370E-2     1.155   
   -4.440       0.1832E-2     1.177       0.1373E-2     1.155   
   -4.430       0.1836E-2     1.177       0.1375E-2     1.156   
   -4.420       0.1840E-2     1.178       0.1378E-2     1.156   
   -4.410       0.1844E-2     1.178       0.1380E-2     1.156   
   -4.400       0.1848E-2     1.178       0.1383E-2     1.156   
   -4.390       0.1852E-2     1.178       0.1385E-2     1.156   
   -4.380       0.1856E-2     1.178       0.1388E-2     1.156   
   -4.370       0.1860E-2     1.178       0.1390E-2     1.156   
   -4.360       0.1864E-2     1.179       0.1393E-2     1.157   
   -4.350       0.1869E-2     1.179       0.1396E-2     1.157   
   -4.340       0.1873E-2     1.179       0.1398E-2     1.157   
   -4.330       0.1877E-2     1.179       0.1401E-2     1.157   
   -4.320       0.1881E-2     1.179       0.1403E-2     1.157   
   -4.310       0.1885E-2     1.180       0.1406E-2     1.157   
   -4.300       0.1889E-2     1.180       0.1408E-2     1.157   
   -4.290       0.1894E-2     1.180       0.1411E-2     1.157   
   -4.280       0.1898E-2     1.180       0.1414E-2     1.158   
   -4.270       0.1902E-2     1.180       0.1416E-2     1.158   
   -4.260       0.1906E-2     1.181       0.1419E-2     1.158   
   -4.250       0.1910E-2     1.181       0.1422E-2     1.158   
   -4.240       0.1915E-2     1.181       0.1424E-2     1.158   
   -4.230       0.1919E-2     1.181       0.1427E-2     1.158   
   -4.220       0.1923E-2     1.181       0.1430E-2     1.158   
   -4.210       0.1928E-2     1.182       0.1432E-2     1.159   
   -4.200       0.1932E-2     1.182       0.1435E-2     1.159   
   -4.190       0.1936E-2     1.182       0.1438E-2     1.159   
   -4.180       0.1941E-2     1.182       0.1440E-2     1.159   
   -4.170       0.1945E-2     1.182       0.1443E-2     1.159   
   -4.160       0.1949E-2     1.182       0.1446E-2     1.159   
   -4.150       0.1954E-2     1.183       0.1448E-2     1.159   
   -4.140       0.1958E-2     1.183       0.1451E-2     1.160   
   -4.130       0.1963E-2     1.183       0.1454E-2     1.160   
   -4.120       0.1967E-2     1.183       0.1457E-2     1.160   
   -4.110       0.1972E-2     1.183       0.1459E-2     1.160   
   -4.100       0.1976E-2     1.184       0.1462E-2     1.160   
   -4.090       0.1981E-2     1.184       0.1465E-2     1.160   
   -4.080       0.1985E-2     1.184       0.1468E-2     1.161   
   -4.070       0.1990E-2     1.184       0.1470E-2     1.161   
   -4.060       0.1994E-2     1.184       0.1473E-2     1.161   
   -4.050       0.1999E-2     1.185       0.1476E-2     1.161   
   -4.040       0.2003E-2     1.185       0.1479E-2     1.161   
   -4.030       0.2008E-2     1.185       0.1482E-2     1.161   
   -4.020       0.2012E-2     1.185       0.1485E-2     1.161   
   -4.010       0.2017E-2     1.185       0.1487E-2     1.162   
   -4.000       0.2022E-2     1.186       0.1490E-2     1.162   
   -3.990       0.2026E-2     1.186       0.1493E-2     1.162   
   -3.980       0.2031E-2     1.186       0.1496E-2     1.162   
   -3.970       0.2036E-2     1.186       0.1499E-2     1.162   
   -3.960       0.2040E-2     1.186       0.1502E-2     1.162   
   -3.950       0.2045E-2     1.187       0.1505E-2     1.162   
   -3.940       0.2050E-2     1.187       0.1507E-2     1.163   
   -3.930       0.2055E-2     1.187       0.1510E-2     1.163   
   -3.920       0.2059E-2     1.187       0.1513E-2     1.163   
   -3.910       0.2064E-2     1.188       0.1516E-2     1.163   
   -3.900       0.2069E-2     1.188       0.1519E-2     1.163   
   -3.890       0.2074E-2     1.188       0.1522E-2     1.163   
   -3.880       0.2079E-2     1.188       0.1525E-2     1.163   
   -3.870       0.2084E-2     1.188       0.1528E-2     1.164   
   -3.860       0.2089E-2     1.189       0.1531E-2     1.164   
   -3.850       0.2093E-2     1.189       0.1534E-2     1.164   
   -3.840       0.2098E-2     1.189       0.1537E-2     1.164   
   -3.830       0.2103E-2     1.189       0.1540E-2     1.164   
   -3.820       0.2108E-2     1.189       0.1543E-2     1.164   
   -3.810       0.2113E-2     1.190       0.1546E-2     1.165   
   -3.800       0.2118E-2     1.190       0.1549E-2     1.165   
   -3.790       0.2123E-2     1.190       0.1552E-2     1.165   
   -3.780       0.2128E-2     1.190       0.1555E-2     1.165   
   -3.770       0.2133E-2     1.190       0.1558E-2     1.165   
   -3.760       0.2138E-2     1.191       0.1561E-2     1.165   
   -3.750       0.2143E-2     1.191       0.1564E-2     1.166   
   -3.740       0.2149E-2     1.191       0.1567E-2     1.166   
   -3.730       0.2154E-2     1.191       0.1570E-2     1.166   
   -3.720       0.2159E-2     1.192       0.1573E-2     1.166   
   -3.710       0.2164E-2     1.192       0.1576E-2     1.166   
   -3.700       0.2169E-2     1.192       0.1580E-2     1.166   
   -3.690       0.2174E-2     1.192       0.1583E-2     1.166   
   -3.680       0.2180E-2     1.192       0.1586E-2     1.167   
   -3.670       0.2185E-2     1.193       0.1589E-2     1.167   
   -3.660       0.2190E-2     1.193       0.1592E-2     1.167   
   -3.650       0.2195E-2     1.193       0.1595E-2     1.167   
   -3.640       0.2201E-2     1.193       0.1598E-2     1.167   
   -3.630       0.2206E-2     1.193       0.1602E-2     1.167   
   -3.620       0.2211E-2     1.194       0.1605E-2     1.168   
   -3.610       0.2217E-2     1.194       0.1608E-2     1.168   
   -3.600       0.2222E-2     1.194       0.1611E-2     1.168   
   -3.590       0.2228E-2     1.194       0.1614E-2     1.168   
   -3.580       0.2233E-2     1.195       0.1618E-2     1.168   
   -3.570       0.2238E-2     1.195       0.1621E-2     1.168   
   -3.560       0.2244E-2     1.195       0.1624E-2     1.169   
   -3.550       0.2249E-2     1.195       0.1627E-2     1.169   
   -3.540       0.2255E-2     1.195       0.1631E-2     1.169   
   -3.530       0.2260E-2     1.196       0.1634E-2     1.169   
   -3.520       0.2266E-2     1.196       0.1637E-2     1.169   
   -3.510       0.2272E-2     1.196       0.1640E-2     1.169   
   -3.500       0.2277E-2     1.196       0.1644E-2     1.170   
   -3.490       0.2283E-2     1.197       0.1647E-2     1.170   
   -3.480       0.2288E-2     1.197       0.1650E-2     1.170   
   -3.470       0.2294E-2     1.197       0.1654E-2     1.170   
   -3.460       0.2300E-2     1.197       0.1657E-2     1.170   
   -3.450       0.2305E-2     1.198       0.1660E-2     1.170   
   -3.440       0.2311E-2     1.198       0.1664E-2     1.171   
   -3.430       0.2317E-2     1.198       0.1667E-2     1.171   
   -3.420       0.2323E-2     1.198       0.1671E-2     1.171   
   -3.410       0.2329E-2     1.198       0.1674E-2     1.171   
   -3.400       0.2334E-2     1.199       0.1677E-2     1.171   
   -3.390       0.2340E-2     1.199       0.1681E-2     1.171   
   -3.380       0.2346E-2     1.199       0.1684E-2     1.172   
   -3.370       0.2352E-2     1.199       0.1688E-2     1.172   
   -3.360       0.2358E-2     1.200       0.1691E-2     1.172   
   -3.350       0.2364E-2     1.200       0.1695E-2     1.172   
   -3.340       0.2370E-2     1.200       0.1698E-2     1.172   
   -3.330       0.2376E-2     1.200       0.1702E-2     1.172   
   -3.320       0.2382E-2     1.201       0.1705E-2     1.173   
   -3.310       0.2388E-2     1.201       0.1709E-2     1.173   
   -3.300       0.2394E-2     1.201       0.1712E-2     1.173   
   -3.290       0.2400E-2     1.201       0.1716E-2     1.173   
   -3.280       0.2406E-2     1.202       0.1719E-2     1.173   
   -3.270       0.2412E-2     1.202       0.1723E-2     1.173   
   -3.260       0.2418E-2     1.202       0.1726E-2     1.174   
   -3.250       0.2424E-2     1.202       0.1730E-2     1.174   
   -3.240       0.2431E-2     1.203       0.1733E-2     1.174   
   -3.230       0.2437E-2     1.203       0.1737E-2     1.174   
   -3.220       0.2443E-2     1.203       0.1741E-2     1.174   
   -3.210       0.2449E-2     1.203       0.1744E-2     1.174   
   -3.200       0.2456E-2     1.203       0.1748E-2     1.175   
   -3.190       0.2462E-2     1.204       0.1752E-2     1.175   
   -3.180       0.2468E-2     1.204       0.1755E-2     1.175   
   -3.170       0.2475E-2     1.204       0.1759E-2     1.175   
   -3.160       0.2481E-2     1.204       0.1763E-2     1.175   
   -3.150       0.2487E-2     1.205       0.1766E-2     1.175   
   -3.140       0.2494E-2     1.205       0.1770E-2     1.176   
   -3.130       0.2500E-2     1.205       0.1774E-2     1.176   
   -3.120       0.2507E-2     1.205       0.1777E-2     1.176   
   -3.110       0.2513E-2     1.206       0.1781E-2     1.176   
   -3.100       0.2520E-2     1.206       0.1785E-2     1.176   
   -3.090       0.2527E-2     1.206       0.1789E-2     1.177   
   -3.080       0.2533E-2     1.206       0.1793E-2     1.177   
   -3.070       0.2540E-2     1.207       0.1796E-2     1.177   
   -3.060       0.2547E-2     1.207       0.1800E-2     1.177   
   -3.050       0.2553E-2     1.207       0.1804E-2     1.177   
   -3.040       0.2560E-2     1.207       0.1808E-2     1.177   
   -3.030       0.2567E-2     1.208       0.1812E-2     1.178   
   -3.020       0.2573E-2     1.208       0.1815E-2     1.178   
   -3.010       0.2580E-2     1.208       0.1819E-2     1.178   
   -3.000       0.2587E-2     1.209       0.1823E-2     1.178   
   -2.990       0.2594E-2     1.209       0.1827E-2     1.178   
   -2.980       0.2601E-2     1.209       0.1831E-2     1.179   
   -2.970       0.2608E-2     1.209       0.1835E-2     1.179   
   -2.960       0.2615E-2     1.210       0.1839E-2     1.179   
   -2.950       0.2622E-2     1.210       0.1843E-2     1.179   
   -2.940       0.2629E-2     1.210       0.1847E-2     1.179   
   -2.930       0.2636E-2     1.210       0.1851E-2     1.179   
   -2.920       0.2643E-2     1.211       0.1855E-2     1.180   
   -2.910       0.2650E-2     1.211       0.1859E-2     1.180   
   -2.900       0.2657E-2     1.211       0.1863E-2     1.180   
   -2.890       0.2664E-2     1.211       0.1867E-2     1.180   
   -2.880       0.2671E-2     1.212       0.1871E-2     1.180   
   -2.870       0.2679E-2     1.212       0.1875E-2     1.181   
   -2.860       0.2686E-2     1.212       0.1879E-2     1.181   
   -2.850       0.2693E-2     1.212       0.1883E-2     1.181   
   -2.840       0.2701E-2     1.213       0.1887E-2     1.181   
   -2.830       0.2708E-2     1.213       0.1891E-2     1.181   
   -2.820       0.2715E-2     1.213       0.1895E-2     1.182   
   -2.810       0.2723E-2     1.214       0.1900E-2     1.182   
   -2.800       0.2730E-2     1.214       0.1904E-2     1.182   
   -2.790       0.2738E-2     1.214       0.1908E-2     1.182   
   -2.780       0.2745E-2     1.214       0.1912E-2     1.182   
   -2.770       0.2753E-2     1.215       0.1916E-2     1.182   
   -2.760       0.2760E-2     1.215       0.1920E-2     1.183   
   -2.750       0.2768E-2     1.215       0.1925E-2     1.183   
   -2.740       0.2775E-2     1.215       0.1929E-2     1.183   
   -2.730       0.2783E-2     1.216       0.1933E-2     1.183   
   -2.720       0.2791E-2     1.216       0.1937E-2     1.183   
   -2.710       0.2798E-2     1.216       0.1942E-2     1.184   
   -2.700       0.2806E-2     1.217       0.1946E-2     1.184   
   -2.690       0.2814E-2     1.217       0.1950E-2     1.184   
   -2.680       0.2822E-2     1.217       0.1955E-2     1.184   
   -2.670       0.2830E-2     1.217       0.1959E-2     1.184   
   -2.660       0.2838E-2     1.218       0.1963E-2     1.185   
   -2.650       0.2846E-2     1.218       0.1968E-2     1.185   
   -2.640       0.2854E-2     1.218       0.1972E-2     1.185   
   -2.630       0.2862E-2     1.219       0.1977E-2     1.185   
   -2.620       0.2870E-2     1.219       0.1981E-2     1.185   
   -2.610       0.2878E-2     1.219       0.1985E-2     1.186   
   -2.600       0.2886E-2     1.219       0.1990E-2     1.186   
   -2.590       0.2894E-2     1.220       0.1994E-2     1.186   
   -2.580       0.2902E-2     1.220       0.1999E-2     1.186   
   -2.570       0.2910E-2     1.220       0.2003E-2     1.186   
   -2.560       0.2919E-2     1.221       0.2008E-2     1.187   
   -2.550       0.2927E-2     1.221       0.2012E-2     1.187   
   -2.540       0.2935E-2     1.221       0.2017E-2     1.187   
   -2.530       0.2944E-2     1.221       0.2021E-2     1.187   
   -2.520       0.2952E-2     1.222       0.2026E-2     1.187   
   -2.510       0.2961E-2     1.222       0.2031E-2     1.188   
   -2.500       0.2969E-2     1.222       0.2035E-2     1.188   
   -2.490       0.2978E-2     1.223       0.2040E-2     1.188   
   -2.480       0.2986E-2     1.223       0.2044E-2     1.188   
   -2.470       0.2995E-2     1.223       0.2049E-2     1.188   
   -2.460       0.3003E-2     1.224       0.2054E-2     1.189   
   -2.450       0.3012E-2     1.224       0.2058E-2     1.189   
   -2.440       0.3021E-2     1.224       0.2063E-2     1.189   
   -2.430       0.3030E-2     1.224       0.2068E-2     1.189   
   -2.420       0.3038E-2     1.225       0.2073E-2     1.189   
   -2.410       0.3047E-2     1.225       0.2077E-2     1.190   
   -2.400       0.3056E-2     1.225       0.2082E-2     1.190   
   -2.390       0.3065E-2     1.226       0.2087E-2     1.190   
   -2.380       0.3074E-2     1.226       0.2092E-2     1.190   
   -2.370       0.3083E-2     1.226       0.2097E-2     1.190   
   -2.360       0.3092E-2     1.227       0.2101E-2     1.191   
   -2.350       0.3101E-2     1.227       0.2106E-2     1.191   
   -2.340       0.3110E-2     1.227       0.2111E-2     1.191   
   -2.330       0.3120E-2     1.228       0.2116E-2     1.191   
   -2.320       0.3129E-2     1.228       0.2121E-2     1.192   
   -2.310       0.3138E-2     1.228       0.2126E-2     1.192   
   -2.300       0.3147E-2     1.228       0.2131E-2     1.192   
   -2.290       0.3157E-2     1.229       0.2136E-2     1.192   
   -2.280       0.3166E-2     1.229       0.2141E-2     1.192   
   -2.270       0.3176E-2     1.229       0.2146E-2     1.193   
   -2.260       0.3185E-2     1.230       0.2151E-2     1.193   
   -2.250       0.3195E-2     1.230       0.2156E-2     1.193   
   -2.240       0.3204E-2     1.230       0.2161E-2     1.193   
   -2.230       0.3214E-2     1.231       0.2166E-2     1.193   
   -2.220       0.3223E-2     1.231       0.2171E-2     1.194   
   -2.210       0.3233E-2     1.231       0.2176E-2     1.194   
   -2.200       0.3243E-2     1.232       0.2181E-2     1.194   
   -2.190       0.3253E-2     1.232       0.2186E-2     1.194   
     -2.1800       0.0033       1.2323       0.0022       1.1946
     -2.1700       0.0033       1.2327       0.0022       1.1948
     -2.1600       0.0033       1.2330       0.0022       1.1950
     -2.1500       0.0033       1.2333       0.0022       1.1952
     -2.1400       0.0033       1.2336       0.0022       1.1954
     -2.1300       0.0033       1.2340       0.0022       1.1957
     -2.1200       0.0033       1.2343       0.0022       1.1959
     -2.1100       0.0033       1.2346       0.0022       1.1961
     -2.1000       0.0033       1.2350       0.0022       1.1963
     -2.0900       0.0034       1.2353       0.0022       1.1965
     -2.0800       0.0034       1.2356       0.0022       1.1968
     -2.0700       0.0034       1.2360       0.0022       1.1970
     -2.0600       0.0034       1.2363       0.0023       1.1972
     -2.0500       0.0034       1.2367       0.0023       1.1974
     -2.0400       0.0034       1.2370       0.0023       1.1977
     -2.0300       0.0034       1.2373       0.0023       1.1979
     -2.0200       0.0034       1.2377       0.0023       1.1981
     -2.0100       0.0034       1.2380       0.0023       1.1984
     -2.0000       0.0034       1.2384       0.0023       1.1986
     -1.9900       0.0035       1.2387       0.0023       1.1988
     -1.9800       0.0035       1.2391       0.0023       1.1990
     -1.9700       0.0035       1.2394       0.0023       1.1993
     -1.9600       0.0035       1.2397       0.0023       1.1995
     -1.9500       0.0035       1.2401       0.0023       1.1997
     -1.9400       0.0035       1.2404       0.0023       1.2000
     -1.9300       0.0035       1.2408       0.0023       1.2002
     -1.9200       0.0035       1.2412       0.0023       1.2004
     -1.9100       0.0035       1.2415       0.0023       1.2007
     -1.9000       0.0036       1.2419       0.0023       1.2009
     -1.8900       0.0036       1.2422       0.0024       1.2011
     -1.8800       0.0036       1.2426       0.0024       1.2014
     -1.8700       0.0036       1.2429       0.0024       1.2016
     -1.8600       0.0036       1.2433       0.0024       1.2018
     -1.8500       0.0036       1.2437       0.0024       1.2021
     -1.8400       0.0036       1.2440       0.0024       1.2023
     -1.8300       0.0036       1.2444       0.0024       1.2026
     -1.8200       0.0037       1.2447       0.0024       1.2028
     -1.8100       0.0037       1.2451       0.0024       1.2030
     -1.8000       0.0037       1.2455       0.0024       1.2033
     -1.7900       0.0037       1.2458       0.0024       1.2035
     -1.7800       0.0037       1.2462       0.0024       1.2038
     -1.7700       0.0037       1.2466       0.0024       1.2040
     -1.7600       0.0037       1.2470       0.0024       1.2042
     -1.7500       0.0037       1.2473       0.0024       1.2045
     -1.7400       0.0037       1.2477       0.0024       1.2047
     -1.7300       0.0038       1.2481       0.0024       1.2050
     -1.7200       0.0038       1.2485       0.0025       1.2052
     -1.7100       0.0038       1.2488       0.0025       1.2055
     -1.7000       0.0038       1.2492       0.0025       1.2057
     -1.6900       0.0038       1.2496       0.0025       1.2059
     -1.6800       0.0038       1.2500       0.0025       1.2062
     -1.6700       0.0038       1.2504       0.0025       1.2064
     -1.6600       0.0038       1.2507       0.0025       1.2067
     -1.6500       0.0039       1.2511       0.0025       1.2069
     -1.6400       0.0039       1.2515       0.0025       1.2072
     -1.6300       0.0039       1.2519       0.0025       1.2074
     -1.6200       0.0039       1.2523       0.0025       1.2077
     -1.6100       0.0039       1.2527       0.0025       1.2079
     -1.6000       0.0039       1.2531       0.0025       1.2082
     -1.5900       0.0039       1.2535       0.0025       1.2085
     -1.5800       0.0040       1.2539       0.0025       1.2087
     -1.5700       0.0040       1.2543       0.0025       1.2090
     -1.5600       0.0040       1.2546       0.0026       1.2092
     -1.5500       0.0040       1.2550       0.0026       1.2095
     -1.5400       0.0040       1.2554       0.0026       1.2097
     -1.5300       0.0040       1.2558       0.0026       1.2100
     -1.5200       0.0040       1.2563       0.0026       1.2102
     -1.5100       0.0040       1.2567       0.0026       1.2105
     -1.5000       0.0041       1.2571       0.0026       1.2108
     -1.4900       0.0041       1.2575       0.0026       1.2110
     -1.4800       0.0041       1.2579       0.0026       1.2113
     -1.4700       0.0041       1.2583       0.0026       1.2115
     -1.4600       0.0041       1.2587       0.0026       1.2118
     -1.4500       0.0041       1.2591       0.0026       1.2121
     -1.4400       0.0041       1.2595       0.0026       1.2123
     -1.4300       0.0042       1.2599       0.0026       1.2126
     -1.4200       0.0042       1.2604       0.0026       1.2129
     -1.4100       0.0042       1.2608       0.0027       1.2131
     -1.4000       0.0042       1.2612       0.0027       1.2134
     -1.3900       0.0042       1.2616       0.0027       1.2137
     -1.3800       0.0042       1.2620       0.0027       1.2139
     -1.3700       0.0043       1.2625       0.0027       1.2142
     -1.3600       0.0043       1.2629       0.0027       1.2145
     -1.3500       0.0043       1.2633       0.0027       1.2147
     -1.3400       0.0043       1.2637       0.0027       1.2150
     -1.3300       0.0043       1.2642       0.0027       1.2153
     -1.3200       0.0043       1.2646       0.0027       1.2155
     -1.3100       0.0043       1.2650       0.0027       1.2158
     -1.3000       0.0044       1.2655       0.0027       1.2161
     -1.2900       0.0044       1.2659       0.0027       1.2164
     -1.2800       0.0044       1.2663       0.0027       1.2166
     -1.2700       0.0044       1.2668       0.0028       1.2169
     -1.2600       0.0044       1.2672       0.0028       1.2172
     -1.2500       0.0044       1.2677       0.0028       1.2175
     -1.2400       0.0045       1.2681       0.0028       1.2177
     -1.2300       0.0045       1.2686       0.0028       1.2180
     -1.2200       0.0045       1.2690       0.0028       1.2183
     -1.2100       0.0045       1.2695       0.0028       1.2186
     -1.2000       0.0045       1.2699       0.0028       1.2189
     -1.1900       0.0045       1.2704       0.0028       1.2191
     -1.1800       0.0046       1.2708       0.0028       1.2194
     -1.1700       0.0046       1.2713       0.0028       1.2197
     -1.1600       0.0046       1.2717       0.0028       1.2200
     -1.1500       0.0046       1.2722       0.0028       1.2203
     -1.1400       0.0046       1.2726       0.0029       1.2205
     -1.1300       0.0046       1.2731       0.0029       1.2208
     -1.1200       0.0047       1.2736       0.0029       1.2211
     -1.1100       0.0047       1.2740       0.0029       1.2214
     -1.1000       0.0047       1.2745       0.0029       1.2217
     -1.0900       0.0047       1.2750       0.0029       1.2220
     -1.0800       0.0047       1.2754       0.0029       1.2223
     -1.0700       0.0047       1.2759       0.0029       1.2226
     -1.0600       0.0048       1.2764       0.0029       1.2229
     -1.0500       0.0048       1.2769       0.0029       1.2232
     -1.0400       0.0048       1.2774       0.0029       1.2234
     -1.0300       0.0048       1.2778       0.0029       1.2237
     -1.0200       0.0048       1.2783       0.0030       1.2240
     -1.0100       0.0049       1.2788       0.0030       1.2243
     -1.0000       0.0049       1.2793       0.0030       1.2246
     -0.9900       0.0049       1.2798       0.0030       1.2249
     -0.9800       0.0049       1.2803       0.0030       1.2252
     -0.9700       0.0049       1.2808       0.0030       1.2255
     -0.9600       0.0049       1.2812       0.0030       1.2258
     -0.9500       0.0050       1.2817       0.0030       1.2261
     -0.9400       0.0050       1.2822       0.0030       1.2264
     -0.9300       0.0050       1.2827       0.0030       1.2267
     -0.9200       0.0050       1.2832       0.0030       1.2270
     -0.9100       0.0050       1.2837       0.0030       1.2273
     -0.9000       0.0051       1.2842       0.0031       1.2276
     -0.8900       0.0051       1.2848       0.0031       1.2279
     -0.8800       0.0051       1.2853       0.0031       1.2282
     -0.8700       0.0051       1.2858       0.0031       1.2286
     -0.8600       0.0051       1.2863       0.0031       1.2289
     -0.8500       0.0052       1.2868       0.0031       1.2292
     -0.8400       0.0052       1.2873       0.0031       1.2295
     -0.8300       0.0052       1.2878       0.0031       1.2298
     -0.8200       0.0052       1.2884       0.0031       1.2301
     -0.8100       0.0052       1.2889       0.0031       1.2304
     -0.8000       0.0053       1.2894       0.0031       1.2307
     -0.7900       0.0053       1.2899       0.0032       1.2310
     -0.7800       0.0053       1.2905       0.0032       1.2314
     -0.7700       0.0053       1.2910       0.0032       1.2317
     -0.7600       0.0054       1.2915       0.0032       1.2320
     -0.7500       0.0054       1.2921       0.0032       1.2323
     -0.7400       0.0054       1.2926       0.0032       1.2326
     -0.7300       0.0054       1.2931       0.0032       1.2330
     -0.7200       0.0054       1.2937       0.0032       1.2333
     -0.7100       0.0055       1.2942       0.0032       1.2336
     -0.7000       0.0055       1.2948       0.0032       1.2339
     -0.6900       0.0055       1.2953       0.0032       1.2342
     -0.6800       0.0055       1.2959       0.0033       1.2346
     -0.6700       0.0056       1.2964       0.0033       1.2349
     -0.6600       0.0056       1.2970       0.0033       1.2352
     -0.6500       0.0056       1.2975       0.0033       1.2355
     -0.6400       0.0056       1.2981       0.0033       1.2359
     -0.6300       0.0056       1.2987       0.0033       1.2362
     -0.6200       0.0057       1.2992       0.0033       1.2365
     -0.6100       0.0057       1.2998       0.0033       1.2369
     -0.6000       0.0057       1.3004       0.0033       1.2372
     -0.5900       0.0057       1.3009       0.0033       1.2375
     -0.5800       0.0058       1.3015       0.0034       1.2379
     -0.5700       0.0058       1.3021       0.0034       1.2382
     -0.5600       0.0058       1.3027       0.0034       1.2385
     -0.5500       0.0058       1.3033       0.0034       1.2389
     -0.5400       0.0059       1.3039       0.0034       1.2392
     -0.5300       0.0059       1.3044       0.0034       1.2396
     -0.5200       0.0059       1.3050       0.0034       1.2399
     -0.5100       0.0059       1.3056       0.0034       1.2402
     -0.5000       0.0060       1.3062       0.0034       1.2406
     -0.4900       0.0060       1.3068       0.0034       1.2409
     -0.4800       0.0060       1.3074       0.0035       1.2413
     -0.4700       0.0060       1.3080       0.0035       1.2416
     -0.4600       0.0061       1.3086       0.0035       1.2420
     -0.4500       0.0061       1.3092       0.0035       1.2423
     -0.4400       0.0061       1.3098       0.0035       1.2427
     -0.4300       0.0062       1.3105       0.0035       1.2430
     -0.4200       0.0062       1.3111       0.0035       1.2434
     -0.4100       0.0062       1.3117       0.0035       1.2437
     -0.4000       0.0062       1.3123       0.0035       1.2441
     -0.3900       0.0063       1.3129       0.0036       1.2444
     -0.3800       0.0063       1.3136       0.0036       1.2448
     -0.3700       0.0063       1.3142       0.0036       1.2451
     -0.3600       0.0064       1.3148       0.0036       1.2455
     -0.3500       0.0064       1.3155       0.0036       1.2459
     -0.3400       0.0064       1.3161       0.0036       1.2462
     -0.3300       0.0064       1.3167       0.0036       1.2466
     -0.3200       0.0065       1.3174       0.0036       1.2469
     -0.3100       0.0065       1.3180       0.0036       1.2473
     -0.3000       0.0065       1.3187       0.0037       1.2477
     -0.2900       0.0066       1.3193       0.0037       1.2480
     -0.2800       0.0066       1.3200       0.0037       1.2484
     -0.2700       0.0066       1.3207       0.0037       1.2488
     -0.2600       0.0066       1.3213       0.0037       1.2491
     -0.2500       0.0067       1.3220       0.0037       1.2495
     -0.2400       0.0067       1.3227       0.0037       1.2499
     -0.2300       0.0067       1.3233       0.0037       1.2503
     -0.2200       0.0068       1.3240       0.0038       1.2506
     -0.2100       0.0068       1.3247       0.0038       1.2510
     -0.2000       0.0068       1.3254       0.0038       1.2514
     -0.1900       0.0069       1.3260       0.0038       1.2518
     -0.1800       0.0069       1.3267       0.0038       1.2521
     -0.1700       0.0069       1.3274       0.0038       1.2525
     -0.1600       0.0070       1.3281       0.0038       1.2529
     -0.1500       0.0070       1.3288       0.0038       1.2533
     -0.1400       0.0070       1.3295       0.0038       1.2537
     -0.1300       0.0071       1.3302       0.0039       1.2541
     -0.1200       0.0071       1.3309       0.0039       1.2544
     -0.1100       0.0071       1.3316       0.0039       1.2548
     -0.1000       0.0072       1.3324       0.0039       1.2552
     -0.0900       0.0072       1.3331       0.0039       1.2556
     -0.0800       0.0072       1.3338       0.0039       1.2560
     -0.0700       0.0073       1.3345       0.0039       1.2564
     -0.0600       0.0073       1.3352       0.0040       1.2568
     -0.0500       0.0073       1.3360       0.0040       1.2572
     -0.0400       0.0074       1.3367       0.0040       1.2576
     -0.0300       0.0074       1.3375       0.0040       1.2580
     -0.0200       0.0075       1.3382       0.0040       1.2584
     -0.0100       0.0075       1.3389       0.0040       1.2588
      0.0000       0.0075       1.3397       0.0040       1.2592
      0.0100       0.0076       1.3404       0.0040       1.2596
      0.0200       0.0076       1.3412       0.0041       1.2600
      0.0300       0.0076       1.3420       0.0041       1.2604
      0.0400       0.0077       1.3427       0.0041       1.2608
      0.0500       0.0077       1.3435       0.0041       1.2612
      0.0600       0.0078       1.3443       0.0041       1.2616
      0.0700       0.0078       1.3450       0.0041       1.2620
      0.0800       0.0078       1.3458       0.0041       1.2625
      0.0900       0.0079       1.3466       0.0042       1.2629
      0.1000       0.0079       1.3474       0.0042       1.2633
      0.1100       0.0080       1.3482       0.0042       1.2637
      0.1200       0.0080       1.3490       0.0042       1.2641
      0.1300       0.0080       1.3498       0.0042       1.2645
      0.1400       0.0081       1.3506       0.0042       1.2650
      0.1500       0.0081       1.3514       0.0042       1.2654
      0.1600       0.0082       1.3522       0.0043       1.2658
      0.1700       0.0082       1.3530       0.0043       1.2662
      0.1800       0.0083       1.3539       0.0043       1.2667
      0.1900       0.0083       1.3547       0.0043       1.2671
      0.2000       0.0083       1.3555       0.0043       1.2675
      0.2100       0.0084       1.3564       0.0043       1.2680
      0.2200       0.0084       1.3572       0.0043       1.2684
      0.2300       0.0085       1.3580       0.0044       1.2688
      0.2400       0.0085       1.3589       0.0044       1.2693
      0.2500       0.0086       1.3597       0.0044       1.2697
      0.2600       0.0086       1.3606       0.0044       1.2701
      0.2700       0.0087       1.3615       0.0044       1.2706
      0.2800       0.0087       1.3623       0.0044       1.2710
      0.2900       0.0088       1.3632       0.0045       1.2715
      0.3000       0.0088       1.3641       0.0045       1.2719
      0.3100       0.0089       1.3650       0.0045       1.2724
      0.3200       0.0089       1.3659       0.0045       1.2728
      0.3300       0.0090       1.3667       0.0045       1.2733
      0.3400       0.0090       1.3676       0.0045       1.2737
      0.3500       0.0091       1.3685       0.0046       1.2742
      0.3600       0.0091       1.3694       0.0046       1.2746
      0.3700       0.0092       1.3704       0.0046       1.2751
      0.3800       0.0092       1.3713       0.0046       1.2755
      0.3900       0.0093       1.3722       0.0046       1.2760
      0.4000       0.0093       1.3731       0.0046       1.2765
      0.4100       0.0094       1.3741       0.0047       1.2769
      0.4200       0.0094       1.3750       0.0047       1.2774
      0.4300       0.0095       1.3759       0.0047       1.2779
      0.4400       0.0095       1.3769       0.0047       1.2783
      0.4500       0.0096       1.3778       0.0047       1.2788
      0.4600       0.0096       1.3788       0.0047       1.2793
      0.4700       0.0097       1.3798       0.0048       1.2798
      0.4800       0.0098       1.3807       0.0048       1.2802
      0.4900       0.0098       1.3817       0.0048       1.2807
      0.5000       0.0099       1.3827       0.0048       1.2812
      0.5100       0.0099       1.3837       0.0048       1.2817
      0.5200       0.0100       1.3847       0.0048       1.2822
      0.5300       0.0100       1.3857       0.0049       1.2826
      0.5400       0.0101       1.3867       0.0049       1.2831
      0.5500       0.0102       1.3877       0.0049       1.2836
      0.5600       0.0102       1.3887       0.0049       1.2841
      0.5700       0.0103       1.3897       0.0049       1.2846
      0.5800       0.0103       1.3908       0.0050       1.2851
      0.5900       0.0104       1.3918       0.0050       1.2856
      0.6000       0.0105       1.3928       0.0050       1.2861
      0.6100       0.0105       1.3939       0.0050       1.2866
      0.6200       0.0106       1.3949       0.0050       1.2871
      0.6300       0.0107       1.3960       0.0051       1.2876
      0.6400       0.0107       1.3971       0.0051       1.2881
      0.6500       0.0108       1.3981       0.0051       1.2886
      0.6600       0.0109       1.3992       0.0051       1.2891
      0.6700       0.0109       1.4003       0.0051       1.2896
      0.6800       0.0110       1.4014       0.0052       1.2901
      0.6900       0.0111       1.4025       0.0052       1.2907
      0.7000       0.0111       1.4036       0.0052       1.2912
      0.7100       0.0112       1.4047       0.0052       1.2917
      0.7200       0.0113       1.4059       0.0052       1.2922
      0.7300       0.0114       1.4070       0.0053       1.2927
      0.7400       0.0114       1.4081       0.0053       1.2933
      0.7500       0.0115       1.4093       0.0053       1.2938
      0.7600       0.0116       1.4104       0.0053       1.2943
      0.7700       0.0117       1.4116       0.0053       1.2949
      0.7800       0.0117       1.4128       0.0054       1.2954
      0.7900       0.0118       1.4139       0.0054       1.2959
      0.8000       0.0119       1.4151       0.0054       1.2965
      0.8100       0.0120       1.4163       0.0054       1.2970
      0.8200       0.0120       1.4175       0.0054       1.2975
      0.8300       0.0121       1.4187       0.0055       1.2981
      0.8400       0.0122       1.4199       0.0055       1.2986
      0.8500       0.0123       1.4211       0.0055       1.2992
      0.8600       0.0124       1.4224       0.0055       1.2997
      0.8700       0.0125       1.4236       0.0056       1.3003
      0.8800       0.0125       1.4249       0.0056       1.3009
      0.8900       0.0126       1.4261       0.0056       1.3014
      0.9000       0.0127       1.4274       0.0056       1.3020
      0.9100       0.0128       1.4286       0.0056       1.3025
      0.9200       0.0129       1.4299       0.0057       1.3031
      0.9300       0.0130       1.4312       0.0057       1.3037
      0.9400       0.0131       1.4325       0.0057       1.3042
      0.9500       0.0132       1.4338       0.0057       1.3048
      0.9600       0.0133       1.4351       0.0058       1.3054
      0.9700       0.0134       1.4365       0.0058       1.3060
      0.9800       0.0134       1.4378       0.0058       1.3065
      0.9900       0.0135       1.4392       0.0058       1.3071
      1.0000       0.0136       1.4405       0.0059       1.3077
      1.0100       0.0137       1.4419       0.0059       1.3083
      1.0200       0.0138       1.4433       0.0059       1.3089
      1.0300       0.0139       1.4446       0.0059       1.3095
      1.0400       0.0140       1.4460       0.0060       1.3101
      1.0500       0.0141       1.4474       0.0060       1.3107
      1.0600       0.0142       1.4489       0.0060       1.3113
      1.0700       0.0144       1.4503       0.0060       1.3119
      1.0800       0.0145       1.4517       0.0061       1.3125
      1.0900       0.0146       1.4532       0.0061       1.3131
      1.1000       0.0147       1.4546       0.0061       1.3137
      1.1100       0.0148       1.4561       0.0061       1.3143
      1.1200       0.0149       1.4576       0.0062       1.3149
      1.1300       0.0150       1.4591       0.0062       1.3155
      1.1400       0.0151       1.4606       0.0062       1.3162
      1.1500       0.0152       1.4621       0.0063       1.3168
      1.1600       0.0154       1.4636       0.0063       1.3174
      1.1700       0.0155       1.4651       0.0063       1.3180
      1.1800       0.0156       1.4667       0.0063       1.3187
      1.1900       0.0157       1.4683       0.0064       1.3193
      1.2000       0.0159       1.4698       0.0064       1.3199
      1.2100       0.0160       1.4714       0.0064       1.3206
      1.2200       0.0161       1.4730       0.0064       1.3212
      1.2300       0.0162       1.4746       0.0065       1.3219
      1.2400       0.0164       1.4762       0.0065       1.3225
      1.2500       0.0165       1.4779       0.0065       1.3232
      1.2600       0.0166       1.4795       0.0066       1.3238
      1.2700       0.0168       1.4812       0.0066       1.3245
      1.2800       0.0169       1.4829       0.0066       1.3251
      1.2900       0.0170       1.4846       0.0067       1.3258
      1.3000       0.0172       1.4863       0.0067       1.3265
      1.3100       0.0173       1.4880       0.0067       1.3271
      1.3200       0.0175       1.4897       0.0067       1.3278
      1.3300       0.0176       1.4915       0.0068       1.3285
      1.3400       0.0178       1.4932       0.0068       1.3292
      1.3500       0.0179       1.4950       0.0068       1.3298
      1.3600       0.0181       1.4968       0.0069       1.3305
      1.3700       0.0182       1.4986       0.0069       1.3312
      1.3800       0.0184       1.5004       0.0069       1.3319
      1.3900       0.0185       1.5023       0.0070       1.3326
      1.4000       0.0187       1.5041       0.0070       1.3333
      1.4100       0.0189       1.5060       0.0070       1.3340
      1.4200       0.0190       1.5079       0.0071       1.3347
      1.4300       0.0192       1.5098       0.0071       1.3354
      1.4400       0.0194       1.5117       0.0071       1.3361
      1.4500       0.0195       1.5136       0.0072       1.3368
      1.4600       0.0197       1.5156       0.0072       1.3375
      1.4700       0.0199       1.5176       0.0072       1.3383
      1.4800       0.0201       1.5196       0.0073       1.3390
      1.4900       0.0203       1.5216       0.0073       1.3397
      1.5000       0.0205       1.5236       0.0073       1.3404
      1.5100       0.0206       1.5256       0.0074       1.3412
      1.5200       0.0208       1.5277       0.0074       1.3419
      1.5300       0.0210       1.5298       0.0074       1.3427
      1.5400       0.0212       1.5319       0.0075       1.3434
      1.5500       0.0214       1.5340       0.0075       1.3442
      1.5600       0.0216       1.5362       0.0076       1.3449
      1.5700       0.0218       1.5383       0.0076       1.3457
      1.5800       0.0221       1.5405       0.0076       1.3464
      1.5900       0.0223       1.5427       0.0077       1.3472
      1.6000       0.0225       1.5449       0.0077       1.3480
      1.6100       0.0227       1.5472       0.0077       1.3487
      1.6200       0.0229       1.5495       0.0078       1.3495
      1.6300       0.0232       1.5517       0.0078       1.3503
      1.6400       0.0234       1.5541       0.0079       1.3511
      1.6500       0.0236       1.5564       0.0079       1.3519
      1.6600       0.0239       1.5588       0.0079       1.3526
      1.6700       0.0241       1.5611       0.0080       1.3534
      1.6800       0.0244       1.5636       0.0080       1.3542
      1.6900       0.0246       1.5660       0.0081       1.3550
      1.7000       0.0249       1.5685       0.0081       1.3559
      1.7100       0.0251       1.5709       0.0081       1.3567
      1.7200       0.0254       1.5734       0.0082       1.3575
      1.7300       0.0257       1.5760       0.0082       1.3583
      1.7400       0.0259       1.5785       0.0083       1.3591
      1.7500       0.0262       1.5811       0.0083       1.3600
      1.7600       0.0265       1.5838       0.0084       1.3608
      1.7700       0.0268       1.5864       0.0084       1.3616
      1.7800       0.0271       1.5891       0.0084       1.3625
      1.7900       0.0274       1.5918       0.0085       1.3633
      1.8000       0.0277       1.5945       0.0085       1.3642
      1.8100       0.0280       1.5973       0.0086       1.3650
      1.8200       0.0283       1.6001       0.0086       1.3659
      1.8300       0.0286       1.6029       0.0087       1.3667
      1.8400       0.0290       1.6058       0.0087       1.3676
      1.8500       0.0293       1.6087       0.0088       1.3685
      1.8600       0.0296       1.6116       0.0088       1.3694
      1.8700       0.0300       1.6145       0.0089       1.3702
      1.8800       0.0303       1.6175       0.0089       1.3711
      1.8900       0.0307       1.6206       0.0090       1.3720
      1.9000       0.0311       1.6236       0.0090       1.3729
      1.9100       0.0314       1.6267       0.0091       1.3738
      1.9200       0.0318       1.6299       0.0091       1.3747
      1.9300       0.0322       1.6330       0.0092       1.3756
      1.9400       0.0326       1.6362       0.0092       1.3766
      1.9500       0.0330       1.6395       0.0093       1.3775
      1.9600       0.0334       1.6428       0.0093       1.3784
      1.9700       0.0338       1.6461       0.0094       1.3793
      1.9800       0.0343       1.6495       0.0094       1.3803
      1.9900       0.0347       1.6529       0.0095       1.3812
      2.0000       0.0351       1.6564       0.0095       1.3822
      2.0100       0.0356       1.6599       0.0096       1.3831
      2.0200       0.0361       1.6634       0.0096       1.3841
      2.0300       0.0365       1.6670       0.0097       1.3850
      2.0400       0.0370       1.6707       0.0098       1.3860
      2.0500       0.0375       1.6744       0.0098       1.3870
      2.0600       0.0380       1.6781       0.0099       1.3880
      2.0700       0.0386       1.6819       0.0099       1.3890
      2.0800       0.0391       1.6857       0.0100       1.3900
     2.09000      0.03963      1.68963      0.01004      1.39096
     2.10000      0.04018      1.69358      0.01010      1.39196
     2.11000      0.04075      1.69758      0.01016      1.39297
     2.12000      0.04133      1.70164      0.01022      1.39399
     2.13000      0.04193      1.70575      0.01028      1.39501
     2.14000      0.04254      1.70993      0.01034      1.39604
     2.15000      0.04316      1.71416      0.01040      1.39708
     2.16000      0.04380      1.71846      0.01047      1.39812
     2.17000      0.04446      1.72282      0.01053      1.39917
     2.18000      0.04513      1.72724      0.01060      1.40022
     2.19000      0.04582      1.73173      0.01066      1.40128
     2.20000      0.04653      1.73629      0.01073      1.40235
     2.21000      0.04725      1.74091      0.01079      1.40342
     2.22000      0.04800      1.74561      0.01086      1.40450
     2.23000      0.04876      1.75038      0.01093      1.40559
     2.24000      0.04954      1.75522      0.01099      1.40668
     2.25000      0.05035      1.76014      0.01106      1.40778
     2.26000      0.05118      1.76514      0.01113      1.40889
     2.27000      0.05203      1.77022      0.01120      1.41000
     2.28000      0.05290      1.77539      0.01127      1.41113
     2.29000      0.05380      1.78063      0.01135      1.41225
     2.30000      0.05473      1.78597      0.01142      1.41339
     2.31000      0.05568      1.79139      0.01149      1.41453
     2.32000      0.05667      1.79691      0.01157      1.41568
     2.33000      0.05768      1.80251      0.01164      1.41684
     2.34000      0.05873      1.80822      0.01172      1.41801
     2.35000      0.05981      1.81403      0.01179      1.41918
     2.36000      0.06092      1.81994      0.01187      1.42036
     2.37000      0.06207      1.82595      0.01195      1.42155
     2.38000      0.06326      1.83207      0.01203      1.42274
     2.39000      0.06450      1.83831      0.01211      1.42395
     2.40000      0.06578      1.84466      0.01219      1.42516
     2.41000      0.06710      1.85113      0.01227      1.42638
     2.42000      0.06848      1.85772      0.01235      1.42761
     2.43000      0.06991      1.86443      0.01244      1.42884
     2.44000      0.07139      1.87127      0.01252      1.43009
     2.45000      0.07294      1.87824      0.01261      1.43134
     2.46000      0.07456      1.88534      0.01269      1.43260
     2.47000      0.07625      1.89258      0.01278      1.43387
     2.48000      0.07801      1.89996      0.01287      1.43515
     2.49000      0.07986      1.90747      0.01296      1.43644
     2.50000      0.08180      1.91513      0.01305      1.43774
     2.51000      0.08384      1.92292      0.01314      1.43904
     2.52000      0.08598      1.93086      0.01323      1.44036
     2.53000      0.08824      1.93892      0.01333      1.44168
     2.54000      0.09060      1.94711      0.01342      1.44302
     2.55000      0.09309      1.95541      0.01352      1.44436
     2.56000      0.09570      1.96382      0.01362      1.44571
     2.57000      0.09842      1.97233      0.01371      1.44708
     2.58000      0.10124      1.98091      0.01381      1.44845
     2.59000      0.10414      1.98957      0.01391      1.44983
     2.60000      0.10709      1.99831      0.01402      1.45122
     2.61000      0.11006      2.00713      0.01412      1.45263
     2.62000      0.11302      2.01607      0.01422      1.45404
     2.63000      0.11596      2.02517      0.01433      1.45546
     2.64000      0.11886      2.03447      0.01444      1.45690
     2.65000      0.12175      2.04404      0.01455      1.45834
     2.66000      0.12464      2.05391      0.01466      1.45980
     2.67000      0.12759      2.06412      0.01477      1.46126
     2.68000      0.13065      2.07468      0.01488      1.46274
     2.69000      0.13385      2.08560      0.01499      1.46423
     2.70000      0.13723      2.09687      0.01511      1.46573
     2.71000      0.14082      2.10848      0.01523      1.46724
     2.72000      0.14465      2.12043      0.01534      1.46877
     2.73000      0.14873      2.13269      0.01546      1.47030
     2.74000      0.15309      2.14528      0.01559      1.47185
     2.75000      0.15776      2.15817      0.01571      1.47341
     2.76000      0.16276      2.17136      0.01583      1.47498
     2.77000      0.16813      2.18482      0.01596      1.47656
     2.78000      0.17390      2.19850      0.01609      1.47816
     2.79000      0.18006      2.21236      0.01622      1.47977
     2.80000      0.18664      2.22633      0.01635      1.48139
     2.81000      0.19358      2.24033      0.01648      1.48303
     2.82000      0.20083      2.25430      0.01662      1.48468
     2.83000      0.20828      2.26817      0.01676      1.48634
     2.84000      0.21578      2.28193      0.01690      1.48801
     2.85000      0.22317      2.29562      0.01704      1.48970
     2.86000      0.23027      2.30937      0.01718      1.49141
     2.87000      0.23696      2.32337      0.01733      1.49313
     2.88000      0.24319      2.33787      0.01747      1.49486
     2.89000      0.24900      2.35313      0.01762      1.49661
     2.90000      0.25451      2.36939      0.01777      1.49837
     2.91000      0.25993      2.38683      0.01793      1.50015
     2.92000      0.26547      2.40553      0.01808      1.50194
     2.93000      0.27133      2.42553      0.01824      1.50375
     2.94000      0.27770      2.44682      0.01840      1.50557
     2.95000      0.28471      2.46936      0.01856      1.50741
     2.96000      0.29246      2.49310      0.01873      1.50927
     2.97000      0.30105      2.51801      0.01890      1.51114
     2.98000      0.31053      2.54406      0.01907      1.51303
     2.99000      0.32095      2.57124      0.01924      1.51494
     3.00000      0.33238      2.59957      0.01942      1.51686
     3.01000      0.34486      2.62905      0.01959      1.51880
     3.02000      0.35846      2.65972      0.01978      1.52076
     3.03000      0.37324      2.69162      0.01996      1.52274
     3.04000      0.38929      2.72480      0.02015      1.52474
     3.05000      0.40669      2.75932      0.02034      1.52675
     3.06000      0.42555      2.79526      0.02053      1.52878
     3.07000      0.44600      2.83268      0.02073      1.53083
     3.08000      0.46818      2.87166      0.02092      1.53291
     3.09000      0.49224      2.91229      0.02113      1.53500
     3.10000      0.51837      2.95466      0.02133      1.53711
     3.11000      0.54679      2.99887      0.02154      1.53924
     3.12000      0.57772      3.04501      0.02175      1.54139
     3.13000      0.61144      3.09318      0.02197      1.54357
     3.14000      0.64828      3.14349      0.02219      1.54576
     3.15000      0.68857      3.19604      0.02241      1.54798
     3.16000      0.73274      3.25093      0.02264      1.55022
     3.17000      0.78126      3.30824      0.02287      1.55248
     3.18000      0.83466      3.36805      0.02311      1.55477
     3.19000      0.89357      3.43040      0.02335      1.55708
     3.20000      0.95870      3.49534      0.02359      1.55941
     3.21000      1.03088      3.56282      0.02384      1.56177
     3.22000      1.11107      3.63276      0.02409      1.56415
     3.23000      1.20035      3.70499      0.02435      1.56655
     3.24000      1.29999      3.77921      0.02461      1.56899
     3.25000      1.41145      3.85495      0.02487      1.57144
     3.26000      1.53636      3.93151      0.02515      1.57393
     3.27000      1.67660      4.00790      0.02542      1.57644
     3.28000      1.83427      4.08270      0.02570      1.57898
     3.29000      2.01167      4.15394      0.02599      1.58155
     3.30000      2.21125      4.21898      0.02628      1.58414
     3.31000      2.43552      4.27421      0.02658      1.58676
     3.32000      2.68687      4.31489      0.02688      1.58942
     3.33000      2.96720      4.33485      0.02719      1.59210
     3.34000      3.27748      4.32630      0.02751      1.59482
     3.35000      3.61702      4.27965      0.02783      1.59756
     3.36000      3.98240      4.18372      0.02816      1.60034
     3.37000      4.36644      4.02629      0.02849      1.60315
     3.38000      4.75688      3.79539      0.02884      1.60599
     3.39000      5.13568      3.48154      0.02918      1.60887
     3.40000      5.47923      3.08069      0.02954      1.61178
     3.41000      5.76043      2.59745      0.02990      1.61473
     3.42000      5.95269      2.04735      0.03027      1.61771
     3.43000      6.03544      1.45669      0.03065      1.62073
     3.44000      5.99921      0.85907      0.03104      1.62379
     3.45000      5.84821      0.28943      0.03143      1.62688
     3.46000      5.59917     -0.22249      0.03184      1.63002
     3.47000      5.27699     -0.65674      0.03225      1.63319
     3.48000      4.90916     -1.00458      0.03267      1.63641
     3.49000      4.52102     -1.26703      0.03310      1.63966
     3.50000      4.13292     -1.45182      0.03354      1.64296
     3.51000      3.75932     -1.57027      0.03400      1.64630
     3.52000      3.40928     -1.63467      0.03446      1.64969
     3.53000      3.08754     -1.65675      0.03493      1.65312
     3.54000      2.79572     -1.64675      0.03541      1.65660
     3.55000      2.53341     -1.61315      0.03591      1.66013
     3.56000      2.29901     -1.56274      0.03641      1.66371
     3.57000      2.09027     -1.50080      0.03693      1.66733
     3.58000      1.90471     -1.43134      0.03746      1.67101
     3.59000      1.73983     -1.35735      0.03801      1.67474
     3.60000      1.59326     -1.28107      0.03856      1.67852
     3.61000      1.46283     -1.20408      0.03914      1.68235
     3.62000      1.34657     -1.12754      0.03972      1.68625
     3.63000      1.24277     -1.05228      0.04032      1.69020
     3.64000      1.14987     -0.97881      0.04094      1.69421
     3.65000      1.06657     -0.90751      0.04157      1.69828
     3.66000      0.99169     -0.83860      0.04222      1.70241
     3.67000      0.92425     -0.77221      0.04289      1.70661
     3.68000      0.86336     -0.70837      0.04357      1.71087
     3.69000      0.80828     -0.64709      0.04428      1.71519
     3.70000      0.75835     -0.58832      0.04500      1.71959
     3.71000      0.71300     -0.53201      0.04574      1.72406
     3.72000      0.67174     -0.47808      0.04651      1.72860
     3.73000      0.63414     -0.42645      0.04729      1.73321
     3.74000      0.59984     -0.37702      0.04810      1.73791
     3.75000      0.56849     -0.32972      0.04893      1.74268
     3.76000      0.53982     -0.28446      0.04979      1.74753
     3.77000      0.51356     -0.24118      0.05067      1.75246
     3.78000      0.48948     -0.19980      0.05158      1.75748
     3.79000      0.46737     -0.16027      0.05252      1.76259
     3.80000      0.44701     -0.12254      0.05349      1.76779
     3.81000      0.42820     -0.08656      0.05448      1.77308
     3.82000      0.41072     -0.05226      0.05551      1.77847
     3.83000      0.39439     -0.01957      0.05657      1.78396
     3.84000      0.37899      0.01163      0.05767      1.78955
     3.85000      0.36436      0.04146      0.05880      1.79525
     3.86000      0.35035      0.07008      0.05997      1.80106
     3.87000      0.33689      0.09768      0.06118      1.80698
     3.88000      0.32393      0.12440      0.06243      1.81301
     3.89000      0.31147      0.15037      0.06372      1.81917
     3.90000      0.29955      0.17569      0.06506      1.82545
     3.91000      0.28819      0.20042      0.06645      1.83186
     3.92000      0.27741      0.22458      0.06788      1.83840
     3.93000      0.26721      0.24819      0.06937      1.84508
     3.94000      0.25760      0.27124      0.07092      1.85190
     3.95000      0.24856      0.29374      0.07252      1.85886
     3.96000      0.24006      0.31569      0.07419      1.86598
     3.97000      0.23207      0.33709      0.07592      1.87326
     3.98000      0.22456      0.35796      0.07771      1.88070
     3.99000      0.21750      0.37830      0.07958      1.88831
     4.00000      0.21086      0.39813      0.08153      1.89610
     4.01000      0.20461      0.41746      0.08356      1.90407
     4.02000      0.19872      0.43631      0.08567      1.91223
     4.03000      0.19316      0.45470      0.08787      1.92059
     4.04000      0.18791      0.47265      0.09016      1.92916
     4.05000      0.18296      0.49017      0.09256      1.93793
     4.06000      0.17828      0.50729      0.09506      1.94693
     4.07000      0.17385      0.52402      0.09768      1.95617
    4.080000     0.169661     0.540372     0.100416     1.965640
    4.090001     0.165695     0.556376     0.103283     1.975367
    4.100000     0.161940     0.572041     0.106285     1.985354
    4.110001     0.158382     0.587386     0.109434     1.995618
    4.120000     0.155012     0.602420     0.112738     2.006166
    4.130001     0.151818     0.617166     0.116209     2.017015
    4.140000     0.148792     0.631630     0.119858     2.028176
    4.150001     0.145924     0.645831     0.123697     2.039666
    4.160000     0.143207     0.659778     0.127740     2.051496
    4.170001     0.140634     0.673488     0.132002     2.063688
    4.180000     0.138198     0.686967     0.136499     2.076254
    4.190001     0.135893     0.700232     0.141251     2.089216
    4.200000     0.133714     0.713289     0.146274     2.102591
    4.210001     0.131655     0.726154     0.151593     2.116403
    4.219999     0.129712     0.738833     0.157229     2.130669
    4.230000     0.127879     0.751339     0.163210     2.145417
    4.239999     0.126155     0.763678     0.169563     2.160669
    4.250000     0.124534     0.775864     0.176323     2.176454
    4.259999     0.123015     0.787902     0.183521     2.192797
    4.270000     0.121592     0.799803     0.191199     2.209732
    4.280001     0.120266     0.811577     0.199401     2.227287
    4.290000     0.119032     0.823227     0.208172     2.245495
    4.300001     0.117888     0.834767     0.217570     2.264396
    4.310000     0.116834     0.846201     0.227652     2.284022
    4.320001     0.115868     0.857541     0.238489     2.304418
    4.330000     0.114987     0.868790     0.250154     2.325621
    4.340001     0.114192     0.879960     0.262736     2.347679
    4.350000     0.113482     0.891055     0.276328     2.370633
    4.360001     0.112855     0.902086     0.291044     2.394536
    4.370000     0.112313     0.913057     0.307002     2.419429
    4.380001     0.111854     0.923979     0.324349     2.445368
    4.390000     0.111480     0.934856     0.343240     2.472394
    4.400001     0.111190     0.945698     0.363862     2.500562
    4.410000     0.110986     0.956510     0.386420     2.529907
    4.420001     0.110868     0.967303     0.411158     2.560476
    4.430000     0.110839     0.978080     0.438344     2.592288
    4.440001     0.110901     0.988854     0.468301     2.625371
    4.450000     0.111054     0.999627     0.501381     2.659708
    4.460001     0.111303     1.010412     0.538012     2.695281
    4.470000     0.111650     1.021212     0.578658     2.732007
    4.480000     0.112098     1.032041     0.623881     2.769778
    4.490000     0.112652     1.042902     0.674290     2.808385
    4.500000     0.113317     1.053807     0.730610     2.847548
    4.510000     0.114096     1.064762     0.793619     2.886830
    4.520000     0.114997     1.075780     0.864219     2.925646
    4.530000     0.116026     1.086865     0.943342     2.963154
    4.540000     0.117191     1.098033     1.032014     2.998243
    4.550000     0.118499     1.109288     1.131196     3.029407
    4.560000     0.119960     1.120644     1.241809     3.054705
    4.570000     0.121586     1.132110     1.364458     3.071653
    4.580000     0.123388     1.143699     1.499374     3.077214
    4.590000     0.125380     1.155419     1.645974     3.067809
    4.600000     0.127577     1.167286     1.802720     3.039490
    4.610000     0.129996     1.179308     1.966630     2.988295
    4.620000     0.132659     1.191501     2.133311     2.910762
    4.630001     0.135586     1.203877     2.296900     2.804664
    4.640000     0.138803     1.216446     2.450656     2.669648
    4.650001     0.142340     1.229224     2.587910     2.507452
    4.660000     0.146228     1.242221     2.702830     2.321826
    4.670001     0.150507     1.255452     2.791184     2.117554
    4.680000     0.155218     1.268924     2.850139     1.899846
    4.690001     0.160413     1.282652     2.877801     1.673633
    4.700000     0.166145     1.296638     2.872610     1.444077
    4.710001     0.172482     1.310890     2.833397     1.216894
    4.720000     0.179497     1.325402     2.760118     0.999005
    4.730001     0.187276     1.340171     2.654774     0.797845
    4.740000     0.195916     1.355176     2.522026     0.620499
    4.750001     0.205528     1.370389     2.368724     0.472118
    4.760000     0.216235     1.385758     2.202986     0.355267
    4.770001     0.228182     1.401216     2.032688     0.269635
    4.780000     0.241517     1.416651     1.864624     0.212749
    4.790001     0.256409     1.431926     1.703764     0.180725
    4.800000     0.273025     1.446834     1.553410     0.169175
    4.810000     0.291532     1.461112     1.415249     0.173779
    4.820000     0.312063     1.474407     1.289912     0.190668
    4.830000     0.334707     1.486278     1.177162     0.216580
    4.840000     0.359444     1.496176     1.076362     0.248865
    4.850000     0.386116     1.503472     0.986553     0.285460
    4.860000     0.414326     1.507479     0.906732     0.324766
    4.870000     0.443415     1.507543     0.835838     0.365602
    4.880000     0.472387     1.503169     0.772907     0.407069
    4.890000     0.499976     1.494191     0.717011     0.448532
    4.900000     0.524750     1.480949     0.667347     0.489510
    4.910000     0.545386     1.464383     0.623169     0.529678
    4.920000     0.560950     1.446007     0.583843     0.568782
    4.930000     0.571195     1.427662     0.548777     0.606664
    4.940000     0.576654     1.411185     0.517465     0.643193
    4.950000     0.578553     1.398023     0.489424     0.678299
    4.960000     0.578550     1.389006     0.464225     0.711931
    4.970000     0.578414     1.384266     0.441448     0.744094
    4.980000     0.579771     1.383317     0.420717     0.774822
    4.990000     0.583932     1.385202     0.401678     0.804215
    5.000001     0.591820     1.388643     0.384037     0.832408
    5.010000     0.603946     1.392159     0.367567     0.859571
    5.020001     0.620399     1.394150     0.352107     0.885896
    5.030000     0.640797     1.392967     0.337576     0.911542
    5.040001     0.664260     1.387007     0.323932     0.936652
    5.050000     0.689323     1.374874     0.311174     0.961306
    5.060001     0.713963     1.355592     0.299297     0.985562
    5.070000     0.735682     1.328903     0.288298     1.009434
    5.080001     0.751822     1.295497     0.278155     1.032934
    5.090000     0.759984     1.257157     0.268842     1.056052
    5.100001     0.758569     1.216554     0.260314     1.078792
    5.110000     0.747138     1.176855     0.252530     1.101146
    5.120001     0.726502     1.141070     0.245439     1.123129
    5.130000     0.698485     1.111565     0.238996     1.144742
    5.140001     0.665426     1.089728     0.233153     1.166006
    5.150000     0.629741     1.075995     0.227870     1.186932
    5.160001     0.593517     1.070024     0.223107     1.207548
    5.170000     0.558389     1.070999     0.218830     1.227867
    5.180001     0.525464     1.077870     0.215006     1.247919
    5.190000     0.495431     1.089554     0.211610     1.267721
    5.200001     0.468615     1.105050     0.208617     1.287304
    5.210000     0.445120     1.123490     0.206006     1.306685
    5.220001     0.424879     1.144169     0.203759     1.325894
    5.230000     0.407752     1.166517     0.201860     1.344948
    5.240001     0.393545     1.190107     0.200298     1.363878
    5.250000     0.382063     1.214599     0.199062     1.382698
    5.260001     0.373111     1.239754     0.198144     1.401439
    5.270000     0.366518     1.265376     0.197538     1.420116
    5.280000     0.362130     1.291333     0.197242     1.438758
    5.289999     0.359818     1.317503     0.197253     1.457379
    5.300000     0.359472     1.343802     0.197572     1.476007
    5.309999     0.360991     1.370140     0.198204     1.494655
    5.320000     0.364285     1.396450     0.199153     1.513351
    5.329999     0.369256     1.422655     0.200428     1.532106
    5.340000     0.375799     1.448710     0.202039     1.550946
    5.349999     0.383794     1.474574     0.203999     1.569882
    5.360000     0.393115     1.500267     0.206325     1.588935
    5.370001     0.403639     1.525843     0.209038     1.608115
    5.380000     0.415277     1.551419     0.212159     1.627431
    5.390001     0.428005     1.577168     0.215716     1.646894
    5.400000     0.441874     1.603265     0.219737     1.666501
    5.410001     0.457034     1.629880     0.224257     1.686253
    5.420000     0.473694     1.657110     0.229308     1.706129
    5.430001     0.492111     1.684989     0.234925     1.726111
    5.440000     0.512520     1.713450     0.241138     1.746155
    5.450001     0.535132     1.742390     0.247970     1.766214
    5.460000     0.560085     1.771666     0.255425     1.786211
    5.470001     0.587482     1.801176     0.263488     1.806071
    5.480000     0.617394     1.830850     0.272101     1.825697
    5.490001     0.649938     1.860697     0.281165     1.845011
    5.500000     0.685279     1.890746     0.290523     1.863954
    5.510001     0.723700     1.921044     0.299980     1.882534
    5.520000     0.765552     1.951578     0.309311     1.900835
    5.530001     0.811279     1.982283     0.318314     1.919051
    5.540000     0.861352     2.013006     0.326848     1.937459
    5.550001     0.916323     2.043546     0.334885     1.956406
    5.560000     0.976786     2.073617     0.342513     1.976227
    5.570001     1.043484     2.102852     0.349929     1.997223
    5.580000     1.117259     2.130705     0.357391     2.019604
    5.590001     1.199141     2.156385     0.365187     2.043512
    5.600000     1.290207     2.178698     0.373596     2.069007
    5.610001     1.391577     2.195957     0.382881     2.096115
    5.620000     1.504129     2.205865     0.393274     2.124815
    5.630001     1.628396     2.205487     0.404993     2.155089
    5.639999     1.764157     2.191270     0.418229     2.186894
    5.650001     1.910283     2.159163     0.433170     2.220212
    5.659999     2.064239     2.104885     0.449989     2.255007
    5.670001     2.221983     2.024333     0.468877     2.291279
    5.679999     2.377633     1.914315     0.490025     2.329013
    5.690001     2.523856     1.773262     0.513658     2.368228
    5.699999     2.652341     1.602167     0.540019     2.408922
    5.710001     2.755113     1.404798     0.569405     2.451117
    5.719999     2.825616     1.187660     0.602139     2.494804
    5.730000     2.859814     0.958823     0.638619     2.539984
    5.740001     2.856345     0.726954     0.679290     2.586614
    5.750000     2.816213     0.500233     0.724663     2.634611
    5.760001     2.742143     0.285773     0.775353     2.683861
     5.77000      2.63818      0.08978      0.83203      2.73414
     5.78000      2.50944     -0.08283      0.89549      2.78517
    5.790000     2.362035    -0.228365     0.966595     2.836462
    5.800001     2.202624    -0.344998     1.046338     2.887423
    5.810000     2.037936    -0.432695     1.135750     2.937164
    5.820001     1.873924    -0.493232     1.235971     2.984537
    5.830000     1.715465    -0.529628     1.348087     3.027991
    5.840001     1.565926    -0.545639     1.473181     3.065563
    5.850000     1.427428    -0.545162     1.612078     3.094758
    5.860001     1.300869    -0.531882     1.765362     3.112547
    5.870000     1.186407    -0.509022     1.933013     3.115312
    5.880001     1.083563    -0.479264     2.114399     3.098877
    5.890000     0.991602    -0.444771     2.307786     3.058557
    5.900001     0.909564    -0.407211     2.510246     2.989247
    5.910000     0.836498    -0.367877     2.716958     2.885744
    5.920001     0.771421    -0.327711     2.920964     2.743214
    5.930000     0.713454    -0.287434     3.112554     2.558344
    5.940001     0.661757    -0.247542     3.279676     2.330630
    5.950000     0.615608    -0.208416     3.408804     2.064211
    5.960001     0.574332    -0.170302     3.487333     1.768592
    5.970000     0.537356    -0.133392     3.506261     1.458643
     5.98000      0.50414     -0.09779      3.46275      1.15216
     5.99000      0.47423     -0.06359      3.36105      0.86698
     6.00000      0.44718     -0.03081      3.21145      0.61734
    6.010       0.4226       0.5522E-3     3.028       0.4122   
     6.02000      0.40017      0.03054      2.82479      0.25450
     6.03000      0.37954      0.05923      2.61516      0.14259
     6.04000      0.36046      0.08674      2.40897      0.07158
     6.05000      0.34273      0.11319      2.21321      0.03515
     6.06000      0.32620      0.13871      2.03200      0.02666
     6.07000      0.31078      0.16341      1.86743      0.04002
     6.08000      0.29639      0.18738      1.71998      0.06998
    6.089999     0.282985     0.210673     1.589311     0.112216
    6.100000     0.270517     0.233333     1.474407     0.163350
    6.110001     0.258940     0.255380     1.374078     0.220764
    6.120000     0.248205     0.276828     1.287041     0.282482
    6.130001     0.238257     0.297695     1.212003     0.347072
    6.140000     0.229045     0.317991     1.147820     0.413465
    6.150001     0.220512     0.337736     1.093431     0.480938
    6.160000     0.212610     0.356941     1.047948     0.548958
    6.170001     0.205288     0.375632     1.010593     0.617209
    6.180000     0.198505     0.393823     0.980750     0.685457
    6.190001     0.192216     0.411544     0.957910     0.753606
    6.200000     0.186388     0.428809     0.941703     0.821581
    6.210001     0.180987     0.445648     0.931860     0.889393
    6.220000     0.175985     0.462076     0.928232     0.957039
    6.230001     0.171354     0.478122     0.930774     1.024565
    6.240000     0.167073     0.493800     0.939544     1.091975
    6.250000     0.163122     0.509135     0.954718     1.159294
    6.260000     0.159485     0.524143     0.976570     1.226472
    6.270000     0.156147     0.538846     1.005503     1.293445
    6.280000     0.153098     0.553255     1.042025     1.360030
    6.290000     0.150326     0.567390     1.086795     1.425977
    6.300000     0.147826     0.581261     1.140574     1.490847
    6.310000     0.145592     0.594882     1.204292     1.554044
    6.320000     0.143623     0.608260     1.278961     1.614665
    6.330000     0.141916     0.621403     1.365744     1.671502
    6.340000     0.140471     0.634309     1.465803     1.722860
    6.350000     0.139290     0.646981     1.580325     1.766510
    6.360000     0.138372     0.659407     1.710249     1.799495
    6.370000     0.137715     0.671577     1.856171     1.818060
    6.380000     0.137311     0.683468     2.017839     1.817535
    6.390000     0.137145     0.695057     2.193861     1.792391
    6.400000     0.137189     0.706312     2.380911     1.736488
    6.410000     0.137399     0.717207     2.573333     1.643620
    6.420000     0.137712     0.727718     2.762434     1.508609
    6.430000     0.138047     0.737847     2.936713     1.328638
    6.440000     0.138312     0.747616     3.082453     1.105097
    6.450000     0.138416     0.757094     3.185800     0.844661
    6.460001     0.138293     0.766379     3.235281     0.559758
    6.470000     0.137914     0.775596     3.224666     0.267093
     6.48000      0.13730      0.78487      3.15459     -0.01539
    6.490000     0.136500     0.794325     3.032392    -0.271545
    6.500001     0.135618     0.804029     2.870122    -0.490066
    6.510000     0.134751     0.814021     2.681823    -0.665198
    6.520001     0.133991     0.824313     2.480776    -0.796556
    6.530000     0.133418     0.834886     2.278052    -0.887455
    6.540001     0.133093     0.845715     2.081612    -0.943430
    6.550000     0.133060     0.856765     1.896691    -0.970729
    6.560001     0.133352     0.868011     1.726060    -0.975448
    6.570000     0.133993     0.879423     1.570887    -0.962995
    6.580001     0.135003     0.890986     1.431093    -0.937893
    6.590000     0.136404     0.902682     1.306000    -0.903793
    6.600001     0.138217     0.914502     1.194468    -0.863530
    6.610000     0.140468     0.926435     1.095278    -0.819295
    6.620001     0.143189     0.938477     1.007118    -0.772709
    6.630000     0.146418     0.950614     0.928789    -0.725006
    6.640001     0.150201     0.962840     0.859130    -0.677064
    6.650000     0.154593     0.975133     0.797138    -0.629548
    6.660001     0.159658     0.987471     0.741878    -0.582914
    6.670000     0.165468     0.999814     0.692552    -0.537516
    6.680001     0.172110     1.012113     0.648418    -0.493578
    6.690000     0.179674     1.024289     0.608838    -0.451284
    6.700000     0.188263     1.036243     0.573208    -0.410727
    6.710000     0.197977     1.047831     0.540992    -0.371974
    6.720000     0.208915     1.058872     0.511679    -0.335010
    6.730000     0.221154     1.069122     0.484818    -0.299788
    6.740000     0.234737     1.078280     0.460000    -0.266180
    6.750000     0.249637     1.085974     0.436903    -0.234032
    6.760000     0.265733     1.091778     0.415275    -0.203144
    6.770000     0.282752     1.095229     0.394959    -0.173343
    6.780000     0.300251     1.095881     0.375851    -0.144461
    6.789999     0.317577     1.093375     0.357906    -0.116392
     6.80000      0.33390      1.08754      0.34109     -0.08906
     6.81000      0.34825      1.07850      0.32537     -0.06242
     6.82000      0.35969      1.06673      0.31070     -0.03647
     6.83000      0.36745      1.05304      0.29705     -0.01120
     6.84000      0.37108      1.03852      0.28435      0.01338
     6.85000      0.37055      1.02431      0.27254      0.03729
     6.86000      0.36619      1.01146      0.26156      0.06052
     6.87000      0.35862      1.00078      0.25134      0.08309
    6.880000     0.348589     0.992819     0.241817     0.105014
    6.890001     0.336884     0.987863     0.232937     0.126311
    6.900000     0.324253     0.985982     0.224648     0.146997
    6.910001     0.311367     0.987075     0.216897     0.167100
    6.920000     0.298798     0.990903     0.209643     0.186637
    6.930001     0.286987     0.997138     0.202844     0.205639
    6.940000     0.276246     1.005395     0.196465     0.224122
    6.950001     0.266756     1.015287     0.190472     0.242116
    6.960000     0.258594     1.026449     0.184837     0.259637
    6.970001     0.251750     1.038573     0.179532     0.276714
    6.980000     0.246165     1.051398     0.174534     0.293360
    6.990001     0.241747     1.064730     0.169820     0.309603
    7.000000     0.238391     1.078416     0.165371     0.325456
    7.010001     0.235986     1.092353     0.161168     0.340943
    7.020000     0.234420     1.106466     0.157197     0.356076
    7.030001     0.233585     1.120727     0.153440     0.370877
    7.040000     0.233388     1.135134     0.149886     0.385357
    7.050001     0.233763     1.149721     0.146522     0.399537
    7.060000     0.234678     1.164530     0.143336     0.413426
    7.070001     0.236139     1.179606     0.140318     0.427042
    7.079999     0.238175     1.194961     0.137460     0.440395
    7.090001     0.240825     1.210586     0.134751     0.453502
    7.099999     0.244114     1.226431     0.132184     0.466369
    7.110001     0.248035     1.242437     0.129752     0.479014
    7.119999     0.252536     1.258534     0.127448     0.491442
    7.130001     0.257526     1.274689     0.125266     0.503669
    7.139999     0.262877     1.290908     0.123201     0.515701
    7.150000     0.268460     1.307279     0.121246     0.527551
    7.159999     0.274170     1.323949     0.119398     0.539225
    7.170000     0.279972     1.341133     0.117651     0.550736
    7.179999     0.285910     1.359055     0.116003     0.562089
    7.190000     0.292119     1.377931     0.114449     0.573295
    7.200001     0.298787     1.397919     0.112986     0.584363
    7.210000     0.306135     1.419114     0.111611     0.595296
    7.220001     0.314388     1.441564     0.110320     0.606107
    7.230000     0.323749     1.465268     0.109113     0.616799
    7.240001     0.334407     1.490214     0.107986     0.627384
    7.250000     0.346527     1.516374     0.106937     0.637864
    7.260001     0.360271     1.543738     0.105965     0.648251
    7.270000     0.375795     1.572286     0.105069     0.658548
    7.280001     0.393274     1.602031     0.104246     0.668764
    7.290000     0.412891     1.632971     0.103496     0.678904
    7.300001     0.434866     1.665131     0.102818     0.688976
    7.310000     0.459440     1.698518     0.102211     0.698984
    7.320001     0.486910     1.733153     0.101675     0.708938
    7.330000     0.517602     1.769027     0.101209     0.718841
    7.340001     0.551919     1.806135     0.100814     0.728701
    7.350000     0.590304     1.844420     0.100490     0.738523
    7.360001     0.633298     1.883808     0.100238     0.748316
    7.370000     0.681498     1.924142     0.100057     0.758082
     7.38000      0.73563      1.96521      0.09995      0.76783
     7.39000      0.79647      2.00666      0.09991      0.77757
     7.40000      0.86497      2.04803      0.09995      0.78730
    7.410000     0.942127     2.088625     0.100073     0.797033
    7.420001     1.029109     2.127502     0.100270     0.806775
    7.430000     1.127104     2.163357     0.100548     0.816530
    7.440001     1.237395     2.194458     0.100910     0.826308
    7.450000     1.361144     2.218483     0.101360     0.836114
    7.460001     1.499374     2.232434     0.101900     0.845957
    7.470000     1.652581     2.232486     0.102534     0.855842
    7.480000     1.820553     2.213940     0.103267     0.865780
    7.490000     2.001696     2.171273     0.104103     0.875776
    7.500000     2.192671     2.098388     0.105049     0.885840
    7.510000     2.387554     1.989280     0.106110     0.895980
    7.520000     2.577657     1.838990     0.107294     0.906206
    7.529999     2.751355     1.645213     0.108607     0.916525
    7.540000     2.895234     1.409727     0.110060     0.926950
    7.549999     2.995823     1.139835     0.111660     0.937487
    7.560000     3.042453     0.848132     0.113420     0.948150
    7.570001     3.029754     0.551244     0.115351     0.958949
    7.580000     2.959196     0.266776     0.117467     0.969892
      7.5900       2.8386       0.0099       0.1198       0.9810
    7.600000     2.680187    -0.208858     0.122318     0.992270
    7.610001     2.497650    -0.384621     0.125089     1.003729
    7.620000     2.303896    -0.517449     0.128119     1.015383
    7.630001     2.109310    -0.611008     0.131433     1.027249
    7.640000     1.921469    -0.670809     0.135059     1.039339
    7.650001     1.745080    -0.703025     0.139029     1.051669
    7.660000     1.582746    -0.713551     0.143379     1.064249
    7.670001     1.435354    -0.707590     0.148151     1.077098
    7.680000     1.302826    -0.689474     0.153392     1.090224
    7.690001     1.184360    -0.662669     0.159157     1.103644
    7.700000     1.078896    -0.629882     0.165505     1.117362
    7.710001     0.985164    -0.593167     0.172511     1.131390
    7.720000     0.901949    -0.554077     0.180253     1.145727
    7.730000     0.828035    -0.513741     0.188827     1.160372
    7.740000     0.762352    -0.473001     0.198337     1.175311
    7.750000     0.703894    -0.432438     0.208906     1.190522
    7.760000     0.651809    -0.392484     0.220670     1.205963
    7.770000     0.605316    -0.353414     0.233787     1.221575
    7.780000     0.563764    -0.315430     0.248426     1.237265
    7.790000     0.526564    -0.278643     0.264780     1.252911
    7.800000     0.493230    -0.243135     0.283045     1.268335
    7.810000     0.463323    -0.208933     0.303433     1.283309
    7.820000     0.436482    -0.176063     0.326140     1.297527
    7.830000     0.412380    -0.144517     0.351352     1.310609
    7.840000     0.390751    -0.114300     0.379194     1.322078
     7.85000      0.37135     -0.08540      0.40974      1.33138
     7.86000      0.35396     -0.05783      0.44295      1.33785
     7.87000      0.33839     -0.03158      0.47866      1.34077
    7.880       0.3244       -.6690E-2    0.5166        1.339   
     7.89000      0.31194      0.01683      0.55609      1.33268
     7.90000      0.30068      0.03894      0.59646      1.31991
     7.91000      0.29042      0.05965      0.63648      1.30016
     7.92000      0.28092      0.07895      0.67448      1.27278
     7.93000      0.27192      0.09693      0.70833      1.23757
    7.940001     0.263172     0.113719     0.735558     1.195123
    7.950000     0.254472     0.129513     0.753738     1.147048
    7.960001     0.245685     0.144567     0.761040     1.095950
    7.970000     0.236775     0.159134     0.756703     1.045159
    7.980001     0.227784     0.173449     0.741301     0.998074
    7.990000     0.218825     0.187674     0.716630     0.957588
    8.000001     0.210025     0.201911     0.685253     0.925583
    8.010000     0.201515     0.216185     0.649977     0.902849
    8.020000     0.193394     0.230489     0.613348     0.889204
    8.030000     0.185732     0.244775     0.577424     0.883823
    8.040001     0.178564     0.258995     0.543650     0.885539
    8.050000     0.171905     0.273095     0.512952     0.893104
    8.060000     0.165745     0.287036     0.485815     0.905343
    8.070000     0.160069     0.300778     0.462437     0.921233
    8.080001     0.154849     0.314303     0.442812     0.939943
    8.090000     0.150061     0.327590     0.426837     0.960804
    8.100000     0.145675     0.340634     0.414349     0.983313
    8.110000     0.141669     0.353430     0.405186     1.007081
    8.120001     0.138018     0.365982     0.399192     1.031835
    8.130000     0.134704     0.378290     0.396248     1.057360
    8.140000     0.131709     0.390366     0.396270     1.083516
    8.150000     0.129020     0.402212     0.399224     1.110183
    8.160001     0.126627     0.413842     0.405123     1.137283
    8.170000     0.124525     0.425260     0.414028     1.164730
    8.180000     0.122709     0.436476     0.426060     1.192453
    8.190000     0.121182     0.447494     0.441389     1.220348
    8.200001     0.119945     0.458320     0.460254     1.248298
    8.210000     0.119007     0.468955     0.482940     1.276118
    8.220000     0.118380     0.479398     0.509811     1.303575
    8.230000     0.118076     0.489641     0.541272     1.330322
    8.240001     0.118114     0.499671     0.577801     1.355898
    8.249999     0.118514     0.509466     0.619891     1.379660
    8.260000     0.119296     0.518995     0.668071     1.400761
    8.270000     0.120479     0.528211     0.722797     1.418066
    8.280001     0.122079     0.537054     0.784436     1.430123
    8.290001     0.124098     0.545445     0.853082     1.435097
    8.300000     0.126521     0.553284     0.928397     1.430769
    8.310001     0.129302     0.560458     1.009430     1.414584
    8.320000     0.132352     0.566843     1.094252     1.383834
    8.330001     0.135531     0.572324     1.179829     1.335976
    8.340000     0.138635     0.576813     1.261789     1.269209
    8.350001     0.141410     0.580289     1.334698     1.183087
    8.360000     0.143572     0.582823     1.392525     1.079267
    8.370001     0.144854     0.584596     1.429722     0.961751
    8.380000     0.145060     0.585894     1.442330     0.836775
    8.390000     0.144111     0.587063     1.428992     0.711758
    8.400000     0.142062     0.588450     1.391260     0.594111
    8.410001     0.139082     0.590345     1.333141     0.489796
    8.420000     0.135414     0.592937     1.260138     0.402674
    8.430000     0.131313     0.596313     1.178057     0.334227
    8.440000     0.127014     0.600471     1.092187     0.284040
    8.450001     0.122703     0.605354     1.006684     0.250336
    8.460000     0.118514     0.610875     0.924528     0.230675
    8.470000     0.114539     0.616942     0.847514     0.222425
    8.480000     0.110838     0.623464     0.776584     0.223118
    8.490001     0.107443     0.630361     0.711986     0.230619
    8.500000     0.104374     0.637560     0.653608     0.243189
    8.510000     0.101636     0.645000     0.601073     0.259473
     8.52000      0.09923      0.65263      0.55394      0.27842
     8.53000      0.09713      0.66039      0.51173      0.29924
     8.54000      0.09534      0.66827      0.47398      0.32132
     8.55000      0.09383      0.67622      0.44024      0.34420
     8.56000      0.09258      0.68424      0.41013      0.36749
     8.57000      0.09159      0.69230      0.38325      0.39094
     8.58000      0.09082      0.70040      0.35927      0.41431
     8.59000      0.09028      0.70854      0.33785      0.43747
     8.60000      0.08994      0.71671      0.31873      0.46029
     8.61000      0.08980      0.72492      0.30164      0.48271
     8.62000      0.08985      0.73316      0.28636      0.50469
     8.63000      0.09008      0.74145      0.27268      0.52619
     8.64000      0.09050      0.74980      0.26045      0.54722
     8.65000      0.09110      0.75820      0.24949      0.56778
     8.66000      0.09187      0.76667      0.23968      0.58788
     8.67000      0.09284      0.77522      0.23091      0.60754
     8.68000      0.09399      0.78386      0.22307      0.62679
     8.69000      0.09533      0.79260      0.21608      0.64564
     8.70000      0.09688      0.80144      0.20986      0.66414
     8.71000      0.09864      0.81041      0.20434      0.68231
    8.720001     0.100635     0.819515     0.199474     0.700171
    8.730000     0.102868     0.828762     0.195207     0.717763
    8.740001     0.105362     0.838171     0.191499     0.735116
    8.750000     0.108136     0.847751     0.188314     0.752254
    8.760001     0.111216     0.857519     0.185622     0.769212
    8.770000     0.114630     0.867487     0.183397     0.786013
    8.780001     0.118411     0.877670     0.181618     0.802691
    8.790000     0.122594     0.888081     0.180270     0.819269
    8.800001     0.127224     0.898735     0.179338     0.835780
    8.809999     0.132350     0.909641     0.178813     0.852246
    8.820001     0.138030     0.920815     0.178689     0.868700
    8.830000     0.144327     0.932261     0.178964     0.885165
    8.840000     0.151320     0.943988     0.179638     0.901673
    8.849999     0.159093     0.955993     0.180713     0.918246
    8.860001     0.167749     0.968273     0.182199     0.934919
    8.870000     0.177403     0.980808     0.184103     0.951713
    8.880000     0.188189     0.993573     0.186441     0.968664
    8.889999     0.200256     1.006516     0.189228     0.985795
    8.900001     0.213783     1.019569     0.192488     1.003142
    8.910000     0.228960     1.032624     0.196243     1.020730
    8.920000     0.246009     1.045533     0.200526     1.038597
    8.929999     0.265161     1.058087     0.205370     1.056769
    8.940001     0.286674     1.070005     0.210818     1.075285
    8.950000     0.310789     1.080902     0.216916     1.094175
    8.960000     0.337743     1.090278     0.223718     1.113479
    8.969999     0.367694     1.097482     0.231287     1.133229
    8.980000     0.400705     1.101701     0.239696     1.153465
    8.990000     0.436621     1.101951     0.249026     1.174220
    9.000000     0.475015     1.097106     0.259374     1.195538
    9.009999     0.515014     1.085986     0.270846     1.217447
    9.020000     0.555253     1.067498     0.283570     1.239989
    9.030001     0.593778     1.040904     0.297690     1.263194
    9.040000     0.628156     1.006120     0.313368     1.287086
    9.050001     0.655766     0.963988     0.330802     1.311692
    9.060000     0.674221     0.916460     0.350205     1.337017
    9.070001     0.681943     0.866408     0.371840     1.363065
    9.080000     0.678563     0.817236     0.395992     1.389804
    9.090001     0.665042     0.772191     0.423009     1.417195
    9.100000     0.643429     0.733838     0.453272     1.445138
    9.110001     0.616353     0.703675     0.487238     1.473503
    9.120000     0.586520     0.682163     0.525409     1.502069
    9.130001     0.556293     0.668905     0.568375     1.530540
    9.140000     0.527533     0.662977     0.616772     1.558476
    9.150001     0.501541     0.663203     0.671327     1.585284
    9.160000     0.479166     0.668360     0.732786     1.610138
    9.170001     0.460892     0.677304     0.801947     1.631941
    9.180000     0.446978     0.689013     0.879526     1.649229
    9.190001     0.437531     0.702601     0.966148     1.660111
    9.200000     0.432591     0.717280     1.062094     1.662187
    9.210001     0.432163     0.732338     1.167193     1.652515
    9.219999     0.436242     0.747082     1.280400     1.627658
    9.230000     0.444817     0.760805     1.399576     1.583844
    9.240000     0.457840     0.772731     1.520977     1.517392
    9.250001     0.475202     0.781987     1.639170     1.425304
    9.259999     0.496642     0.787571     1.746941     1.306250
    9.270000     0.521681     0.788365     1.836019     1.161419
    9.280000     0.549481     0.783182     1.898136     0.995385
    9.290000     0.578766     0.770882     1.926768     0.815940
    9.299999     0.607715     0.750588     1.918631     0.633356
    9.310000     0.634035     0.721946     1.874605     0.458401
    9.320000     0.655117     0.685442     1.799515     0.300558
    9.330000     0.668463     0.642570     1.700834     0.166313
     9.34000      0.67217      0.59583      1.58710      0.05880
     9.35000      0.66539      0.54835      1.46624     -0.02202
     9.36000      0.64858      0.50335      1.34483     -0.07832
    9.370000     0.623336     0.463511     1.227542    -0.113544
    9.379999     0.591981     0.430583     1.117406    -0.131494
    9.390000     0.557033     0.405248     1.016009    -0.135857
    9.400001     0.520785     0.387298     0.923977    -0.129876
    9.410000     0.485032     0.375902     0.841264    -0.116264
     9.42000      0.45097      0.36991      0.76738     -0.09719
     9.43000      0.41929      0.36811      0.70168     -0.07436
     9.44000      0.39021      0.36938      0.64337     -0.04905
     9.45000      0.36367      0.37281      0.59170     -0.02225
    9.460       0.3394       0.3777       0.5459       0.5328E-2
     9.47000      0.31702      0.38365      0.50537      0.03315
     9.48000      0.29627      0.39039      0.46944      0.06085
     9.49000      0.27689      0.39784      0.43759      0.08814
    9.500001     0.258734     0.405973     0.409357     0.114830
    9.510000     0.241757     0.414764     0.384336     0.140775
    9.520000     0.225951     0.424164     0.362170     0.165878
    9.530000     0.211332     0.434085     0.342561     0.190054
    9.540001     0.197896     0.444414     0.325235     0.213240
    9.550000     0.185622     0.455025     0.309953     0.235369
    9.560000     0.174459     0.465802     0.296486     0.256384
    9.570000     0.164343     0.476636     0.284612     0.276215
    9.580001     0.155194     0.487444     0.274095     0.294808
    9.590000     0.146930     0.498157     0.264685     0.312114
    9.600000     0.139468     0.508727     0.256103     0.328128
    9.610000     0.132731     0.519118     0.248059     0.342889
    9.620001     0.126643     0.529310     0.240266     0.356520
    9.630000     0.121141     0.539288     0.232483     0.369213
    9.640000     0.116162     0.549049     0.224542     0.381229
    9.650000     0.111656     0.558590     0.216383     0.392843
    9.660001     0.107574     0.567917     0.208041     0.404311
    9.669999     0.103878     0.577035     0.199630     0.415822
    9.680000     0.100529     0.585953     0.191296     0.427489
     9.69000      0.09750      0.59468      0.18319      0.43935
     9.70000      0.09476      0.60323      0.17542      0.45138
     9.71000      0.09229      0.61160      0.16808      0.46353
     9.72000      0.09006      0.61982      0.16121      0.47573
     9.73000      0.08807      0.62789      0.15483      0.48793
     9.74000      0.08629      0.63582      0.14892      0.50006
     9.75000      0.08472      0.64362      0.14348      0.51209
     9.76000      0.08334      0.65130      0.13848      0.52396
     9.77000      0.08215      0.65886      0.13387      0.53567
     9.78000      0.08114      0.66633      0.12963      0.54719
     9.79000      0.08031      0.67369      0.12573      0.55852
     9.80000      0.07965      0.68096      0.12214      0.56966
     9.81000      0.07916      0.68814      0.11883      0.58059
     9.82000      0.07884      0.69522      0.11578      0.59134
     9.83000      0.07870      0.70222      0.11296      0.60189
     9.84000      0.07872      0.70911      0.11035      0.61226
     9.85000      0.07891      0.71590      0.10794      0.62246
     9.86000      0.07926      0.72256      0.10571      0.63249
     9.87000      0.07975      0.72909      0.10365      0.64237
     9.88000      0.08037      0.73547      0.10174      0.65209
     9.89000      0.08108      0.74169      0.09997      0.66167
     9.90000      0.08183      0.74775      0.09834      0.67112
     9.91000      0.08259      0.75367      0.09683      0.68045
     9.92000      0.08331      0.75947      0.09544      0.68966
     9.93000      0.08394      0.76521      0.09415      0.69877
     9.94000      0.08447      0.77096      0.09297      0.70777
     9.95000      0.08491      0.77680      0.09189      0.71668
     9.96000      0.08529      0.78278      0.09090      0.72550
     9.97000      0.08566      0.78896      0.09000      0.73425
     9.98000      0.08609      0.79537      0.08918      0.74292
     9.99000      0.08662      0.80201      0.08844      0.75153
    10.00000      0.08732      0.80889      0.08778      0.76008
# 
# 04/08/2018 at 00:58 YAMBO @ narro [start]
# 04/08/2018 at 00:59               [end]
#  
# Timing   [Min/Max/Average]: 15s/15s/15s
#
# .-Input file : yambo.in
# | optics                         # [R OPT] Optics
# | bse                            # [R BSE] Bethe Salpeter Equation.
# | bsk                            # [R BSK] Bethe Salpeter Equation kernel
# | bss                            # [R BSS] Bethe Salpeter Equation solver
# | em1s                           # [R Xs] Static Inverse Dielectric Matrix
# | BoseTemp= 0.000000     eV      # Bosonic Temperature
# | FFTGvecs=  3473        RL      # [FFT] Plane-waves
# | Chimod= "hartree"              # [X] IP/Hartree/ALDA/LRC/BSfxc
# | BSEmod= "resonant"             # [BSE] resonant/retarded/coupling
# | BSKmod= "SEX"                  # [BSE] IP/Hartree/HF/ALDA/SEX/BSfxc
# | BSSmod= "d"                    # [BSS] (h)aydock/(d)iagonalization/(i)nversion/(t)ddft`
# | BSENGexx=  51          RL      # [BSK] Exchange components
# | BSENGBlk=  51          RL      # [BSK] Screened interaction block size
# | #WehCpl                        # [BSK] eh interaction included also in coupling
# | % BEnRange
# | -10.00000 | 10.00000 | eV      # [BSS] Energy range
# | %
# | % BDmRange
# |   0.10000 |  0.10000 | eV      # [BSS] Damping range
# | %
# | BEnSteps= 2001                 # [BSS] Energy steps
# | % BLongDir
# | 0.5774E-5 |0.5774E-5 |0.5774E-5 |        # [BSS] [cc] Electric Field
# | %
# | % BSEQptR
# |   1 |  4 |                     # [BSK] Transferred momenta range
# | %
# | % BSEBands
# |   3 | 10 |                     # [BSK] Bands range
# | %
# | % BndsRnXs
# |    1 |  60 |                   # [Xs] Polarization function bands
# | %
# | NGsBlkXs=  51          RL      # [Xs] Response block size
# | % DmRngeXs
# | 0.1000E-2 |0.1000E-2 | eV      # [Xs] Damping range
# | %
# | % LongDrXs
# | 0.1000E-4 | 0.000    | 0.000    |        # [Xs] [cc] Electric Field
# | %
