#                                                           
#  __  __   ________   ___ __ __    _______   ______        
# /_/\/_/\ /_______/\ /__//_//_/\ /_______/\ /_____/\       
# \ \ \ \ \\::: _  \ \\::\| \| \ \\::: _  \ \\:::_ \ \      
#  \:\_\ \ \\::(_)  \ \\:.      \ \\::(_)  \/_\:\ \ \ \     
#   \::::_\/ \:: __  \ \\:.\-/\  \ \\::  _  \ \\:\ \ \ \    
#     \::\ \  \:.\ \  \ \\. \  \  \ \\::(_)  \ \\:\_\ \ \   
#      \__\/   \__\/\__\/ \__\/ \__\/ \_______\/ \_____\/   
#                                                           
#                                                           
#        Version 4.2.0 Revision 14319 Hash 8432f48          
#                  MPI+SLK+OpenMP Build                     
#                http://www.yambo-code.org                  
#
# EELS @ Q(1)  [q->0 direction]:0.1000E-4  0.000     0.000   
#
#
# - Energies      are Teter 93(XC)+Scissor
# - Wavefunctions are Teter 93(XC)
#
# - The Green`s function is Retarded -
# - Using the Length Gauge -
# - [r,Vnl] *is* included -
#
#   BSK|Identifier              :3030
#      |Dimension               :69
#      |Bands                   :1 - 70
#      |Exchange           [res]: yes
#      |Correlation        [res]: yes
#      |Kernel`s coupling       : no
#      |Exchange           [cpl]: no
#      |Correlation        [cpl]: no
#      |W interaction is bare   : no
#      |ALDA kernel in R-space  : no
#      |RL vectors    [exchange]:437
#      |RL vectors [correlation]:619
#      |E/h energy range    [ev]:-1.000000 - -1.000000
#      |Coupling range     [o/o]: 100.0000 -  100.0000
#    W |Interaction is diagonal : no
#      |Matrix size             :1503
#      |Bands                   :1 - 250
#      |e/h energy range    [ev]:-1.000000 - -1.000000
#      |Poles              [o/o]: 100.0000
#      |RL vectors in the sum   :9939
#      |[r,Vnl] included        : yes
#      |Field direction         :0.1000E-4  0.000000  0.000000
#      |Coulomb Cutoff          :none
#      |xc-Kernel               :none
#   RIM|RL components      [col]:0
#      |Random points      [col]:0
#
#  E/ev[1]    EEL-Im[2]  EEL-Re[3]  EELo-Im[4] EELo-Re[5]
#
  0.000000  -0.000000  -0.985636  -0.000000  -0.991433
 0.2002E-1  0.6473E-6  -.9856     0.1371E-6  -.9914   
 0.4004E-1  0.1295E-5  -.9856     0.2742E-6  -.9914   
 0.6006E-1  0.1942E-5  -.9856     0.4113E-6  -.9914   
 0.8008E-1  0.2589E-5  -.9856     0.5484E-6  -.9914   
 0.1001     0.3237E-5  -.9856     0.6855E-6  -.9914   
 0.1201     0.3885E-5  -.9856     0.8226E-6  -.9914   
 0.1401     0.4533E-5  -.9856     0.9598E-6  -.9914   
 0.1602     0.5181E-5  -.9856     0.1097E-5  -.9914   
 0.1802     0.5830E-5  -.9856     0.1234E-5  -.9914   
 0.2002     0.6478E-5  -.9856     0.1371E-5  -.9914   
 0.2202     0.7128E-5  -.9856     0.1509E-5  -.9914   
 0.2402     0.7777E-5  -.9856     0.1646E-5  -.9914   
 0.2603     0.8427E-5  -.9856     0.1783E-5  -.9914   
 0.2803     0.9078E-5  -.9856     0.1920E-5  -.9914   
 0.3003     0.9729E-5  -.9856     0.2058E-5  -.9914   
 0.3203     0.1038E-4  -.9856     0.2195E-5  -.9914   
 0.3403     0.1103E-4  -.9856     0.2333E-5  -.9914   
 0.3604     0.1168E-4  -.9856     0.2470E-5  -.9914   
 0.3804     0.1234E-4  -.9856     0.2608E-5  -.9914   
 0.4004     0.1299E-4  -.9856     0.2745E-5  -.9914   
 0.4204     0.1365E-4  -.9856     0.2883E-5  -.9914   
 0.4404     0.1430E-4  -.9856     0.3021E-5  -.9914   
 0.4605     0.1496E-4  -.9856     0.3158E-5  -.9914   
 0.4805     0.1562E-4  -.9856     0.3296E-5  -.9914   
 0.5005     0.1627E-4  -.9856     0.3434E-5  -.9914   
 0.5205     0.1693E-4  -.9856     0.3572E-5  -.9914   
 0.5405     0.1759E-4  -.9856     0.3710E-5  -.9914   
 0.5606     0.1825E-4  -.9856     0.3848E-5  -.9914   
 0.5806     0.1891E-4  -.9856     0.3986E-5  -.9914   
 0.6006     0.1958E-4  -.9856     0.4125E-5  -.9914   
 0.6206     0.2024E-4  -.9856     0.4263E-5  -.9914   
 0.6406     0.2090E-4  -.9856     0.4401E-5  -.9914   
 0.6607     0.2157E-4  -.9856     0.4540E-5  -.9914   
 0.6807     0.2224E-4  -.9856     0.4678E-5  -.9914   
 0.7007     0.2291E-4  -.9856     0.4817E-5  -.9914   
 0.7207     0.2358E-4  -.9856     0.4956E-5  -.9914   
 0.7407     0.2425E-4  -.9855     0.5095E-5  -.9914   
 0.7608     0.2492E-4  -.9855     0.5234E-5  -.9914   
 0.7808     0.2559E-4  -.9855     0.5373E-5  -.9914   
 0.8008     0.2627E-4  -.9855     0.5512E-5  -.9914   
 0.8208     0.2694E-4  -.9855     0.5651E-5  -.9914   
 0.8408     0.2762E-4  -.9855     0.5791E-5  -.9914   
 0.8609     0.2830E-4  -.9855     0.5930E-5  -.9914   
 0.8809     0.2898E-4  -.9855     0.6070E-5  -.9914   
 0.9009     0.2967E-4  -.9855     0.6209E-5  -.9914   
 0.9209     0.3035E-4  -.9855     0.6349E-5  -.9914   
 0.9409     0.3104E-4  -.9855     0.6489E-5  -.9914   
 0.9610     0.3172E-4  -.9855     0.6629E-5  -.9914   
 0.9810     0.3241E-4  -.9855     0.6770E-5  -.9914   
  1.001     0.3311E-4  -.9855     0.6910E-5  -.9914   
  1.021     0.3380E-4  -.9855     0.7050E-5  -.9914   
  1.041     0.3449E-4  -.9855     0.7191E-5  -.9914   
  1.061     0.3519E-4  -.9855     0.7332E-5  -.9914   
  1.081     0.3589E-4  -.9854     0.7473E-5  -.9914   
  1.101     0.3659E-4  -.9854     0.7614E-5  -.9914   
  1.121     0.3729E-4  -.9854     0.7755E-5  -.9914   
  1.141     0.3800E-4  -.9854     0.7896E-5  -.9914   
  1.161     0.3871E-4  -.9854     0.8038E-5  -.9914   
  1.181     0.3942E-4  -.9854     0.8180E-5  -.9914   
  1.201     0.4013E-4  -.9854     0.8322E-5  -.9914   
  1.221     0.4084E-4  -.9854     0.8464E-5  -.9914   
  1.241     0.4156E-4  -.9854     0.8606E-5  -.9914   
  1.261     0.4228E-4  -.9854     0.8748E-5  -.9914   
  1.281     0.4300E-4  -.9854     0.8891E-5  -.9914   
  1.301     0.4372E-4  -.9854     0.9033E-5  -.9914   
  1.321     0.4445E-4  -.9853     0.9176E-5  -.9914   
  1.341     0.4518E-4  -.9853     0.9319E-5  -.9914   
  1.361     0.4591E-4  -.9853     0.9462E-5  -.9914   
  1.381     0.4664E-4  -.9853     0.9606E-5  -.9914   
  1.401     0.4738E-4  -.9853     0.9749E-5  -.9914   
  1.421     0.4812E-4  -.9853     0.9893E-5  -.9914   
  1.441     0.4886E-4  -.9853     0.1004E-4  -.9914   
  1.461     0.4961E-4  -.9853     0.1018E-4  -.9914   
  1.481     0.5035E-4  -.9853     0.1033E-4  -.9914   
  1.502     0.5111E-4  -.9853     0.1047E-4  -.9914   
  1.522     0.5186E-4  -.9853     0.1062E-4  -.9914   
  1.542     0.5262E-4  -.9852     0.1076E-4  -.9914   
  1.562     0.5338E-4  -.9852     0.1091E-4  -.9913   
  1.582     0.5414E-4  -.9852     0.1105E-4  -.9913   
  1.602     0.5491E-4  -.9852     0.1120E-4  -.9913   
  1.622     0.5568E-4  -.9852     0.1134E-4  -.9913   
  1.642     0.5645E-4  -.9852     0.1149E-4  -.9913   
  1.662     0.5722E-4  -.9852     0.1164E-4  -.9913   
  1.682     0.5800E-4  -.9852     0.1178E-4  -.9913   
  1.702     0.5879E-4  -.9852     0.1193E-4  -.9913   
  1.722     0.5957E-4  -.9851     0.1208E-4  -.9913   
  1.742     0.6036E-4  -.9851     0.1222E-4  -.9913   
  1.762     0.6116E-4  -.9851     0.1237E-4  -.9913   
  1.782     0.6196E-4  -.9851     0.1252E-4  -.9913   
  1.802     0.6276E-4  -.9851     0.1267E-4  -.9913   
  1.822     0.6356E-4  -.9851     0.1281E-4  -.9913   
  1.842     0.6437E-4  -.9851     0.1296E-4  -.9913   
  1.862     0.6518E-4  -.9851     0.1311E-4  -.9913   
  1.882     0.6600E-4  -.9850     0.1326E-4  -.9913   
  1.902     0.6682E-4  -.9850     0.1341E-4  -.9913   
  1.922     0.6765E-4  -.9850     0.1356E-4  -.9913   
  1.942     0.6848E-4  -.9850     0.1371E-4  -.9913   
  1.962     0.6931E-4  -.9850     0.1386E-4  -.9913   
  1.982     0.7015E-4  -.9850     0.1401E-4  -.9913   
  2.002     0.7099E-4  -.9850     0.1416E-4  -.9913   
  2.022     0.7183E-4  -.9849     0.1431E-4  -.9913   
  2.042     0.7268E-4  -.9849     0.1446E-4  -.9913   
  2.062     0.7354E-4  -.9849     0.1462E-4  -.9913   
  2.082     0.7440E-4  -.9849     0.1477E-4  -.9913   
  2.102     0.7526E-4  -.9849     0.1492E-4  -.9913   
  2.122     0.7613E-4  -.9849     0.1507E-4  -.9913   
  2.142     0.7701E-4  -.9849     0.1522E-4  -.9913   
  2.162     0.7789E-4  -.9848     0.1538E-4  -.9913   
  2.182     0.7877E-4  -.9848     0.1553E-4  -.9913   
  2.202     0.7966E-4  -.9848     0.1569E-4  -.9913   
  2.222     0.8055E-4  -.9848     0.1584E-4  -.9913   
  2.242     0.8145E-4  -.9848     0.1599E-4  -.9913   
  2.262     0.8236E-4  -.9848     0.1615E-4  -.9913   
  2.282     0.8327E-4  -.9847     0.1630E-4  -.9913   
  2.302     0.8418E-4  -.9847     0.1646E-4  -.9912   
  2.322     0.8510E-4  -.9847     0.1661E-4  -.9912   
  2.342     0.8603E-4  -.9847     0.1677E-4  -.9912   
  2.362     0.8696E-4  -.9847     0.1693E-4  -.9912   
  2.382     0.8790E-4  -.9847     0.1708E-4  -.9912   
  2.402     0.8884E-4  -.9846     0.1724E-4  -.9912   
  2.422     0.8979E-4  -.9846     0.1740E-4  -.9912   
  2.442     0.9075E-4  -.9846     0.1756E-4  -.9912   
  2.462     0.9171E-4  -.9846     0.1771E-4  -.9912   
  2.482     0.9267E-4  -.9846     0.1787E-4  -.9912   
  2.503     0.9365E-4  -.9845     0.1803E-4  -.9912   
  2.523     0.9463E-4  -.9845     0.1819E-4  -.9912   
  2.543     0.9561E-4  -.9845     0.1835E-4  -.9912   
  2.563     0.9661E-4  -.9845     0.1851E-4  -.9912   
  2.583     0.9760E-4  -.9845     0.1867E-4  -.9912   
  2.603     0.9861E-4  -.9845     0.1883E-4  -.9912   
  2.623     0.9962E-4  -.9844     0.1899E-4  -.9912   
  2.643     0.1006E-3  -.9844     0.1916E-4  -.9912   
  2.663     0.1017E-3  -.9844     0.1932E-4  -.9912   
  2.683     0.1027E-3  -.9844     0.1948E-4  -.9912   
  2.703     0.1037E-3  -.9844     0.1964E-4  -.9912   
  2.723     0.1048E-3  -.9843     0.1981E-4  -.9912   
  2.743     0.1058E-3  -.9843     0.1997E-4  -.9912   
  2.763     0.1069E-3  -.9843     0.2013E-4  -.9912   
  2.783     0.1080E-3  -.9843     0.2030E-4  -.9912   
  2.803     0.1091E-3  -.9842     0.2046E-4  -.9912   
  2.823     0.1101E-3  -.9842     0.2063E-4  -.9912   
  2.843     0.1112E-3  -.9842     0.2080E-4  -.9911   
  2.863     0.1123E-3  -.9842     0.2096E-4  -.9911   
  2.883     0.1134E-3  -.9842     0.2113E-4  -.9911   
  2.903     0.1146E-3  -.9841     0.2130E-4  -.9911   
  2.923     0.1157E-3  -.9841     0.2146E-4  -.9911   
  2.943     0.1168E-3  -.9841     0.2163E-4  -.9911   
  2.963     0.1180E-3  -.9841     0.2180E-4  -.9911   
  2.983     0.1191E-3  -.9840     0.2197E-4  -.9911   
  3.003     0.1203E-3  -.9840     0.2214E-4  -.9911   
  3.023     0.1214E-3  -.9840     0.2231E-4  -.9911   
  3.043     0.1226E-3  -.9840     0.2248E-4  -.9911   
  3.063     0.1238E-3  -.9839     0.2265E-4  -.9911   
  3.083     0.1250E-3  -.9839     0.2282E-4  -.9911   
  3.103     0.1262E-3  -.9839     0.2299E-4  -.9911   
  3.123     0.1274E-3  -.9839     0.2317E-4  -.9911   
  3.143     0.1286E-3  -.9838     0.2334E-4  -.9911   
  3.163     0.1299E-3  -.9838     0.2351E-4  -.9911   
  3.183     0.1311E-3  -.9838     0.2369E-4  -.9911   
  3.203     0.1324E-3  -.9838     0.2386E-4  -.9911   
  3.223     0.1336E-3  -.9837     0.2404E-4  -.9911   
  3.243     0.1349E-3  -.9837     0.2421E-4  -.9911   
  3.263     0.1362E-3  -.9837     0.2439E-4  -.9911   
  3.283     0.1375E-3  -.9837     0.2456E-4  -.9910   
  3.303     0.1388E-3  -.9836     0.2474E-4  -.9910   
  3.323     0.1401E-3  -.9836     0.2492E-4  -.9910   
  3.343     0.1415E-3  -.9836     0.2510E-4  -.9910   
  3.363     0.1428E-3  -.9835     0.2528E-4  -.9910   
  3.383     0.1441E-3  -.9835     0.2546E-4  -.9910   
  3.403     0.1455E-3  -.9835     0.2564E-4  -.9910   
  3.423     0.1469E-3  -.9835     0.2582E-4  -.9910   
  3.443     0.1483E-3  -.9834     0.2600E-4  -.9910   
  3.463     0.1497E-3  -.9834     0.2618E-4  -.9910   
  3.483     0.1511E-3  -.9834     0.2636E-4  -.9910   
  3.504     0.1525E-3  -.9833     0.2654E-4  -.9910   
  3.524     0.1539E-3  -.9833     0.2673E-4  -.9910   
  3.544     0.1554E-3  -.9833     0.2691E-4  -.9910   
  3.564     0.1569E-3  -.9832     0.2710E-4  -.9910   
  3.584     0.1583E-3  -.9832     0.2728E-4  -.9910   
  3.604     0.1598E-3  -.9832     0.2747E-4  -.9910   
  3.624     0.1613E-3  -.9831     0.2765E-4  -.9910   
  3.644     0.1628E-3  -.9831     0.2784E-4  -.9910   
  3.664     0.1644E-3  -.9831     0.2803E-4  -.9909   
  3.684     0.1659E-3  -.9830     0.2822E-4  -.9909   
  3.704     0.1675E-3  -.9830     0.2841E-4  -.9909   
  3.724     0.1691E-3  -.9830     0.2860E-4  -.9909   
  3.744     0.1706E-3  -.9829     0.2879E-4  -.9909   
  3.764     0.1722E-3  -.9829     0.2898E-4  -.9909   
  3.784     0.1739E-3  -.9829     0.2917E-4  -.9909   
  3.804     0.1755E-3  -.9828     0.2936E-4  -.9909   
  3.824     0.1772E-3  -.9828     0.2955E-4  -.9909   
  3.844     0.1788E-3  -.9828     0.2975E-4  -.9909   
  3.864     0.1805E-3  -.9827     0.2994E-4  -.9909   
  3.884     0.1822E-3  -.9827     0.3014E-4  -.9909   
  3.904     0.1839E-3  -.9827     0.3033E-4  -.9909   
  3.924     0.1857E-3  -.9826     0.3053E-4  -.9909   
  3.944     0.1874E-3  -.9826     0.3073E-4  -.9909   
  3.964     0.1892E-3  -.9826     0.3093E-4  -.9909   
  3.984     0.1910E-3  -.9825     0.3112E-4  -.9909   
  4.004     0.1928E-3  -.9825     0.3132E-4  -.9908   
  4.024     0.1946E-3  -.9824     0.3152E-4  -.9908   
  4.044     0.1964E-3  -.9824     0.3172E-4  -.9908   
  4.064     0.1983E-3  -.9824     0.3193E-4  -.9908   
  4.084     0.2002E-3  -.9823     0.3213E-4  -.9908   
  4.104     0.2021E-3  -.9823     0.3233E-4  -.9908   
  4.124     0.2040E-3  -.9822     0.3254E-4  -.9908   
  4.144     0.2059E-3  -.9822     0.3274E-4  -.9908   
  4.164     0.2079E-3  -.9822     0.3295E-4  -.9908   
  4.184     0.2099E-3  -.9821     0.3315E-4  -.9908   
  4.204     0.2119E-3  -.9821     0.3336E-4  -.9908   
  4.224     0.2139E-3  -.9820     0.3357E-4  -.9908   
  4.244     0.2159E-3  -.9820     0.3378E-4  -.9908   
  4.264     0.2180E-3  -.9819     0.3399E-4  -.9908   
  4.284     0.2201E-3  -.9819     0.3420E-4  -.9908   
  4.304     0.2222E-3  -.9819     0.3441E-4  -.9907   
  4.324     0.2243E-3  -.9818     0.3462E-4  -.9907   
  4.344     0.2265E-3  -.9818     0.3483E-4  -.9907   
  4.364     0.2287E-3  -.9817     0.3504E-4  -.9907   
  4.384     0.2309E-3  -.9817     0.3526E-4  -.9907   
  4.404     0.2331E-3  -.9816     0.3547E-4  -.9907   
  4.424     0.2354E-3  -.9816     0.3569E-4  -.9907   
  4.444     0.2376E-3  -.9815     0.3591E-4  -.9907   
  4.464     0.2400E-3  -.9815     0.3613E-4  -.9907   
  4.484     0.2423E-3  -.9814     0.3635E-4  -.9907   
  4.505     0.2446E-3  -.9814     0.3656E-4  -.9907   
  4.525     0.2470E-3  -.9813     0.3679E-4  -.9907   
  4.545     0.2495E-3  -.9813     0.3701E-4  -.9907   
  4.565     0.2519E-3  -.9812     0.3723E-4  -.9907   
  4.585     0.2544E-3  -.9812     0.3745E-4  -.9906   
  4.605     0.2569E-3  -.9811     0.3768E-4  -.9906   
  4.625     0.2594E-3  -.9811     0.3790E-4  -.9906   
  4.645     0.2620E-3  -.9810     0.3813E-4  -.9906   
  4.665     0.2646E-3  -.9810     0.3836E-4  -.9906   
  4.685     0.2672E-3  -.9809     0.3858E-4  -.9906   
  4.705     0.2698E-3  -.9809     0.3881E-4  -.9906   
  4.725     0.2725E-3  -.9808     0.3904E-4  -.9906   
  4.745     0.2753E-3  -.9808     0.3928E-4  -.9906   
  4.765     0.2780E-3  -.9807     0.3951E-4  -.9906   
  4.785     0.2808E-3  -.9807     0.3974E-4  -.9906   
  4.805     0.2836E-3  -.9806     0.3998E-4  -.9906   
  4.825     0.2865E-3  -.9805     0.4021E-4  -.9906   
  4.845     0.2894E-3  -.9805     0.4045E-4  -.9905   
  4.865     0.2923E-3  -.9804     0.4068E-4  -.9905   
  4.885     0.2953E-3  -.9804     0.4092E-4  -.9905   
  4.905     0.2983E-3  -.9803     0.4116E-4  -.9905   
  4.925     0.3013E-3  -.9802     0.4140E-4  -.9905   
  4.945     0.3044E-3  -.9802     0.4164E-4  -.9905   
  4.965     0.3076E-3  -.9801     0.4189E-4  -.9905   
  4.985     0.3107E-3  -.9801     0.4213E-4  -.9905   
  5.005     0.3139E-3  -.9800     0.4238E-4  -.9905   
  5.025     0.3172E-3  -.9799     0.4262E-4  -.9905   
  5.045     0.3205E-3  -.9799     0.4287E-4  -.9905   
  5.065     0.3238E-3  -.9798     0.4312E-4  -.9905   
  5.085     0.3272E-3  -.9797     0.4337E-4  -.9904   
  5.105     0.3306E-3  -.9797     0.4362E-4  -.9904   
  5.125     0.3341E-3  -.9796     0.4387E-4  -.9904   
  5.145     0.3376E-3  -.9795     0.4412E-4  -.9904   
  5.165     0.3412E-3  -.9795     0.4438E-4  -.9904   
  5.185     0.3448E-3  -.9794     0.4463E-4  -.9904   
  5.205     0.3485E-3  -.9793     0.4489E-4  -.9904   
  5.225     0.3522E-3  -.9793     0.4514E-4  -.9904   
  5.245     0.3560E-3  -.9792     0.4540E-4  -.9904   
  5.265     0.3598E-3  -.9791     0.4566E-4  -.9904   
  5.285     0.3637E-3  -.9791     0.4593E-4  -.9904   
  5.305     0.3676E-3  -.9790     0.4619E-4  -.9903   
  5.325     0.3716E-3  -.9789     0.4645E-4  -.9903   
  5.345     0.3756E-3  -.9788     0.4672E-4  -.9903   
  5.365     0.3797E-3  -.9788     0.4698E-4  -.9903   
  5.385     0.3839E-3  -.9787     0.4725E-4  -.9903   
  5.405     0.3881E-3  -.9786     0.4752E-4  -.9903   
  5.425     0.3924E-3  -.9785     0.4779E-4  -.9903   
  5.445     0.3968E-3  -.9784     0.4806E-4  -.9903   
  5.465     0.4012E-3  -.9784     0.4834E-4  -.9903   
  5.485     0.4057E-3  -.9783     0.4861E-4  -.9903   
  5.506     0.4102E-3  -.9782     0.4889E-4  -.9903   
  5.526     0.4148E-3  -.9781     0.4916E-4  -.9902   
  5.546     0.4195E-3  -.9780     0.4944E-4  -.9902   
  5.566     0.4243E-3  -.9780     0.4972E-4  -.9902   
  5.586     0.4291E-3  -.9779     0.5000E-4  -.9902   
  5.606     0.4340E-3  -.9778     0.5029E-4  -.9902   
  5.626     0.4390E-3  -.9777     0.5057E-4  -.9902   
  5.646     0.4441E-3  -.9776     0.5086E-4  -.9902   
  5.666     0.4492E-3  -.9775     0.5114E-4  -.9902   
  5.686     0.4544E-3  -.9774     0.5143E-4  -.9902   
  5.706     0.4597E-3  -.9773     0.5172E-4  -.9902   
  5.726     0.4651E-3  -.9772     0.5201E-4  -.9901   
  5.746     0.4706E-3  -.9772     0.5231E-4  -.9901   
  5.766     0.4762E-3  -.9771     0.5260E-4  -.9901   
  5.786     0.4818E-3  -.9770     0.5290E-4  -.9901   
  5.806     0.4876E-3  -.9769     0.5319E-4  -.9901   
  5.826     0.4934E-3  -.9768     0.5349E-4  -.9901   
  5.846     0.4993E-3  -.9767     0.5380E-4  -.9901   
  5.866     0.5054E-3  -.9766     0.5410E-4  -.9901   
  5.886     0.5115E-3  -.9765     0.5440E-4  -.9901   
  5.906     0.5178E-3  -.9764     0.5471E-4  -.9900   
  5.926     0.5241E-3  -.9763     0.5501E-4  -.9900   
  5.946     0.5306E-3  -.9762     0.5532E-4  -.9900   
  5.966     0.5371E-3  -.9760     0.5563E-4  -.9900   
  5.986     0.5438E-3  -.9759     0.5595E-4  -.9900   
  6.006     0.5506E-3  -.9758     0.5626E-4  -.9900   
  6.026     0.5575E-3  -.9757     0.5658E-4  -.9900   
  6.046     0.5646E-3  -.9756     0.5689E-4  -.9900   
  6.066     0.5717E-3  -.9755     0.5721E-4  -.9900   
  6.086     0.5790E-3  -.9754     0.5753E-4  -.9899   
  6.106     0.5864E-3  -.9753     0.5786E-4  -.9899   
  6.126     0.5940E-3  -.9751     0.5818E-4  -.9899   
  6.146     0.6017E-3  -.9750     0.5851E-4  -.9899   
  6.166     0.6095E-3  -.9749     0.5884E-4  -.9899   
  6.186     0.6175E-3  -.9748     0.5917E-4  -.9899   
  6.206     0.6256E-3  -.9747     0.5950E-4  -.9899   
  6.226     0.6339E-3  -.9745     0.5983E-4  -.9899   
  6.246     0.6423E-3  -.9744     0.6017E-4  -.9898   
  6.266     0.6509E-3  -.9743     0.6050E-4  -.9898   
  6.286     0.6597E-3  -.9741     0.6084E-4  -.9898   
  6.306     0.6686E-3  -.9740     0.6118E-4  -.9898   
  6.326     0.6777E-3  -.9739     0.6153E-4  -.9898   
  6.346     0.6869E-3  -.9737     0.6187E-4  -.9898   
  6.366     0.6964E-3  -.9736     0.6222E-4  -.9898   
  6.386     0.7060E-3  -.9735     0.6257E-4  -.9898   
  6.406     0.7159E-3  -.9733     0.6292E-4  -.9898   
  6.426     0.7259E-3  -.9732     0.6327E-4  -.9897   
  6.446     0.7361E-3  -.9730     0.6363E-4  -.9897   
  6.466     0.7465E-3  -.9729     0.6399E-4  -.9897   
  6.486     0.7572E-3  -.9727     0.6435E-4  -.9897   
  6.507     0.7680E-3  -.9726     0.6471E-4  -.9897   
  6.527     0.7791E-3  -.9724     0.6507E-4  -.9897   
  6.547     0.7904E-3  -.9723     0.6544E-4  -.9897   
  6.567     0.8020E-3  -.9721     0.6581E-4  -.9896   
  6.587     0.8138E-3  -.9719     0.6618E-4  -.9896   
  6.607     0.8258E-3  -.9718     0.6655E-4  -.9896   
  6.627     0.8381E-3  -.9716     0.6692E-4  -.9896   
  6.647     0.8507E-3  -.9714     0.6730E-4  -.9896   
  6.667     0.8635E-3  -.9713     0.6768E-4  -.9896   
  6.687     0.8767E-3  -.9711     0.6806E-4  -.9896   
  6.707     0.8901E-3  -.9709     0.6844E-4  -.9896   
  6.727     0.9038E-3  -.9707     0.6883E-4  -.9895   
  6.747     0.9178E-3  -.9706     0.6922E-4  -.9895   
  6.767     0.9321E-3  -.9704     0.6961E-4  -.9895   
  6.787     0.9468E-3  -.9702     0.7000E-4  -.9895   
  6.807     0.9618E-3  -.9700     0.7040E-4  -.9895   
  6.827     0.9771E-3  -.9698     0.7080E-4  -.9895   
  6.847     0.9928E-3  -.9696     0.7120E-4  -.9895   
  6.867     0.1009E-2  -.9694     0.7160E-4  -.9894   
  6.887     0.1025E-2  -.9692     0.7201E-4  -.9894   
  6.907     0.1042E-2  -.9690     0.7241E-4  -.9894   
  6.927     0.1059E-2  -.9688     0.7283E-4  -.9894   
  6.947     0.1077E-2  -.9686     0.7324E-4  -.9894   
  6.967     0.1095E-2  -.9684     0.7365E-4  -.9894   
  6.987     0.1114E-2  -.9681     0.7407E-4  -.9894   
  7.007     0.1133E-2  -.9679     0.7449E-4  -.9893   
  7.027     0.1152E-2  -.9677     0.7492E-4  -.9893   
  7.047     0.1172E-2  -.9675     0.7535E-4  -.9893   
  7.067     0.1193E-2  -.9672     0.7577E-4  -.9893   
  7.087     0.1214E-2  -.9670     0.7621E-4  -.9893   
  7.107     0.1235E-2  -.9667     0.7664E-4  -.9893   
  7.127     0.1257E-2  -.9665     0.7708E-4  -.9892   
  7.147     0.1280E-2  -.9662     0.7752E-4  -.9892   
  7.167     0.1303E-2  -.9660     0.7796E-4  -.9892   
  7.187     0.1327E-2  -.9657     0.7841E-4  -.9892   
  7.207     0.1352E-2  -.9655     0.7886E-4  -.9892   
  7.227     0.1377E-2  -.9652     0.7931E-4  -.9892   
  7.247     0.1403E-2  -.9649     0.7977E-4  -.9892   
  7.267     0.1430E-2  -.9646     0.8023E-4  -.9891   
  7.287     0.1457E-2  -.9643     0.8069E-4  -.9891   
  7.307     0.1485E-2  -.9640     0.8115E-4  -.9891   
  7.327     0.1514E-2  -.9637     0.8162E-4  -.9891   
  7.347     0.1544E-2  -.9634     0.8209E-4  -.9891   
  7.367     0.1575E-2  -.9631     0.8256E-4  -.9891   
  7.387     0.1606E-2  -.9628     0.8304E-4  -.9890   
  7.407     0.1639E-2  -.9625     0.8352E-4  -.9890   
  7.427     0.1672E-2  -.9622     0.8400E-4  -.9890   
  7.447     0.1707E-2  -.9618     0.8449E-4  -.9890   
  7.467     0.1743E-2  -.9615     0.8498E-4  -.9890   
  7.487     0.1779E-2  -.9611     0.8547E-4  -.9890   
  7.508     0.1817E-2  -.9608     0.8597E-4  -.9889   
  7.528     0.1856E-2  -.9604     0.8647E-4  -.9889   
  7.548     0.1897E-2  -.9600     0.8697E-4  -.9889   
  7.568     0.1938E-2  -.9596     0.8748E-4  -.9889   
  7.588     0.1981E-2  -.9593     0.8799E-4  -.9889   
  7.608     0.2026E-2  -.9589     0.8851E-4  -.9889   
  7.628     0.2072E-2  -.9584     0.8902E-4  -.9888   
  7.648     0.2119E-2  -.9580     0.8955E-4  -.9888   
  7.668     0.2168E-2  -.9576     0.9007E-4  -.9888   
  7.688     0.2219E-2  -.9572     0.9060E-4  -.9888   
  7.708     0.2272E-2  -.9567     0.9113E-4  -.9888   
  7.728     0.2326E-2  -.9563     0.9167E-4  -.9887   
  7.748     0.2382E-2  -.9558     0.9221E-4  -.9887   
  7.768     0.2441E-2  -.9553     0.9275E-4  -.9887   
  7.788     0.2501E-2  -.9548     0.9330E-4  -.9887   
  7.808     0.2564E-2  -.9543     0.9385E-4  -.9887   
  7.828     0.2630E-2  -.9538     0.9441E-4  -.9886   
  7.848     0.2697E-2  -.9533     0.9497E-4  -.9886   
  7.868     0.2768E-2  -.9527     0.9553E-4  -.9886   
  7.888     0.2841E-2  -.9522     0.9610E-4  -.9886   
  7.908     0.2917E-2  -.9516     0.9667E-4  -.9886   
  7.928     0.2996E-2  -.9510     0.9725E-4  -.9886   
  7.948     0.3078E-2  -.9504     0.9783E-4  -.9885   
  7.968     0.3164E-2  -.9498     0.9842E-4  -.9885   
  7.988     0.3253E-2  -.9492     0.9901E-4  -.9885   
  8.008     0.3346E-2  -.9485     0.9960E-4  -.9885   
  8.028     0.3443E-2  -.9478     0.1002E-3  -.9885   
  8.048     0.3544E-2  -.9471     0.1008E-3  -.9884   
  8.068     0.3650E-2  -.9464     0.1014E-3  -.9884   
  8.088     0.3761E-2  -.9457     0.1020E-3  -.9884   
  8.108     0.3877E-2  -.9449     0.1026E-3  -.9884   
  8.128     0.3998E-2  -.9442     0.1033E-3  -.9884   
  8.148     0.4124E-2  -.9434     0.1039E-3  -.9883   
  8.168     0.4257E-2  -.9425     0.1045E-3  -.9883   
  8.188     0.4396E-2  -.9417     0.1051E-3  -.9883   
  8.208     0.4543E-2  -.9408     0.1058E-3  -.9883   
  8.228     0.4696E-2  -.9399     0.1064E-3  -.9882   
  8.248     0.4857E-2  -.9389     0.1071E-3  -.9882   
  8.268     0.5027E-2  -.9380     0.1077E-3  -.9882   
  8.288     0.5206E-2  -.9370     0.1084E-3  -.9882   
  8.308     0.5394E-2  -.9359     0.1091E-3  -.9882   
  8.328     0.5593E-2  -.9348     0.1097E-3  -.9881   
  8.348     0.5803E-2  -.9337     0.1104E-3  -.9881   
  8.368     0.6025E-2  -.9326     0.1111E-3  -.9881   
  8.388     0.6259E-2  -.9313     0.1118E-3  -.9881   
  8.408     0.6508E-2  -.9301     0.1125E-3  -.9881   
  8.428     0.6771E-2  -.9288     0.1132E-3  -.9880   
  8.448     0.7051E-2  -.9274     0.1139E-3  -.9880   
  8.468     0.7348E-2  -.9260     0.1146E-3  -.9880   
  8.488     0.7665E-2  -.9246     0.1153E-3  -.9880   
  8.509     0.8002E-2  -.9230     0.1160E-3  -.9879   
  8.529     0.8361E-2  -.9214     0.1167E-3  -.9879   
  8.549     0.8746E-2  -.9198     0.1175E-3  -.9879   
  8.569     0.9157E-2  -.9180     0.1182E-3  -.9879   
  8.589     0.9598E-2  -.9162     0.1190E-3  -.9878   
  8.609     0.1007E-1  -.9143     0.1197E-3  -.9878   
  8.629     0.1058E-1  -.9123     0.1205E-3  -.9878   
  8.649     0.1113E-1  -.9102     0.1212E-3  -.9878   
  8.669     0.1172E-1  -.9080     0.1220E-3  -.9877   
  8.689     0.1236E-1  -.9056     0.1228E-3  -.9877   
  8.709     0.1305E-1  -.9032     0.1235E-3  -.9877   
  8.729     0.1380E-1  -.9006     0.1243E-3  -.9877   
  8.749     0.1462E-1  -.8979     0.1251E-3  -.9876   
  8.769     0.1551E-1  -.8950     0.1259E-3  -.9876   
  8.789     0.1649E-1  -.8920     0.1267E-3  -.9876   
  8.809     0.1756E-1  -.8887     0.1275E-3  -.9876   
  8.829     0.1873E-1  -.8853     0.1284E-3  -.9875   
  8.849     0.2003E-1  -.8816     0.1292E-3  -.9875   
  8.869     0.2146E-1  -.8777     0.1300E-3  -.9875   
  8.889     0.2305E-1  -.8736     0.1309E-3  -.9875   
  8.909     0.2483E-1  -.8691     0.1317E-3  -.9874   
  8.929     0.2681E-1  -.8644     0.1326E-3  -.9874   
  8.949     0.2904E-1  -.8592     0.1334E-3  -.9874   
  8.969     0.3155E-1  -.8537     0.1343E-3  -.9874   
  8.989     0.3439E-1  -.8478     0.1352E-3  -.9873   
  9.009     0.3763E-1  -.8413     0.1361E-3  -.9873   
  9.029     0.4133E-1  -.8344     0.1370E-3  -.9873   
  9.049     0.4560E-1  -.8268     0.1379E-3  -.9873   
  9.069     0.5055E-1  -.8186     0.1388E-3  -.9872   
  9.089     0.5631E-1  -.8096     0.1397E-3  -.9872   
  9.109     0.6309E-1  -.7997     0.1406E-3  -.9872   
  9.129     0.7111E-1  -.7890     0.1416E-3  -.9871   
  9.149     0.8069E-1  -.7772     0.1425E-3  -.9871   
  9.169     0.9223E-1  -.7644     0.1435E-3  -.9871   
  9.189     0.1063     -.7504     0.1444E-3  -.9871   
  9.209     0.1235     -.7352     0.1454E-3  -.9870   
  9.229     0.1449     -.7191     0.1464E-3  -.9870   
  9.249     0.1716     -.7023     0.1474E-3  -.9870   
  9.269     0.2053     -.6857     0.1484E-3  -.9869   
  9.289     0.2479     -.6708     0.1494E-3  -.9869   
  9.309     0.3017     -.6606     0.1504E-3  -.9869   
  9.329     0.3685     -.6601     0.1514E-3  -.9868   
  9.349     0.4480     -.6772     0.1524E-3  -.9868   
  9.369     0.5350     -.7223     0.1535E-3  -.9868   
  9.389     0.6154     -.8043     0.1545E-3  -.9868   
  9.409     0.6670     -.9217     0.1556E-3  -.9867   
  9.429     0.6702     -1.056     0.1567E-3  -.9867   
  9.449     0.6235     -1.176     0.1577E-3  -.9867   
  9.469     0.5452     -1.263     0.1588E-3  -.9866   
  9.489     0.4580     -1.312     0.1599E-3  -.9866   
  9.510     0.3772     -1.332     0.1611E-3  -.9866   
  9.530     0.3089     -1.333     0.1622E-3  -.9865   
  9.550     0.2536     -1.323     0.1633E-3  -.9865   
  9.570     0.2098     -1.309     0.1645E-3  -.9865   
  9.590     0.1751     -1.292     0.1656E-3  -.9864   
  9.610     0.1477     -1.276     0.1668E-3  -.9864   
  9.630     0.1258     -1.259     0.1680E-3  -.9864   
  9.650     0.1081     -1.244     0.1691E-3  -.9863   
  9.670     0.9374E-1  -1.230     0.1704E-3  -.9863   
  9.690     0.8194E-1  -1.217     0.1716E-3  -.9863   
  9.710     0.7215E-1  -1.205     0.1728E-3  -.9862   
  9.730     0.6396E-1  -1.194     0.1740E-3  -.9862   
  9.750     0.5706E-1  -1.184     0.1753E-3  -.9862   
  9.770     0.5118E-1  -1.175     0.1765E-3  -.9861   
  9.790     0.4615E-1  -1.167     0.1778E-3  -.9861   
  9.810     0.4181E-1  -1.159     0.1791E-3  -.9861   
  9.830     0.3804E-1  -1.152     0.1804E-3  -.9860   
  9.850     0.3475E-1  -1.146     0.1817E-3  -.9860   
  9.870     0.3186E-1  -1.140     0.1830E-3  -.9859   
  9.890     0.2932E-1  -1.134     0.1844E-3  -.9859   
  9.910     0.2706E-1  -1.129     0.1857E-3  -.9859   
  9.930     0.2505E-1  -1.124     0.1871E-3  -.9858   
  9.950     0.2326E-1  -1.120     0.1885E-3  -.9858   
  9.970     0.2164E-1  -1.115     0.1899E-3  -.9858   
  9.990     0.2019E-1  -1.112     0.1913E-3  -.9857   
  10.01     0.1888E-1  -1.108     0.1927E-3  -.9857   
  10.03     0.1769E-1  -1.104     0.1942E-3  -.9856   
  10.05     0.1661E-1  -1.101     0.1956E-3  -.9856   
  10.07     0.1562E-1  -1.098     0.1971E-3  -.9856   
  10.09     0.1472E-1  -1.095     0.1986E-3  -.9855   
  10.11     0.1390E-1  -1.092     0.2001E-3  -.9855   
  10.13     0.1314E-1  -1.090     0.2016E-3  -.9854   
  10.15     0.1244E-1  -1.087     0.2031E-3  -.9854   
  10.17     0.1179E-1  -1.085     0.2047E-3  -.9854   
  10.19     0.1120E-1  -1.083     0.2062E-3  -.9853   
  10.21     0.1065E-1  -1.081     0.2078E-3  -.9853   
  10.23     0.1013E-1  -1.079     0.2094E-3  -.9852   
  10.25     0.9655E-2  -1.077     0.2110E-3  -.9852   
  10.27     0.9211E-2  -1.075     0.2127E-3  -.9852   
  10.29     0.8797E-2  -1.073     0.2143E-3  -.9851   
  10.31     0.8409E-2  -1.071     0.2160E-3  -.9851   
  10.33     0.8047E-2  -1.070     0.2177E-3  -.9850   
  10.35     0.7708E-2  -1.068     0.2194E-3  -.9850   
  10.37     0.7389E-2  -1.067     0.2211E-3  -.9849   
  10.39     0.7090E-2  -1.065     0.2229E-3  -.9849   
  10.41     0.6808E-2  -1.064     0.2247E-3  -.9849   
  10.43     0.6543E-2  -1.063     0.2264E-3  -.9848   
  10.45     0.6293E-2  -1.062     0.2283E-3  -.9848   
  10.47     0.6056E-2  -1.060     0.2301E-3  -.9847   
  10.49     0.5833E-2  -1.059     0.2319E-3  -.9847   
  10.51     0.5622E-2  -1.058     0.2338E-3  -.9846   
  10.53     0.5422E-2  -1.057     0.2357E-3  -.9846   
  10.55     0.5233E-2  -1.056     0.2376E-3  -.9845   
  10.57     0.5053E-2  -1.055     0.2395E-3  -.9845   
  10.59     0.4882E-2  -1.054     0.2415E-3  -.9844   
  10.61     0.4720E-2  -1.053     0.2435E-3  -.9844   
  10.63     0.4566E-2  -1.052     0.2455E-3  -.9843   
  10.65     0.4419E-2  -1.051     0.2475E-3  -.9843   
  10.67     0.4279E-2  -1.050     0.2496E-3  -.9842   
  10.69     0.4146E-2  -1.049     0.2516E-3  -.9842   
  10.71     0.4018E-2  -1.049     0.2537E-3  -.9841   
  10.73     0.3897E-2  -1.048     0.2559E-3  -.9841   
  10.75     0.3780E-2  -1.047     0.2580E-3  -.9840   
  10.77     0.3669E-2  -1.046     0.2602E-3  -.9840   
  10.79     0.3563E-2  -1.046     0.2624E-3  -.9839   
  10.81     0.3461E-2  -1.045     0.2646E-3  -.9839   
  10.83     0.3364E-2  -1.044     0.2669E-3  -.9838   
  10.85     0.3270E-2  -1.044     0.2692E-3  -.9838   
  10.87     0.3181E-2  -1.043     0.2715E-3  -.9837   
  10.89     0.3095E-2  -1.042     0.2738E-3  -.9837   
  10.91     0.3012E-2  -1.042     0.2762E-3  -.9836   
  10.93     0.2933E-2  -1.041     0.2786E-3  -.9836   
  10.95     0.2857E-2  -1.041     0.2810E-3  -.9835   
  10.97     0.2783E-2  -1.040     0.2835E-3  -.9834   
  10.99     0.2713E-2  -1.039     0.2860E-3  -.9834   
  11.01     0.2645E-2  -1.039     0.2885E-3  -.9833   
  11.03     0.2579E-2  -1.038     0.2911E-3  -.9833   
  11.05     0.2516E-2  -1.038     0.2937E-3  -.9832   
  11.07     0.2456E-2  -1.037     0.2963E-3  -.9831   
  11.09     0.2397E-2  -1.037     0.2990E-3  -.9831   
  11.11     0.2341E-2  -1.036     0.3016E-3  -.9830   
  11.13     0.2286E-2  -1.036     0.3044E-3  -.9830   
  11.15     0.2233E-2  -1.036     0.3071E-3  -.9829   
  11.17     0.2182E-2  -1.035     0.3099E-3  -.9828   
  11.19     0.2133E-2  -1.035     0.3128E-3  -.9828   
  11.21     0.2086E-2  -1.034     0.3156E-3  -.9827   
  11.23     0.2040E-2  -1.034     0.3186E-3  -.9827   
  11.25     0.1995E-2  -1.033     0.3215E-3  -.9826   
  11.27     0.1952E-2  -1.033     0.3245E-3  -.9825   
  11.29     0.1910E-2  -1.033     0.3275E-3  -.9825   
  11.31     0.1870E-2  -1.032     0.3306E-3  -.9824   
  11.33     0.1831E-2  -1.032     0.3337E-3  -.9823   
  11.35     0.1793E-2  -1.032     0.3369E-3  -.9823   
  11.37     0.1756E-2  -1.031     0.3401E-3  -.9822   
  11.39     0.1721E-2  -1.031     0.3433E-3  -.9821   
  11.41     0.1686E-2  -1.031     0.3466E-3  -.9821   
  11.43     0.1653E-2  -1.030     0.3500E-3  -.9820   
  11.45     0.1620E-2  -1.030     0.3533E-3  -.9819   
  11.47     0.1588E-2  -1.030     0.3568E-3  -.9818   
  11.49     0.1558E-2  -1.029     0.3603E-3  -.9818   
  11.51     0.1528E-2  -1.029     0.3638E-3  -.9817   
  11.53     0.1499E-2  -1.029     0.3674E-3  -.9816   
  11.55     0.1471E-2  -1.028     0.3710E-3  -.9816   
  11.57     0.1443E-2  -1.028     0.3747E-3  -.9815   
  11.59     0.1417E-2  -1.028     0.3784E-3  -.9814   
  11.61     0.1391E-2  -1.027     0.3822E-3  -.9813   
  11.63     0.1366E-2  -1.027     0.3861E-3  -.9813   
  11.65     0.1341E-2  -1.027     0.3900E-3  -.9812   
  11.67     0.1317E-2  -1.027     0.3940E-3  -.9811   
  11.69     0.1294E-2  -1.026     0.3980E-3  -.9810   
  11.71     0.1271E-2  -1.026     0.4021E-3  -.9809   
  11.73     0.1249E-2  -1.026     0.4062E-3  -.9809   
  11.75     0.1228E-2  -1.026     0.4104E-3  -.9808   
  11.77     0.1207E-2  -1.025     0.4147E-3  -.9807   
  11.79     0.1186E-2  -1.025     0.4190E-3  -.9806   
  11.81     0.1167E-2  -1.025     0.4234E-3  -.9805   
  11.83     0.1147E-2  -1.025     0.4279E-3  -.9804   
  11.85     0.1128E-2  -1.024     0.4325E-3  -.9804   
  11.87     0.1110E-2  -1.024     0.4371E-3  -.9803   
  11.89     0.1092E-2  -1.024     0.4418E-3  -.9802   
  11.91     0.1074E-2  -1.024     0.4465E-3  -.9801   
  11.93     0.1057E-2  -1.024     0.4514E-3  -.9800   
  11.95     0.1040E-2  -1.023     0.4563E-3  -.9799   
  11.97     0.1024E-2  -1.023     0.4613E-3  -.9798   
  11.99     0.1008E-2  -1.023     0.4664E-3  -.9797   
  12.01     0.9924E-3  -1.023     0.4715E-3  -.9796   
  12.03     0.9772E-3  -1.023     0.4768E-3  -.9795   
  12.05     0.9623E-3  -1.022     0.4821E-3  -.9794   
  12.07     0.9478E-3  -1.022     0.4875E-3  -.9793   
  12.09     0.9336E-3  -1.022     0.4930E-3  -.9792   
  12.11     0.9197E-3  -1.022     0.4986E-3  -.9791   
  12.13     0.9061E-3  -1.022     0.5043E-3  -.9790   
  12.15     0.8928E-3  -1.021     0.5101E-3  -.9789   
  12.17     0.8798E-3  -1.021     0.5160E-3  -.9788   
  12.19     0.8671E-3  -1.021     0.5220E-3  -.9787   
  12.21     0.8547E-3  -1.021     0.5281E-3  -.9786   
  12.23     0.8426E-3  -1.021     0.5343E-3  -.9785   
  12.25     0.8307E-3  -1.021     0.5406E-3  -.9784   
  12.27     0.8191E-3  -1.020     0.5470E-3  -.9783   
  12.29     0.8077E-3  -1.020     0.5535E-3  -.9782   
  12.31     0.7966E-3  -1.020     0.5602E-3  -.9781   
  12.33     0.7857E-3  -1.020     0.5669E-3  -.9780   
  12.35     0.7751E-3  -1.020     0.5738E-3  -.9779   
  12.37     0.7646E-3  -1.020     0.5808E-3  -.9778   
  12.39     0.7544E-3  -1.020     0.5880E-3  -.9776   
  12.41     0.7445E-3  -1.019     0.5952E-3  -.9775   
  12.43     0.7347E-3  -1.019     0.6026E-3  -.9774   
  12.45     0.7252E-3  -1.019     0.6102E-3  -.9773   
  12.47     0.7159E-3  -1.019     0.6179E-3  -.9772   
  12.49     0.7068E-3  -1.019     0.6257E-3  -.9770   
  12.51     0.6979E-3  -1.019     0.6337E-3  -.9769   
  12.53     0.6893E-3  -1.019     0.6418E-3  -.9768   
  12.55     0.6808E-3  -1.018     0.6501E-3  -.9766   
  12.57     0.6726E-3  -1.018     0.6585E-3  -.9765   
  12.59     0.6647E-3  -1.018     0.6671E-3  -.9764   
  12.61     0.6570E-3  -1.018     0.6759E-3  -.9762   
  12.63     0.6495E-3  -1.018     0.6848E-3  -.9761   
  12.65     0.6425E-3  -1.018     0.6939E-3  -.9760   
  12.67     0.6357E-3  -1.018     0.7032E-3  -.9758   
  12.69     0.6294E-3  -1.017     0.7127E-3  -.9757   
  12.71     0.6236E-3  -1.017     0.7224E-3  -.9756   
  12.73     0.6183E-3  -1.017     0.7323E-3  -.9754   
  12.75     0.6138E-3  -1.017     0.7424E-3  -.9753   
  12.77     0.6100E-3  -1.017     0.7526E-3  -.9751   
  12.79     0.6070E-3  -1.017     0.7631E-3  -.9750   
  12.81     0.6044E-3  -1.017     0.7739E-3  -.9748   
  12.83     0.6014E-3  -1.017     0.7848E-3  -.9746   
  12.85     0.5971E-3  -1.017     0.7960E-3  -.9745   
  12.87     0.5904E-3  -1.016     0.8074E-3  -.9743   
  12.89     0.5815E-3  -1.016     0.8190E-3  -.9742   
  12.91     0.5713E-3  -1.016     0.8309E-3  -.9740   
  12.93     0.5610E-3  -1.016     0.8431E-3  -.9738   
  12.95     0.5511E-3  -1.016     0.8556E-3  -.9737   
  12.97     0.5420E-3  -1.016     0.8683E-3  -.9735   
  12.99     0.5336E-3  -1.016     0.8813E-3  -.9733   
  13.01     0.5258E-3  -1.016     0.8945E-3  -.9731   
  13.03     0.5186E-3  -1.016     0.9081E-3  -.9730   
  13.05     0.5118E-3  -1.015     0.9220E-3  -.9728   
  13.07     0.5054E-3  -1.015     0.9362E-3  -.9726   
  13.09     0.4993E-3  -1.015     0.9508E-3  -.9724   
  13.11     0.4934E-3  -1.015     0.9657E-3  -.9722   
  13.13     0.4877E-3  -1.015     0.9809E-3  -.9720   
  13.15     0.4823E-3  -1.015     0.9965E-3  -.9718   
  13.17     0.4770E-3  -1.015     0.1012E-2  -.9716   
  13.19     0.4718E-3  -1.015     0.1029E-2  -.9714   
  13.21     0.4668E-3  -1.015     0.1046E-2  -.9712   
  13.23     0.4619E-3  -1.015     0.1063E-2  -.9710   
  13.25     0.4571E-3  -1.015     0.1080E-2  -.9708   
  13.27     0.4525E-3  -1.014     0.1098E-2  -.9706   
  13.29     0.4479E-3  -1.014     0.1117E-2  -.9703   
  13.31     0.4435E-3  -1.014     0.1136E-2  -.9701   
  13.33     0.4392E-3  -1.014     0.1155E-2  -.9699   
  13.35     0.4349E-3  -1.014     0.1175E-2  -.9697   
  13.37     0.4308E-3  -1.014     0.1196E-2  -.9694   
  13.39     0.4267E-3  -1.014     0.1217E-2  -.9692   
  13.41     0.4228E-3  -1.014     0.1238E-2  -.9689   
  13.43     0.4189E-3  -1.014     0.1260E-2  -.9687   
  13.45     0.4151E-3  -1.014     0.1283E-2  -.9684   
  13.47     0.4114E-3  -1.014     0.1306E-2  -.9682   
  13.49     0.4078E-3  -1.013     0.1330E-2  -.9679   
  13.51     0.4043E-3  -1.013     0.1355E-2  -.9677   
  13.53     0.4009E-3  -1.013     0.1380E-2  -.9674   
  13.55     0.3976E-3  -1.013     0.1406E-2  -.9671   
  13.57     0.3943E-3  -1.013     0.1433E-2  -.9668   
  13.59     0.3912E-3  -1.013     0.1461E-2  -.9665   
  13.61     0.3881E-3  -1.013     0.1489E-2  -.9662   
  13.63     0.3852E-3  -1.013     0.1518E-2  -.9659   
  13.65     0.3823E-3  -1.013     0.1548E-2  -.9656   
  13.67     0.3796E-3  -1.013     0.1579E-2  -.9653   
  13.69     0.3769E-3  -1.013     0.1611E-2  -.9650   
  13.71     0.3744E-3  -1.013     0.1644E-2  -.9647   
  13.73     0.3719E-3  -1.013     0.1678E-2  -.9643   
  13.75     0.3696E-3  -1.012     0.1713E-2  -.9640   
  13.77     0.3674E-3  -1.012     0.1749E-2  -.9637   
  13.79     0.3654E-3  -1.012     0.1786E-2  -.9633   
  13.81     0.3634E-3  -1.012     0.1824E-2  -.9630   
  13.83     0.3617E-3  -1.012     0.1864E-2  -.9626   
  13.85     0.3600E-3  -1.012     0.1905E-2  -.9622   
  13.87     0.3586E-3  -1.012     0.1947E-2  -.9618   
  13.89     0.3573E-3  -1.012     0.1991E-2  -.9614   
  13.91     0.3563E-3  -1.012     0.2036E-2  -.9610   
  13.93     0.3554E-3  -1.012     0.2083E-2  -.9606   
  13.95     0.3548E-3  -1.012     0.2131E-2  -.9602   
  13.97     0.3545E-3  -1.012     0.2181E-2  -.9598   
  13.99     0.3545E-3  -1.012     0.2233E-2  -.9593   
  14.01     0.3548E-3  -1.012     0.2287E-2  -.9589   
  14.03     0.3554E-3  -1.011     0.2343E-2  -.9584   
  14.05     0.3565E-3  -1.011     0.2400E-2  -.9580   
  14.07     0.3581E-3  -1.011     0.2460E-2  -.9575   
  14.09     0.3603E-3  -1.011     0.2522E-2  -.9570   
  14.11     0.3631E-3  -1.011     0.2587E-2  -.9565   
  14.13     0.3666E-3  -1.011     0.2654E-2  -.9560   
  14.15     0.3710E-3  -1.011     0.2724E-2  -.9554   
  14.17     0.3765E-3  -1.011     0.2796E-2  -.9549   
  14.19     0.3832E-3  -1.011     0.2872E-2  -.9543   
  14.21     0.3914E-3  -1.011     0.2950E-2  -.9537   
  14.23     0.4014E-3  -1.011     0.3032E-2  -.9531   
  14.25     0.4136E-3  -1.011     0.3117E-2  -.9525   
  14.27     0.4285E-3  -1.011     0.3206E-2  -.9519   
  14.29     0.4468E-3  -1.011     0.3299E-2  -.9513   
  14.31     0.4694E-3  -1.010     0.3396E-2  -.9506   
  14.33     0.4974E-3  -1.010     0.3497E-2  -.9499   
  14.35     0.5323E-3  -1.010     0.3603E-2  -.9492   
  14.37     0.5762E-3  -1.010     0.3714E-2  -.9485   
  14.39     0.6317E-3  -1.010     0.3829E-2  -.9477   
  14.41     0.7022E-3  -1.010     0.3951E-2  -.9470   
  14.43     0.7921E-3  -1.010     0.4078E-2  -.9462   
  14.45     0.9061E-3  -1.010     0.4211E-2  -.9454   
  14.47     0.1048E-2  -1.010     0.4351E-2  -.9445   
  14.49     0.1216E-2  -1.010     0.4499E-2  -.9436   
  14.51     0.1400E-2  -1.010     0.4653E-2  -.9427   
  14.53     0.1567E-2  -1.010     0.4816E-2  -.9418   
  14.55     0.1669E-2  -1.010     0.4988E-2  -.9408   
  14.57     0.1668E-2  -1.010     0.5169E-2  -.9398   
  14.59     0.1562E-2  -1.011     0.5360E-2  -.9388   
  14.61     0.1392E-2  -1.011     0.5561E-2  -.9377   
  14.63     0.1206E-2  -1.011     0.5775E-2  -.9366   
  14.65     0.1035E-2  -1.011     0.6000E-2  -.9355   
  14.67     0.8904E-3  -1.011     0.6240E-2  -.9343   
  14.69     0.7736E-3  -1.011     0.6494E-2  -.9330   
  14.71     0.6802E-3  -1.011     0.6763E-2  -.9317   
  14.73     0.6056E-3  -1.011     0.7050E-2  -.9304   
  14.75     0.5455E-3  -1.010     0.7355E-2  -.9289   
  14.77     0.4969E-3  -1.010     0.7681E-2  -.9275   
  14.79     0.4572E-3  -1.010     0.8029E-2  -.9259   
  14.81     0.4246E-3  -1.010     0.8400E-2  -.9243   
  14.83     0.3975E-3  -1.010     0.8798E-2  -.9227   
  14.85     0.3748E-3  -1.010     0.9225E-2  -.9209   
  14.87     0.3556E-3  -1.010     0.9684E-2  -.9191   
  14.89     0.3392E-3  -1.010     0.1018E-1  -.9172   
  14.91     0.3250E-3  -1.010     0.1071E-1  -.9151   
  14.93     0.3128E-3  -1.010     0.1129E-1  -.9130   
  14.95     0.3020E-3  -1.010     0.1191E-1  -.9108   
  14.97     0.2925E-3  -1.010     0.1258E-1  -.9084   
  14.99     0.2840E-3  -1.010     0.1332E-1  -.9059   
  15.02     0.2765E-3  -1.010     0.1412E-1  -.9033   
  15.04     0.2697E-3  -1.010     0.1499E-1  -.9005   
  15.06     0.2636E-3  -1.009     0.1595E-1  -.8976   
  15.08     0.2580E-3  -1.009     0.1700E-1  -.8945   
  15.10     0.2529E-3  -1.009     0.1815E-1  -.8911   
  15.12     0.2483E-3  -1.009     0.1943E-1  -.8876   
  15.14     0.2440E-3  -1.009     0.2084E-1  -.8838   
  15.16     0.2401E-3  -1.009     0.2242E-1  -.8798   
  15.18     0.2365E-3  -1.009     0.2418E-1  -.8755   
  15.20     0.2331E-3  -1.009     0.2615E-1  -.8709   
  15.22     0.2300E-3  -1.009     0.2836E-1  -.8659   
  15.24     0.2272E-3  -1.009     0.3087E-1  -.8605   
  15.26     0.2246E-3  -1.009     0.3371E-1  -.8547   
  15.28     0.2222E-3  -1.009     0.3697E-1  -.8484   
  15.30     0.2200E-3  -1.009     0.4070E-1  -.8416   
  15.32     0.2180E-3  -1.009     0.4501E-1  -.8342   
  15.34     0.2162E-3  -1.009     0.5003E-1  -.8262   
  15.36     0.2146E-3  -1.009     0.5591E-1  -.8174   
  15.38     0.2132E-3  -1.009     0.6285E-1  -.8077   
  15.40     0.2121E-3  -1.009     0.7110E-1  -.7972   
  15.42     0.2113E-3  -1.009     0.8100E-1  -.7857   
  15.44     0.2107E-3  -1.009     0.9299E-1  -.7731   
  15.46     0.2104E-3  -1.009     0.1077     -.7595   
  15.48     0.2105E-3  -1.009     0.1258     -.7448   
  15.50     0.2111E-3  -1.008     0.1483     -.7294   
  15.52     0.2122E-3  -1.008     0.1767     -.7137   
  15.54     0.2140E-3  -1.008     0.2126     -.6990   
  15.56     0.2167E-3  -1.008     0.2579     -.6872   
  15.58     0.2203E-3  -1.008     0.3147     -.6821   
  15.60     0.2254E-3  -1.008     0.3839     -.6900   
  15.62     0.2321E-3  -1.008     0.4628     -.7197   
  15.64     0.2411E-3  -1.008     0.5423     -.7808   
  15.66     0.2530E-3  -1.008     0.6043     -.8772   
  15.68     0.2683E-3  -1.008     0.6276     -.9983   
  15.70     0.2876E-3  -1.008     0.6025     -1.119   
  15.72     0.3105E-3  -1.008     0.5394     -1.214   
  15.74     0.3349E-3  -1.008     0.4597     -1.274   
  15.76     0.3559E-3  -1.008     0.3810     -1.302   
  15.78     0.3668E-3  -1.008     0.3123     -1.309   
  15.80     0.3628E-3  -1.008     0.2560     -1.304   
  15.82     0.3450E-3  -1.008     0.2110     -1.292   
  15.84     0.3195E-3  -1.008     0.1755     -1.277   
  15.86     0.2927E-3  -1.008     0.1474     -1.262   
  15.88     0.2683E-3  -1.008     0.1250     -1.246   
  15.90     0.2478E-3  -1.008     0.1071     -1.232   
  15.92     0.2310E-3  -1.008     0.9252E-1  -1.218   
  15.94     0.2175E-3  -1.008     0.8062E-1  -1.205   
  15.96     0.2065E-3  -1.008     0.7079E-1  -1.194   
  15.98     0.1977E-3  -1.008     0.6260E-1  -1.183   
  16.00     0.1904E-3  -1.008     0.5572E-1  -1.174   
  16.02     0.1843E-3  -1.008     0.4988E-1  -1.165   
  16.04     0.1791E-3  -1.008     0.4490E-1  -1.157   
  16.06     0.1747E-3  -1.008     0.4061E-1  -1.150   
  16.08     0.1709E-3  -1.008     0.3690E-1  -1.143   
  16.10     0.1676E-3  -1.008     0.3367E-1  -1.137   
  16.12     0.1646E-3  -1.008     0.3084E-1  -1.131   
  16.14     0.1620E-3  -1.008     0.2835E-1  -1.125   
  16.16     0.1596E-3  -1.007     0.2615E-1  -1.120   
  16.18     0.1574E-3  -1.007     0.2420E-1  -1.116   
  16.20     0.1554E-3  -1.007     0.2245E-1  -1.111   
  16.22     0.1536E-3  -1.007     0.2089E-1  -1.107   
  16.24     0.1519E-3  -1.007     0.1948E-1  -1.104   
  16.26     0.1503E-3  -1.007     0.1822E-1  -1.100   
  16.28     0.1488E-3  -1.007     0.1707E-1  -1.097   
  16.30     0.1475E-3  -1.007     0.1603E-1  -1.094   
  16.32     0.1462E-3  -1.007     0.1508E-1  -1.091   
  16.34     0.1451E-3  -1.007     0.1422E-1  -1.088   
  16.36     0.1440E-3  -1.007     0.1343E-1  -1.085   
  16.38     0.1430E-3  -1.007     0.1270E-1  -1.083   
  16.40     0.1421E-3  -1.007     0.1204E-1  -1.080   
  16.42     0.1414E-3  -1.007     0.1142E-1  -1.078   
  16.44     0.1407E-3  -1.007     0.1086E-1  -1.076   
  16.46     0.1401E-3  -1.007     0.1033E-1  -1.074   
  16.48     0.1396E-3  -1.007     0.9849E-2  -1.072   
  16.50     0.1389E-3  -1.007     0.9400E-2  -1.070   
  16.52     0.1381E-3  -1.007     0.8983E-2  -1.068   
  16.54     0.1371E-3  -1.007     0.8596E-2  -1.067   
  16.56     0.1360E-3  -1.007     0.8235E-2  -1.065   
  16.58     0.1348E-3  -1.007     0.7898E-2  -1.063   
  16.60     0.1336E-3  -1.007     0.7584E-2  -1.062   
  16.62     0.1326E-3  -1.007     0.7291E-2  -1.060   
  16.64     0.1317E-3  -1.007     0.7017E-2  -1.059   
  16.66     0.1309E-3  -1.007     0.6761E-2  -1.058   
  16.68     0.1301E-3  -1.007     0.6522E-2  -1.056   
  16.70     0.1295E-3  -1.007     0.6298E-2  -1.055   
  16.72     0.1289E-3  -1.007     0.6088E-2  -1.054   
  16.74     0.1284E-3  -1.007     0.5892E-2  -1.053   
  16.76     0.1280E-3  -1.007     0.5709E-2  -1.051   
  16.78     0.1277E-3  -1.007     0.5537E-2  -1.050   
  16.80     0.1275E-3  -1.007     0.5378E-2  -1.049   
  16.82     0.1274E-3  -1.007     0.5229E-2  -1.048   
  16.84     0.1272E-3  -1.007     0.5090E-2  -1.047   
  16.86     0.1271E-3  -1.007     0.4962E-2  -1.046   
  16.88     0.1269E-3  -1.007     0.4844E-2  -1.045   
  16.90     0.1267E-3  -1.006     0.4735E-2  -1.044   
  16.92     0.1267E-3  -1.006     0.4636E-2  -1.043   
  16.94     0.1267E-3  -1.006     0.4546E-2  -1.043   
  16.96     0.1269E-3  -1.006     0.4466E-2  -1.042   
  16.98     0.1273E-3  -1.006     0.4395E-2  -1.041   
  17.00     0.1279E-3  -1.006     0.4335E-2  -1.040   
  17.02     0.1288E-3  -1.006     0.4285E-2  -1.039   
  17.04     0.1299E-3  -1.006     0.4246E-2  -1.038   
  17.06     0.1314E-3  -1.006     0.4220E-2  -1.037   
  17.08     0.1333E-3  -1.006     0.4206E-2  -1.037   
  17.10     0.1358E-3  -1.006     0.4207E-2  -1.036   
  17.12     0.1389E-3  -1.006     0.4224E-2  -1.035   
  17.14     0.1428E-3  -1.006     0.4259E-2  -1.034   
  17.16     0.1478E-3  -1.006     0.4316E-2  -1.033   
  17.18     0.1541E-3  -1.006     0.4399E-2  -1.033   
  17.20     0.1621E-3  -1.006     0.4511E-2  -1.032   
  17.22     0.1724E-3  -1.006     0.4659E-2  -1.031   
  17.24     0.1857E-3  -1.006     0.4852E-2  -1.030   
  17.26     0.2025E-3  -1.006     0.5099E-2  -1.029   
  17.28     0.2237E-3  -1.006     0.5416E-2  -1.028   
  17.30     0.2494E-3  -1.006     0.5821E-2  -1.027   
  17.32     0.2783E-3  -1.006     0.6339E-2  -1.026   
  17.34     0.3063E-3  -1.006     0.7003E-2  -1.025   
  17.36     0.3263E-3  -1.006     0.7856E-2  -1.025   
  17.38     0.3309E-3  -1.006     0.8949E-2  -1.024   
  17.40     0.3179E-3  -1.006     0.1034E-1  -1.023   
  17.42     0.2923E-3  -1.006     0.1208E-1  -1.023   
  17.44     0.2621E-3  -1.006     0.1414E-1  -1.023   
  17.46     0.2331E-3  -1.006     0.1638E-1  -1.023   
  17.48     0.2082E-3  -1.006     0.1840E-1  -1.025   
  17.50     0.1878E-3  -1.006     0.1961E-1  -1.028   
  17.52     0.1715E-3  -1.006     0.1953E-1  -1.031   
  17.54     0.1585E-3  -1.006     0.1818E-1  -1.034   
  17.56     0.1481E-3  -1.006     0.1607E-1  -1.035   
  17.58     0.1398E-3  -1.006     0.1377E-1  -1.036   
  17.60     0.1329E-3  -1.006     0.1167E-1  -1.036   
  17.62     0.1273E-3  -1.006     0.9898E-2  -1.036   
  17.64     0.1226E-3  -1.006     0.8469E-2  -1.035   
  17.66     0.1186E-3  -1.006     0.7335E-2  -1.034   
  17.68     0.1152E-3  -1.006     0.6437E-2  -1.034   
  17.70     0.1123E-3  -1.006     0.5725E-2  -1.033   
  17.72     0.1097E-3  -1.006     0.5157E-2  -1.032   
  17.74     0.1075E-3  -1.006     0.4699E-2  -1.031   
  17.76     0.1055E-3  -1.006     0.4328E-2  -1.030   
  17.78     0.1038E-3  -1.006     0.4026E-2  -1.030   
  17.80     0.1022E-3  -1.006     0.3779E-2  -1.029   
  17.82     0.1007E-3  -1.006     0.3576E-2  -1.028   
  17.84     0.9941E-4  -1.006     0.3409E-2  -1.028   
  17.86     0.9822E-4  -1.006     0.3274E-2  -1.027   
  17.88     0.9711E-4  -1.006     0.3164E-2  -1.027   
  17.90     0.9610E-4  -1.006     0.3078E-2  -1.026   
  17.92     0.9516E-4  -1.006     0.3013E-2  -1.025   
  17.94     0.9429E-4  -1.006     0.2967E-2  -1.025   
  17.96     0.9349E-4  -1.006     0.2939E-2  -1.024   
  17.98     0.9275E-4  -1.005     0.2929E-2  -1.024   
  18.00     0.9206E-4  -1.005     0.2938E-2  -1.023   
  18.02     0.9143E-4  -1.005     0.2965E-2  -1.023   
  18.04     0.9086E-4  -1.005     0.3012E-2  -1.022   
  18.06     0.9034E-4  -1.005     0.3081E-2  -1.021   
  18.08     0.8989E-4  -1.005     0.3176E-2  -1.021   
  18.10     0.8949E-4  -1.005     0.3299E-2  -1.020   
  18.12     0.8914E-4  -1.005     0.3457E-2  -1.020   
  18.14     0.8884E-4  -1.005     0.3656E-2  -1.019   
  18.16     0.8855E-4  -1.005     0.3905E-2  -1.018   
  18.18     0.8827E-4  -1.005     0.4216E-2  -1.018   
  18.20     0.8802E-4  -1.005     0.4605E-2  -1.017   
  18.22     0.8784E-4  -1.005     0.5094E-2  -1.016   
  18.24     0.8771E-4  -1.005     0.5711E-2  -1.016   
  18.26     0.8763E-4  -1.005     0.6493E-2  -1.015   
  18.28     0.8752E-4  -1.005     0.7489E-2  -1.014   
  18.30     0.8732E-4  -1.005     0.8758E-2  -1.013   
  18.32     0.8702E-4  -1.005     0.1037E-1  -1.013   
  18.34     0.8668E-4  -1.005     0.1236E-1  -1.013   
  18.36     0.8639E-4  -1.005     0.1472E-1  -1.013   
  18.38     0.8620E-4  -1.005     0.1726E-1  -1.014   
  18.40     0.8617E-4  -1.005     0.1953E-1  -1.017   
  18.42     0.8630E-4  -1.005     0.2086E-1  -1.020   
  18.44     0.8664E-4  -1.005     0.2072E-1  -1.024   
  18.46     0.8720E-4  -1.005     0.1917E-1  -1.027   
  18.48     0.8803E-4  -1.005     0.1678E-1  -1.029   
  18.50     0.8919E-4  -1.005     0.1421E-1  -1.030   
  18.52     0.9076E-4  -1.005     0.1188E-1  -1.030   
  18.54     0.9284E-4  -1.005     0.9914E-2  -1.030   
  18.56     0.9559E-4  -1.005     0.8333E-2  -1.030   
  18.58     0.9920E-4  -1.005     0.7080E-2  -1.029   
  18.60     0.1039E-3  -1.005     0.6091E-2  -1.028   
  18.62     0.1099E-3  -1.005     0.5306E-2  -1.028   
  18.64     0.1174E-3  -1.005     0.4679E-2  -1.027   
  18.66     0.1262E-3  -1.005     0.4175E-2  -1.026   
  18.68     0.1354E-3  -1.005     0.3767E-2  -1.026   
  18.70     0.1431E-3  -1.005     0.3433E-2  -1.025   
  18.72     0.1468E-3  -1.005     0.3159E-2  -1.024   
  18.74     0.1447E-3  -1.005     0.2933E-2  -1.024   
  18.76     0.1377E-3  -1.005     0.2746E-2  -1.023   
  18.78     0.1281E-3  -1.005     0.2593E-2  -1.023   
  18.80     0.1182E-3  -1.005     0.2467E-2  -1.022   
  18.82     0.1093E-3  -1.005     0.2365E-2  -1.022   
  18.84     0.1019E-3  -1.005     0.2286E-2  -1.022   
  18.86     0.9585E-4  -1.005     0.2226E-2  -1.021   
  18.88     0.9102E-4  -1.005     0.2185E-2  -1.021   
  18.90     0.8713E-4  -1.005     0.2163E-2  -1.020   
  18.92     0.8397E-4  -1.005     0.2160E-2  -1.020   
  18.94     0.8137E-4  -1.005     0.2178E-2  -1.020   
  18.96     0.7921E-4  -1.005     0.2219E-2  -1.019   
  18.98     0.7740E-4  -1.005     0.2286E-2  -1.019   
  19.00     0.7584E-4  -1.005     0.2385E-2  -1.018   
  19.02     0.7450E-4  -1.005     0.2521E-2  -1.018   
  19.04     0.7332E-4  -1.005     0.2706E-2  -1.018   
  19.06     0.7228E-4  -1.005     0.2951E-2  -1.017   
  19.08     0.7135E-4  -1.005     0.3274E-2  -1.017   
  19.10     0.7052E-4  -1.005     0.3694E-2  -1.016   
  19.12     0.6976E-4  -1.005     0.4234E-2  -1.016   
  19.14     0.6906E-4  -1.005     0.4912E-2  -1.016   
  19.16     0.6842E-4  -1.005     0.5722E-2  -1.016   
  19.18     0.6782E-4  -1.005     0.6602E-2  -1.016   
  19.20     0.6727E-4  -1.005     0.7396E-2  -1.017   
  19.22     0.6676E-4  -1.005     0.7867E-2  -1.018   
  19.24     0.6629E-4  -1.005     0.7826E-2  -1.019   
  19.26     0.6585E-4  -1.005     0.7280E-2  -1.020   
  19.28     0.6544E-4  -1.005     0.6432E-2  -1.021   
  19.30     0.6507E-4  -1.005     0.5514E-2  -1.021   
  19.32     0.6472E-4  -1.005     0.4672E-2  -1.021   
  19.34     0.6441E-4  -1.005     0.3964E-2  -1.021   
  19.36     0.6410E-4  -1.005     0.3391E-2  -1.021   
  19.38     0.6377E-4  -1.004     0.2936E-2  -1.021   
  19.40     0.6341E-4  -1.004     0.2574E-2  -1.020   
  19.42     0.6301E-4  -1.004     0.2287E-2  -1.020   
  19.44     0.6258E-4  -1.004     0.2056E-2  -1.020   
  19.46     0.6214E-4  -1.004     0.1869E-2  -1.019   
  19.48     0.6171E-4  -1.004     0.1717E-2  -1.019   
  19.50     0.6129E-4  -1.004     0.1592E-2  -1.019   
  19.52     0.6089E-4  -1.004     0.1488E-2  -1.018   
  19.54     0.6051E-4  -1.004     0.1402E-2  -1.018   
  19.56     0.6015E-4  -1.004     0.1330E-2  -1.018   
  19.58     0.5980E-4  -1.004     0.1270E-2  -1.018   
  19.60     0.5947E-4  -1.004     0.1221E-2  -1.017   
  19.62     0.5914E-4  -1.004     0.1180E-2  -1.017   
  19.64     0.5883E-4  -1.004     0.1147E-2  -1.017   
  19.66     0.5852E-4  -1.004     0.1121E-2  -1.017   
  19.68     0.5822E-4  -1.004     0.1103E-2  -1.017   
  19.70     0.5792E-4  -1.004     0.1091E-2  -1.016   
  19.72     0.5763E-4  -1.004     0.1085E-2  -1.016   
  19.74     0.5735E-4  -1.004     0.1087E-2  -1.016   
  19.76     0.5707E-4  -1.004     0.1097E-2  -1.016   
  19.78     0.5679E-4  -1.004     0.1116E-2  -1.016   
  19.80     0.5652E-4  -1.004     0.1145E-2  -1.015   
  19.82     0.5625E-4  -1.004     0.1187E-2  -1.015   
  19.84     0.5598E-4  -1.004     0.1244E-2  -1.015   
  19.86     0.5572E-4  -1.004     0.1320E-2  -1.015   
  19.88     0.5546E-4  -1.004     0.1420E-2  -1.014   
  19.90     0.5520E-4  -1.004     0.1552E-2  -1.014   
  19.92     0.5495E-4  -1.004     0.1723E-2  -1.014   
  19.94     0.5470E-4  -1.004     0.1944E-2  -1.014   
  19.96     0.5445E-4  -1.004     0.2224E-2  -1.014   
  19.98     0.5420E-4  -1.004     0.2565E-2  -1.014   
  20.00     0.5395E-4  -1.004     0.2950E-2  -1.014   
# 
# 03/01/2017 at 15:53 YAMBO @ anomaly [start]
# 03/01/2017 at 15:53                 [end]
#  
# Timing   [Min/Max/Average]: 03s/03s/03s
#
# .-Input file : yambo.in
# | optics                       # [R OPT] Optics
# | bse                          # [R BSE] Bethe Salpeter Equation.
# | bsk                          # [R BSK] Bethe Salpeter Equation kernel
# | bss                          # [R BSS] Bethe Salpeter Equation solver
# | FFTGvecs=  9939        RL    # [FFT] Plane-waves
# | X_Threads= 1                 # [OPENMP/X] Number of threads for response functions
# | DIP_Threads= 1               # [OPENMP/X] Number of threads for dipoles
# | NonPDirs= "XYZ"              # [X/BSS] Non periodic chartesian directions (X,Y,Z,XY...)
# | BSEmod= "retarded"           # [BSE] resonant/retarded/coupling
# | BSKmod= "SEX"                # [BSE] IP/Hartree/HF/ALDA/SEX/BSfxc
# | BSSmod= "d"                  # [BSS] (h)aydock/(d)iagonalization/(i)nversion/(t)ddft`
# | BSENGexx=  437         RL    # [BSK] Exchange components
# | BSENGBlk=  619         RL    # [BSK] Screened interaction block size
# | #WehCpl                      # [BSK] eh interaction included also in coupling
# | % KfnQP_E
# |  7.600000 | 1.000000 | 1.000000 |        # [EXTQP BSK BSS] E parameters  (c/v) eV|adim|adim
# | %
# | % BEnRange
# |   0.00000 | 20.00000 | eV    # [BSS] Energy range
# | %
# | % BDmRange
# |   0.10000 |  0.10000 | eV    # [BSS] Damping range
# | %
# | BEnSteps= 1000               # [BSS] Energy steps
# | % BLongDir
# | 0.1000E-4 | 0.000    | 0.000    |        # [BSS] [cc] Electric Field
# | %
# | % BSEBands
# |    1 |  70 |                 # [BSK] Bands range
# | %
