#  __  __   ________   ___ __ __    _______   ______        
# /_/\/_/\ /_______/\ /__//_//_/\ /_______/\ /_____/\       
# \ \ \ \ \\::: _  \ \\::\| \| \ \\::: _  \ \\:::_ \ \      
#  \:\_\ \ \\::(_)  \ \\:.      \ \\::(_)  \/_\:\ \ \ \     
#   \::::_\/ \:: __  \ \\:.\-/\  \ \\::  _  \ \\:\ \ \ \    
#     \::\ \  \:.\ \  \ \\. \  \  \ \\::(_)  \ \\:\_\ \ \   
#      \__\/   \__\/\__\/ \__\/ \__\/ \_______\/ \_____\/   
#                                                           
#               Version 3.4.2 Revision 4952                 
#                http://www.yambo-code.org                  
#
# EELS @ Q(1)  [q->0 direction]:0.1000E-4  0.000     0.000   
#
#
# - Energies      are Teter 93(XC)
# - Wavefunctions are Teter 93(XC)
#
# - The Green`s function is causal -
# - Using Shifted Grids -
# - [r,Vnl] *is* included -
#
#   BSK|Identifier              :2766
#      |Dimension               :69
#      |Bands                   :1 - 70
#      |Exchange           [res]: yes
#      |Correlation        [res]: no
#      |Kernel`s coupling       : yes
#      |Exchange           [cpl]: yes
#      |W interaction is bare   : no
#      |Correlation        [cpl]: no
#      |ALDA kernel in R-space  : no
#      |RL vectors    [exchange]:123
#      |E/h energy range    [ev]:-1.000000 - -1.000000
#      |Coupling range     [o/o]: 100.0000 -  100.0000
#  
#   Haydock|Accuracy (requested) [o/o]:   0.0050
#          |Accuracy (reached)   [o/o]:0.9645E-3
#          |Iteration                 :16
#
#  E/ev[1]    eel /Im[2] eel /Re[3] eel0/Im[4] eel0/Re[5] eel`/Im[6] eel`/Re[7]
#
  0.000000   0.000000  -0.988135   0.000000  -0.983570   0.000000  -0.988135
 0.7538E-1  0.1952E-5  -.9881     0.3703E-5  -.9836     0.1952E-5  -.9881   
 0.1508     0.3904E-5  -.9881     0.7410E-5  -.9836     0.3904E-5  -.9881   
 0.2261     0.5860E-5  -.9881     0.1112E-4  -.9836     0.5860E-5  -.9881   
 0.3015     0.7819E-5  -.9881     0.1485E-4  -.9835     0.7819E-5  -.9881   
 0.3769     0.9786E-5  -.9881     0.1859E-4  -.9835     0.9786E-5  -.9881   
 0.4523     0.1176E-4  -.9881     0.2235E-4  -.9835     0.1176E-4  -.9881   
 0.5276     0.1374E-4  -.9881     0.2614E-4  -.9835     0.1374E-4  -.9881   
 0.6030     0.1573E-4  -.9881     0.2995E-4  -.9835     0.1573E-4  -.9881   
 0.6784     0.1774E-4  -.9881     0.3379E-4  -.9835     0.1774E-4  -.9881   
 0.7538     0.1976E-4  -.9881     0.3767E-4  -.9834     0.1976E-4  -.9881   
 0.8291     0.2179E-4  -.9880     0.4159E-4  -.9834     0.2179E-4  -.9880   
 0.9045     0.2384E-4  -.9880     0.4555E-4  -.9834     0.2384E-4  -.9880   
 0.9799     0.2591E-4  -.9880     0.4956E-4  -.9833     0.2591E-4  -.9880   
  1.055     0.2800E-4  -.9880     0.5362E-4  -.9833     0.2800E-4  -.9880   
  1.131     0.3012E-4  -.9880     0.5775E-4  -.9832     0.3012E-4  -.9880   
  1.206     0.3225E-4  -.9879     0.6193E-4  -.9832     0.3225E-4  -.9879   
  1.281     0.3442E-4  -.9879     0.6619E-4  -.9832     0.3442E-4  -.9879   
  1.357     0.3661E-4  -.9879     0.7051E-4  -.9831     0.3661E-4  -.9879   
  1.432     0.3883E-4  -.9879     0.7492E-4  -.9831     0.3883E-4  -.9879   
  1.508     0.4108E-4  -.9878     0.7941E-4  -.9830     0.4108E-4  -.9878   
  1.583     0.4336E-4  -.9878     0.8399E-4  -.9829     0.4336E-4  -.9878   
  1.658     0.4568E-4  -.9878     0.8867E-4  -.9829     0.4568E-4  -.9878   
  1.734     0.4804E-4  -.9877     0.9346E-4  -.9828     0.4804E-4  -.9877   
  1.809     0.5044E-4  -.9877     0.9835E-4  -.9827     0.5044E-4  -.9877   
  1.884     0.5288E-4  -.9877     0.1034E-3  -.9826     0.5288E-4  -.9877   
  1.960     0.5537E-4  -.9876     0.1085E-3  -.9826     0.5537E-4  -.9876   
  2.035     0.5791E-4  -.9876     0.1138E-3  -.9825     0.5791E-4  -.9876   
  2.111     0.6050E-4  -.9875     0.1192E-3  -.9824     0.6050E-4  -.9875   
  2.186     0.6314E-4  -.9875     0.1247E-3  -.9823     0.6314E-4  -.9875   
  2.261     0.6583E-4  -.9874     0.1305E-3  -.9822     0.6583E-4  -.9874   
  2.337     0.6859E-4  -.9874     0.1364E-3  -.9821     0.6859E-4  -.9874   
  2.412     0.7141E-4  -.9873     0.1424E-3  -.9820     0.7141E-4  -.9873   
  2.487     0.7430E-4  -.9873     0.1487E-3  -.9819     0.7430E-4  -.9873   
  2.563     0.7726E-4  -.9872     0.1552E-3  -.9818     0.7726E-4  -.9872   
  2.638     0.8029E-4  -.9872     0.1619E-3  -.9817     0.8029E-4  -.9872   
  2.714     0.8340E-4  -.9871     0.1688E-3  -.9815     0.8340E-4  -.9871   
  2.789     0.8659E-4  -.9870     0.1760E-3  -.9814     0.8659E-4  -.9870   
  2.864     0.8987E-4  -.9870     0.1834E-3  -.9813     0.8987E-4  -.9870   
  2.940     0.9324E-4  -.9869     0.1911E-3  -.9811     0.9324E-4  -.9869   
  3.015     0.9670E-4  -.9868     0.1991E-3  -.9810     0.9670E-4  -.9868   
  3.090     0.1003E-3  -.9868     0.2074E-3  -.9808     0.1003E-3  -.9868   
  3.166     0.1039E-3  -.9867     0.2161E-3  -.9807     0.1039E-3  -.9867   
  3.241     0.1077E-3  -.9866     0.2251E-3  -.9805     0.1077E-3  -.9866   
  3.317     0.1116E-3  -.9865     0.2345E-3  -.9803     0.1116E-3  -.9865   
  3.392     0.1157E-3  -.9864     0.2443E-3  -.9802     0.1157E-3  -.9864   
  3.467     0.1198E-3  -.9863     0.2545E-3  -.9800     0.1198E-3  -.9863   
  3.543     0.1241E-3  -.9862     0.2652E-3  -.9798     0.1241E-3  -.9862   
  3.618     0.1286E-3  -.9862     0.2764E-3  -.9796     0.1286E-3  -.9862   
  3.693     0.1332E-3  -.9861     0.2882E-3  -.9794     0.1332E-3  -.9861   
  3.769     0.1380E-3  -.9860     0.3005E-3  -.9791     0.1380E-3  -.9860   
  3.844     0.1429E-3  -.9858     0.3134E-3  -.9789     0.1429E-3  -.9858   
  3.920     0.1480E-3  -.9857     0.3270E-3  -.9787     0.1480E-3  -.9857   
  3.995     0.1534E-3  -.9856     0.3413E-3  -.9784     0.1534E-3  -.9856   
  4.070     0.1589E-3  -.9855     0.3564E-3  -.9781     0.1589E-3  -.9855   
  4.146     0.1647E-3  -.9854     0.3723E-3  -.9779     0.1647E-3  -.9854   
  4.221     0.1707E-3  -.9853     0.3891E-3  -.9776     0.1707E-3  -.9853   
  4.296     0.1769E-3  -.9851     0.4068E-3  -.9773     0.1769E-3  -.9851   
  4.372     0.1834E-3  -.9850     0.4256E-3  -.9770     0.1834E-3  -.9850   
  4.447     0.1902E-3  -.9848     0.4455E-3  -.9766     0.1902E-3  -.9848   
  4.523     0.1973E-3  -.9847     0.4667E-3  -.9763     0.1973E-3  -.9847   
  4.598     0.2047E-3  -.9846     0.4892E-3  -.9759     0.2047E-3  -.9846   
  4.673     0.2124E-3  -.9844     0.5132E-3  -.9756     0.2124E-3  -.9844   
  4.749     0.2205E-3  -.9842     0.5387E-3  -.9752     0.2205E-3  -.9842   
  4.824     0.2290E-3  -.9841     0.5660E-3  -.9748     0.2290E-3  -.9841   
  4.899     0.2379E-3  -.9839     0.5952E-3  -.9743     0.2379E-3  -.9839   
  4.975     0.2473E-3  -.9837     0.6265E-3  -.9739     0.2473E-3  -.9837   
  5.050     0.2571E-3  -.9835     0.6601E-3  -.9734     0.2571E-3  -.9835   
  5.126     0.2674E-3  -.9833     0.6963E-3  -.9729     0.2674E-3  -.9833   
  5.201     0.2783E-3  -.9831     0.7353E-3  -.9723     0.2783E-3  -.9831   
  5.276     0.2898E-3  -.9829     0.7774E-3  -.9718     0.2898E-3  -.9829   
  5.352     0.3019E-3  -.9827     0.8230E-3  -.9712     0.3019E-3  -.9827   
  5.427     0.3147E-3  -.9824     0.8724E-3  -.9705     0.3147E-3  -.9824   
  5.503     0.3283E-3  -.9822     0.9262E-3  -.9698     0.3283E-3  -.9822   
  5.578     0.3427E-3  -.9819     0.9849E-3  -.9691     0.3427E-3  -.9819   
  5.653     0.3579E-3  -.9817     0.1049E-2  -.9684     0.3579E-3  -.9817   
  5.729     0.3741E-3  -.9814     0.1119E-2  -.9675     0.3741E-3  -.9814   
  5.804     0.3913E-3  -.9811     0.1197E-2  -.9667     0.3913E-3  -.9811   
  5.879     0.4097E-3  -.9808     0.1282E-2  -.9657     0.4097E-3  -.9808   
  5.955     0.4292E-3  -.9805     0.1377E-2  -.9648     0.4292E-3  -.9805   
  6.030     0.4502E-3  -.9802     0.1482E-2  -.9637     0.4502E-3  -.9802   
  6.106     0.4726E-3  -.9798     0.1599E-2  -.9625     0.4726E-3  -.9798   
  6.181     0.4966E-3  -.9795     0.1730E-2  -.9613     0.4966E-3  -.9795   
  6.256     0.5224E-3  -.9791     0.1878E-2  -.9599     0.5224E-3  -.9791   
  6.332     0.5502E-3  -.9787     0.2045E-2  -.9585     0.5502E-3  -.9787   
  6.407     0.5802E-3  -.9783     0.2235E-2  -.9569     0.5802E-3  -.9783   
  6.482     0.6126E-3  -.9778     0.2453E-2  -.9551     0.6126E-3  -.9778   
  6.558     0.6477E-3  -.9773     0.2703E-2  -.9532     0.6477E-3  -.9773   
  6.633     0.6858E-3  -.9768     0.2993E-2  -.9511     0.6858E-3  -.9768   
  6.709     0.7273E-3  -.9763     0.3332E-2  -.9487     0.7273E-3  -.9763   
  6.784     0.7726E-3  -.9757     0.3731E-2  -.9461     0.7726E-3  -.9757   
  6.859     0.8222E-3  -.9751     0.4206E-2  -.9431     0.8222E-3  -.9751   
  6.935     0.8767E-3  -.9745     0.4777E-2  -.9398     0.8767E-3  -.9745   
  7.010     0.9368E-3  -.9738     0.5472E-2  -.9360     0.9368E-3  -.9738   
  7.085     0.1003E-2  -.9731     0.6329E-2  -.9317     0.1003E-2  -.9731   
  7.161     0.1077E-2  -.9723     0.7402E-2  -.9266     0.1077E-2  -.9723   
  7.236     0.1159E-2  -.9715     0.8772E-2  -.9207     0.1159E-2  -.9715   
  7.312     0.1251E-2  -.9706     0.1056E-1  -.9137     0.1251E-2  -.9706   
  7.387     0.1354E-2  -.9696     0.1295E-1  -.9052     0.1354E-2  -.9696   
  7.462     0.1470E-2  -.9685     0.1623E-1  -.8948     0.1470E-2  -.9685   
  7.538     0.1603E-2  -.9674     0.2094E-1  -.8817     0.1603E-2  -.9674   
  7.613     0.1754E-2  -.9661     0.2799E-1  -.8648     0.1754E-2  -.9661   
  7.688     0.1928E-2  -.9648     0.3921E-1  -.8425     0.1928E-2  -.9648   
  7.764     0.2130E-2  -.9632     0.5849E-1  -.8120     0.2130E-2  -.9632   
  7.839     0.2366E-2  -.9616     0.9520E-1  -.7694     0.2366E-2  -.9616   
  7.915     0.2643E-2  -.9597     0.1747     -.7135     0.2643E-2  -.9597   
  7.990     0.2974E-2  -.9576     0.3622     -.6854     0.2974E-2  -.9576   
  8.065     0.3372E-2  -.9553     0.6191     -.9330     0.3372E-2  -.9553   
  8.141     0.3857E-2  -.9526     0.4372     -1.280     0.3857E-2  -.9526   
  8.216     0.4457E-2  -.9495     0.2094     -1.289     0.4457E-2  -.9495   
  8.291     0.5212E-2  -.9460     0.1101     -1.232     0.5212E-2  -.9460   
  8.367     0.6180E-2  -.9418     0.6583E-1  -1.185     0.6180E-2  -.9418   
  8.442     0.7452E-2  -.9369     0.4329E-1  -1.152     0.7452E-2  -.9369   
    8.5176     0.0092    -0.9309     0.0305    -1.1279     0.0092    -0.9309
   8.59297    0.01157   -0.92350    0.02260   -1.10973    0.01157   -0.92350
   8.66834    0.01505   -0.91420    0.01742   -1.09572    0.01505   -0.91420
   8.74372    0.02040   -0.90215    0.01384   -1.08460    0.02040   -0.90215
   8.81910    0.02919   -0.88602    0.01128   -1.07555    0.02919   -0.88602
    8.8945     0.0450    -0.8638     0.0094    -1.0680     0.0450    -0.8638
  8.970     0.7675E-1  -.8332     0.7958E-2  -1.062     0.7675E-1  -.8332   
  9.045     0.1497     -.7992     0.6860E-2  -1.056     0.1497     -.7992   
  9.121     0.3064     -.8340     0.6008E-2  -1.052     0.3064     -.8340   
  9.196     0.3545     -1.076     0.5346E-2  -1.047     0.3545     -1.076   
  9.271     0.1870     -1.170     0.4839E-2  -1.044     0.1870     -1.170   
  9.347     0.9318E-1  -1.141     0.4471E-2  -1.040     0.9319E-1  -1.141   
  9.422     0.5360E-1  -1.107     0.4242E-2  -1.037     0.5360E-1  -1.107   
  9.497     0.3520E-1  -1.082     0.4175E-2  -1.034     0.3520E-1  -1.082   
  9.573     0.2590E-1  -1.062     0.4346E-2  -1.031     0.2590E-1  -1.062   
  9.648     0.2133E-1  -1.046     0.4946E-2  -1.028     0.2133E-1  -1.046   
  9.724     0.2003E-1  -1.032     0.6492E-2  -1.024     0.2003E-1  -1.032   
   9.79900    0.02232   -1.01891    0.01041   -1.02111    0.02232   -1.01891
   9.87437    0.03111   -1.00530    0.01805   -1.02306    0.03110   -1.00530
   9.94975    0.05472   -0.99702    0.01687   -1.03302    0.05468   -0.99701
  10.03     0.8521E-1  -1.027     0.9276E-2  -1.034     0.8521E-1  -1.027   
  10.10     0.5897E-1  -1.064     0.5603E-2  -1.031     0.5903E-1  -1.064   
  10.18     0.3054E-1  -1.061     0.4023E-2  -1.028     0.3057E-1  -1.061   
  10.25     0.1820E-1  -1.050     0.3289E-2  -1.026     0.1821E-1  -1.050   
  10.33     0.1268E-1  -1.041     0.2966E-2  -1.023     0.1268E-1  -1.041   
  10.40     0.9998E-2  -1.033     0.2917E-2  -1.021     0.9999E-2  -1.033   
  10.48     0.8764E-2  -1.027     0.3147E-2  -1.019     0.8761E-2  -1.027   
  10.55     0.8508E-2  -1.021     0.3805E-2  -1.017     0.8501E-2  -1.021   
  10.63     0.9227E-2  -1.015     0.5350E-2  -1.014     0.9213E-2  -1.015   
  10.70     0.1140E-1  -1.008     0.9099E-2  -1.012     0.1137E-1  -1.008   
  10.77890    0.01654   -1.00027    0.01726   -1.01266    0.01647   -1.00032
  10.85427    0.02898   -0.99211    0.01951   -1.02456    0.02881   -0.99213
  10.93     0.5631E-1  -.9960     0.1069E-1  -1.029     0.5603E-1  -.9957   
  11.01     0.6533E-1  -1.037     0.5786E-2  -1.026     0.6569E-1  -1.036   
  11.08     0.3563E-1  -1.052     0.3710E-2  -1.024     0.3597E-1  -1.052   
  11.16     0.1884E-1  -1.046     0.2750E-2  -1.022     0.1898E-1  -1.046   
  11.23     0.1186E-1  -1.038     0.2294E-2  -1.020     0.1191E-1  -1.038   
  11.31     0.8844E-2  -1.032     0.2140E-2  -1.019     0.8849E-2  -1.032   
  11.38     0.7759E-2  -1.026     0.2279E-2  -1.017     0.7724E-2  -1.026   
  11.46     0.8178E-2  -1.021     0.2905E-2  -1.016     0.8080E-2  -1.021   
  11.53     0.1080E-1  -1.016     0.4651E-2  -1.014     0.1056E-1  -1.016   
  11.61     0.1827E-1  -1.012     0.7623E-2  -1.016     0.1770E-1  -1.012   
  11.68     0.3024E-1  -1.020     0.6211E-2  -1.019     0.2985E-1  -1.019   
  11.76     0.2335E-1  -1.035     0.3383E-2  -1.019     0.2401E-1  -1.035   
  11.83     0.1213E-1  -1.035     0.2094E-2  -1.018     0.1249E-1  -1.035   
  11.91     0.7110E-2  -1.031     0.1521E-2  -1.017     0.7255E-2  -1.031   
  11.98     0.4886E-2  -1.028     0.1241E-2  -1.016     0.4947E-2  -1.028   
  12.06     0.3812E-2  -1.025     0.1106E-2  -1.015     0.3834E-2  -1.025   
  12.14     0.3324E-2  -1.022     0.1072E-2  -1.014     0.3319E-2  -1.023   
  12.21     0.3270E-2  -1.020     0.1152E-2  -1.014     0.3235E-2  -1.020   
  12.29     0.3775E-2  -1.018     0.1444E-2  -1.013     0.3682E-2  -1.018   
  12.36     0.5433E-2  -1.016     0.2235E-2  -1.012     0.5201E-2  -1.016   
  12.44     0.9342E-2  -1.016     0.3550E-2  -1.013     0.8918E-2  -1.015   
  12.51     0.1057E-1  -1.021     0.2882E-2  -1.014     0.1074E-1  -1.021   
  12.59     0.6078E-2  -1.023     0.1639E-2  -1.014     0.6334E-2  -1.023   
  12.66     0.3509E-2  -1.021     0.1075E-2  -1.013     0.3615E-2  -1.021   
  12.74     0.2397E-2  -1.019     0.8234E-3  -1.013     0.2441E-2  -1.020   
  12.81     0.1862E-2  -1.018     0.6990E-3  -1.012     0.1882E-2  -1.018   
  12.89     0.1584E-2  -1.017     0.6367E-3  -1.012     0.1590E-2  -1.017   
  12.96     0.1445E-2  -1.016     0.6136E-3  -1.011     0.1442E-2  -1.016   
  13.04     0.1408E-2  -1.015     0.6264E-3  -1.011     0.1392E-2  -1.015   
  13.12     0.1479E-2  -1.014     0.6871E-3  -1.011     0.1436E-2  -1.014   
  13.19     0.1681E-2  -1.013     0.8158E-3  -1.010     0.1604E-2  -1.013   
  13.27     0.2036E-2  -1.012     0.1035E-2  -1.010     0.1991E-2  -1.012   
  13.34     0.2850E-2  -1.010     0.1560E-2  -1.009     0.2847E-2  -1.010   
  13.42     0.4844E-2  -1.009     0.2856E-2  -1.009     0.4885E-2  -1.009   
  13.49     0.9330E-2  -1.009     0.4488E-2  -1.010     0.9424E-2  -1.009   
  13.57     0.1134E-1  -1.016     0.3105E-2  -1.012     0.1134E-1  -1.016   
  13.64     0.6333E-2  -1.019     0.1620E-2  -1.012     0.6300E-2  -1.019   
  13.72     0.3321E-2  -1.018     0.9739E-3  -1.011     0.3308E-2  -1.018   
  13.79     0.2035E-2  -1.016     0.6791E-3  -1.011     0.2030E-2  -1.016   
  13.87     0.1426E-2  -1.015     0.5259E-3  -1.010     0.1425E-2  -1.015   
  13.94     0.1114E-2  -1.014     0.4398E-3  -1.010     0.1115E-2  -1.014   
  14.02     0.9627E-3  -1.014     0.3926E-3  -1.010     0.9668E-3  -1.014   
  14.10     0.8308E-3  -1.013     0.3516E-3  -1.010     0.8311E-3  -1.013   
  14.17     0.6772E-3  -1.013     0.3079E-3  -1.009     0.6768E-3  -1.013   
  14.25     0.5764E-3  -1.012     0.2776E-3  -1.009     0.5762E-3  -1.012   
  14.32     0.5089E-3  -1.012     0.2558E-3  -1.009     0.5088E-3  -1.012   
  14.40     0.4591E-3  -1.012     0.2388E-3  -1.009     0.4591E-3  -1.012   
  14.47     0.4201E-3  -1.011     0.2249E-3  -1.009     0.4201E-3  -1.011   
  14.55     0.3883E-3  -1.011     0.2131E-3  -1.008     0.3883E-3  -1.011   
  14.62     0.3617E-3  -1.011     0.2029E-3  -1.008     0.3616E-3  -1.011   
  14.70     0.3389E-3  -1.010     0.1939E-3  -1.008     0.3389E-3  -1.010   
  14.77     0.3191E-3  -1.010     0.1858E-3  -1.008     0.3191E-3  -1.010   
  14.85     0.3017E-3  -1.010     0.1786E-3  -1.008     0.3017E-3  -1.010   
  14.92     0.2862E-3  -1.010     0.1720E-3  -1.008     0.2862E-3  -1.010   
  15.00     0.2722E-3  -1.009     0.1659E-3  -1.008     0.2722E-3  -1.009   
# 
# YAMBO@anomaly x 001 CPUs * 11/19/2015  17:01 [start]
#                            11/19/2015  17:01 [end]
# 
# Cpu Timing [Min/Max/Average]: 02s/02s/02s
#
# .-Input file : yambo.in
# | optics                       # [R OPT] Optics
# | bse                          # [R BSE] Bethe Salpeter Equation.
# | bsk                          # [R BSK] Bethe Salpeter Equation kernel
# | bss                          # [R BSS] Bethe Salpeter Equation solver
# | BoseTemp= 0.000000     eV    # Bosonic Temperature
# | FFTGvecs=  9939        RL    # [FFT] Plane-waves
# | NonPDirs= "XYZ"              # [X/BSS] Non periodic chartesian directions (X,Y,Z,XY...)
# | BSEmod= "coupling"           # [BSE] resonant/causal/coupling
# | BSKmod= "Hartree"            # [BSE] IP/Hartree/HF/ALDA/SEX/BSfxc
# | BSSmod= "dh"                 # [BSS] (h)aydock/(d)iagonalization/(i)nversion/(t)ddft`
# | BSENGexx= 123          RL    # [BSK] Exchange components
# | % BEnRange
# |   0.00000 | 15.00000 | eV    # [BSS] Energy range
# | %
# | % BDmRange
# |   0.10000 |  0.10000 | eV    # [BSS] Damping range
# | %
# | BEnSteps= 200                # [BSS] Energy steps
# | % BLongDir
# | 0.1000E-4 | 0.000    | 0.000    |        # [BSS] [cc] Electric Field
# | %
# | % BSEBands
# |    1 |  70 |                 # [BSK] Bands range
# | %
# | BSHayTrs=   0.0050           # [BSS] [o/o] Haydock treshold. Strict(>0)/Average(<0)
