#                                                           
#  **    **    **     ****     ****  ******     *******     
# //**  **    ****   /**/**   **/** /*////**   **/////**    
#  //****    **//**  /**//** ** /** /*   /**  **     //**   
#   //**    **  //** /** //***  /** /******  /**      /**   
#    /**   **********/**  //*   /** /*//// **/**      /**   
#    /**  /**//////**/**   /    /** /*    /**//**     **    
#    /**  /**     /**/**        /** /*******  //*******     
#    //   //      // //         //  ///////    ///////      
#                                                           
#        Version 4.2.0 Revision 14544 Hash 1911cc9          
#                      MPI+SLK Build                        
#                http://www.yambo-code.org                  
#
# Absorption @ Q(1) [q->0 direction] :0.1000E-4  0.000     0.000   
#
#
# - Energies      are  E < 08_cohsex_eq/ndb.QP + Fitted E
# - Wavefunctions are Slater exchange(X)+Perdew & Zunger(C)
#
# - The Green`s function is Retarded -
# - Using the Length Gauge -
# - [r,Vnl] *is* included -
#
#   BSK|Identifier              :5436
#      |Dimension               :100
#      |Bands                   :2 - 7
#      |Exchange           [res]: yes
#      |Correlation        [res]: yes
#      |Kernel`s coupling       : no
#      |Exchange           [cpl]: no
#      |Correlation        [cpl]: no
#      |W interaction is bare   : no
#      |ALDA kernel in R-space  : no
#      |RL vectors    [exchange]:531
#      |RL vectors [correlation]:59
#      |E/h energy range    [ev]:-1.000000 - -1.000000
#      |Coupling range     [o/o]: 100.0000 -  100.0000
#    W |Interaction is diagonal : no
#      |Matrix size             :59
#      |Bands                   :1 - 8
#      |e/h energy range    [ev]:-1.000000 - -1.000000
#      |Poles              [o/o]: 100.0000
#      |RL vectors in the sum   :387
#      |[r,Vnl] included        : yes
#      |Field direction         :0.1000E-4  0.000000  0.000000
#      |Coulomb Cutoff          :none
#      |xc-Kernel               :none
#   RIM|RL components      [col]:0
#      |Random points      [col]:0
#  
#   Haydock|Accuracy (requested) [o/o]:  0.02000
#          |Accuracy (reached)   [o/o]:  0.01382
#          |Iteration                 :35
#
#    E/ev[1]      EPS-Im[2]    EPS-Re[3]    EPSo-Im[4]   EPSo-Re[5]   EPS`-Im[6]   EPS`-Re[7]
#
     0.00000      0.00000     28.26827      0.00000     24.15086      0.00000     28.26827
   0.2004E-1    0.6973E-2     28.27       0.4279E-2     24.15       0.6973E-2     28.27   
   0.4008E-1    0.1395E-1     28.27       0.8559E-2     24.15       0.1395E-1     28.27   
   0.6012E-1    0.2093E-1     28.27       0.1284E-1     24.15       0.2093E-1     28.27   
   0.8016E-1    0.2791E-1     28.28       0.1713E-1     24.16       0.2791E-1     28.28   
   0.1002       0.3491E-1     28.29       0.2142E-1     24.16       0.3491E-1     28.29   
   0.1202       0.4191E-1     28.29       0.2571E-1     24.17       0.4191E-1     28.29   
     0.14028      0.04893     28.30246      0.03001     24.17185      0.04893     28.30246
     0.16032      0.05597     28.31294      0.03432     24.17828      0.05597     28.31294
     0.18036      0.06302     28.32483      0.03863     24.18557      0.06302     28.32483
     0.20040      0.07010     28.33813      0.04296     24.19374      0.07010     28.33813
     0.22044      0.07719     28.35285      0.04729     24.20276      0.07719     28.35285
     0.24048      0.08431     28.36899      0.05164     24.21266      0.08431     28.36899
     0.26052      0.09146     28.38656      0.05599     24.22342      0.09146     28.38656
     0.28056      0.09864     28.40555      0.06037     24.23505      0.09864     28.40555
     0.30060      0.10584     28.42599      0.06475     24.24756      0.10584     28.42599
     0.32064      0.11309     28.44786      0.06915     24.26096      0.11309     28.44786
     0.34068      0.12037     28.47119      0.07357     24.27523      0.12037     28.47119
     0.36072      0.12769     28.49598      0.07800     24.29038      0.12769     28.49598
     0.38076      0.13505     28.52223      0.08246     24.30643      0.13505     28.52223
     0.40080      0.14245     28.54996      0.08693     24.32337      0.14245     28.54996
     0.42084      0.14990     28.57917      0.09142     24.34120      0.14990     28.57917
     0.44088      0.15740     28.60988      0.09594     24.35994      0.15740     28.60988
     0.46092      0.16495     28.64209      0.10048     24.37959      0.16495     28.64209
     0.48096      0.17256     28.67581      0.10504     24.40012      0.17256     28.67581
     0.50100      0.18023     28.71107      0.10963     24.42159      0.18023     28.71107
     0.52104      0.18795     28.74785      0.11425     24.44398      0.18795     28.74785
     0.54108      0.19574     28.78619      0.11889     24.46730      0.19574     28.78619
     0.56112      0.20359     28.82609      0.12356     24.49154      0.20359     28.82609
     0.58116      0.21152     28.86757      0.12826     24.51673      0.21152     28.86757
     0.60120      0.21951     28.91063      0.13300     24.54285      0.21951     28.91063
     0.62124      0.22758     28.95530      0.13776     24.56992      0.22758     28.95530
     0.64128      0.23573     29.00159      0.14257     24.59795      0.23573     29.00159
     0.66132      0.24396     29.04952      0.14740     24.62695      0.24396     29.04952
     0.68136      0.25227     29.09909      0.15228     24.65692      0.25227     29.09909
     0.70140      0.26067     29.15034      0.15719     24.68785      0.26067     29.15034
     0.72144      0.26917     29.20327      0.16214     24.71978      0.26917     29.20327
     0.74148      0.27776     29.25791      0.16713     24.75270      0.27776     29.25791
     0.76152      0.28644     29.31428      0.17217     24.78663      0.28644     29.31428
     0.78156      0.29523     29.37238      0.17725     24.82157      0.29523     29.37238
     0.80160      0.30413     29.43226      0.18237     24.85753      0.30413     29.43226
     0.82164      0.31313     29.49392      0.18755     24.89451      0.31313     29.49392
     0.84168      0.32225     29.55739      0.19277     24.93253      0.32225     29.55739
     0.86172      0.33149     29.62269      0.19804     24.97161      0.33149     29.62269
     0.88176      0.34085     29.68985      0.20336     25.01174      0.34085     29.68985
     0.90180      0.35034     29.75889      0.20874     25.05294      0.35034     29.75889
     0.92184      0.35996     29.82984      0.21417     25.09522      0.35996     29.82984
     0.94188      0.36972     29.90272      0.21966     25.13858      0.36972     29.90272
     0.96192      0.37961     29.97756      0.22521     25.18306      0.37961     29.97756
     0.98196      0.38965     30.05440      0.23082     25.22865      0.38965     30.05440
     1.00200      0.39985     30.13325      0.23649     25.27538      0.39985     30.13325
     1.02204      0.41019     30.21414      0.24223     25.32322      0.41019     30.21414
     1.04208      0.42070     30.29712      0.24803     25.37223      0.42070     30.29712
     1.06212      0.43138     30.38222      0.25390     25.42241      0.43138     30.38222
     1.08216      0.44223     30.46946      0.25984     25.47377      0.44223     30.46946
     1.10220      0.45326     30.55888      0.26586     25.52632      0.45326     30.55888
     1.12224      0.46447     30.65052      0.27195     25.58008      0.46447     30.65052
     1.14228      0.47588     30.74441      0.27812     25.63507      0.47588     30.74441
     1.16232      0.48748     30.84060      0.28437     25.69129      0.48748     30.84060
     1.18236      0.49928     30.93913      0.29070     25.74878      0.49928     30.93913
     1.20240      0.51130     31.04003      0.29712     25.80753      0.51130     31.04003
     1.22244      0.52354     31.14334      0.30362     25.86758      0.52354     31.14334
     1.24248      0.53600     31.24912      0.31021     25.92892      0.53600     31.24912
     1.26252      0.54870     31.35741      0.31690     25.99161      0.54870     31.35741
     1.28257      0.56164     31.46825      0.32368     26.05563      0.56164     31.46825
     1.30261      0.57483     31.58170      0.33056     26.12102      0.57483     31.58170
     1.32265      0.58828     31.69780      0.33754     26.18779      0.58828     31.69780
     1.34269      0.60200     31.81660      0.34462     26.25595      0.60200     31.81660
     1.36273      0.61600     31.93817      0.35181     26.32556      0.61600     31.93817
     1.38277      0.63029     32.06256      0.35912     26.39661      0.63029     32.06256
     1.40281      0.64487     32.18982      0.36653     26.46912      0.64487     32.18982
     1.42285      0.65976     32.32001      0.37406     26.54314      0.65976     32.32001
     1.44289      0.67497     32.45321      0.38172     26.61866      0.67497     32.45321
     1.46293      0.69052     32.58946      0.38949     26.69571      0.69052     32.58946
     1.48297      0.70640     32.72885      0.39740     26.77434      0.70640     32.72885
     1.50301      0.72265     32.87143      0.40544     26.85456      0.72265     32.87143
     1.52305      0.73926     33.01728      0.41361     26.93640      0.73926     33.01728
     1.54309      0.75625     33.16647      0.42193     27.01989      0.75625     33.16647
     1.56313      0.77364     33.31909      0.43039     27.10504      0.77364     33.31909
     1.58317      0.79144     33.47520      0.43899     27.19190      0.79144     33.47520
     1.60321      0.80967     33.63490      0.44775     27.28049      0.80967     33.63490
     1.62325      0.82833     33.79827      0.45667     27.37084      0.82833     33.79827
     1.64329      0.84746     33.96540      0.46575     27.46299      0.84746     33.96540
     1.66333      0.86707     34.13638      0.47501     27.55696      0.86707     34.13638
     1.68337      0.88716     34.31130      0.48443     27.65280      0.88716     34.31130
     1.70341      0.90778     34.49028      0.49403     27.75054      0.90778     34.49028
     1.72345      0.92893     34.67340      0.50382     27.85022      0.92893     34.67340
     1.74349      0.95063     34.86077      0.51380     27.95185      0.95063     34.86077
     1.76353      0.97291     35.05252      0.52397     28.05551      0.97291     35.05252
     1.78357      0.99579     35.24875      0.53435     28.16120      0.99579     35.24875
     1.80361      1.01929     35.44960      0.54494     28.26898      1.01929     35.44960
     1.82365      1.04344     35.65516      0.55574     28.37890      1.04344     35.65516
     1.84369      1.06828     35.86559      0.56677     28.49100      1.06828     35.86559
     1.86373      1.09381     36.08102      0.57803     28.60532      1.09381     36.08102
     1.88377      1.12008     36.30159      0.58952     28.72189      1.12008     36.30159
     1.90381      1.14711     36.52745      0.60127     28.84079      1.14711     36.52745
     1.92385      1.17494     36.75875      0.61326     28.96205      1.17494     36.75875
     1.94389      1.20360     36.99565      0.62552     29.08572      1.20360     36.99565
     1.96393      1.23313     37.23832      0.63806     29.21187      1.23313     37.23832
     1.98397      1.26357     37.48693      0.65087     29.34055      1.26357     37.48693
     2.00401      1.29495     37.74166      0.66398     29.47179      1.29495     37.74166
     2.02405      1.32731     38.00271      0.67739     29.60568      1.32731     38.00271
     2.04409      1.36071     38.27027      0.69111     29.74227      1.36071     38.27027
     2.06413      1.39519     38.54455      0.70515     29.88162      1.39519     38.54455
     2.08417      1.43080     38.82577      0.71953     30.02380      1.43080     38.82577
     2.10421      1.46759     39.11415      0.73426     30.16887      1.46759     39.11415
     2.12425      1.50562     39.40993      0.74934     30.31691      1.50562     39.40993
     2.14429      1.54494     39.71336      0.76480     30.46800      1.54494     39.71336
     2.16433      1.58562     40.02469      0.78064     30.62218      1.58562     40.02469
     2.18437      1.62773     40.34420      0.79689     30.77956      1.62773     40.34420
     2.20441      1.67133     40.67218      0.81355     30.94022      1.67133     40.67218
     2.22445      1.71651     41.00893      0.83064     31.10423      1.71651     41.00893
     2.24449      1.76333     41.35476      0.84818     31.27168      1.76333     41.35476
     2.26453      1.81189     41.70999      0.86619     31.44265      1.81189     41.70999
     2.28457      1.86227     42.07499      0.88468     31.61726      1.86227     42.07499
     2.30461      1.91457     42.45009      0.90367     31.79559      1.91457     42.45009
     2.32465      1.96889     42.83571      0.92319     31.97775      1.96889     42.83571
     2.34469      2.02534     43.23224      0.94325     32.16383      2.02534     43.23224
     2.36473      2.08404     43.64011      0.96387     32.35396      2.08404     43.64011
     2.38477      2.14511     44.05975      0.98508     32.54823      2.14511     44.05975
     2.40481      2.20869     44.49165      1.00691     32.74677      2.20869     44.49165
     2.42485      2.27491     44.93630      1.02938     32.94971      2.27491     44.93630
     2.44489      2.34394     45.39425      1.05251     33.15718      2.34394     45.39425
     2.46493      2.41592     45.86602      1.07633     33.36929      2.41592     45.86602
     2.48497      2.49105     46.35224      1.10088     33.58619      2.49105     46.35224
     2.50501      2.56950     46.85350      1.12619     33.80803      2.56950     46.85350
     2.52505      2.65149     47.37049      1.15229     34.03498      2.65149     47.37049
     2.54509      2.73723     47.90388      1.17921     34.26718      2.73723     47.90388
     2.56513      2.82696     48.45446      1.20699     34.50479      2.82696     48.45446
     2.58517      2.92093     49.02298      1.23568     34.74799      2.92093     49.02298
     2.60521      3.01943     49.61029      1.26531     34.99695      3.01943     49.61029
     2.62525      3.12275     50.21731      1.29592     35.25188      3.12275     50.21731
     2.64529      3.23121     50.84496      1.32757     35.51298      3.23121     50.84496
     2.66533      3.34517     51.49427      1.36031     35.78043      3.34517     51.49427
     2.68537      3.46502     52.16632      1.39419     36.05446      3.46502     52.16632
     2.70541      3.59116     52.86229      1.42926     36.33530      3.59116     52.86229
     2.72545      3.72407     53.58340      1.46558     36.62319      3.72407     53.58340
     2.74549      3.86422     54.33098      1.50322     36.91840      3.86422     54.33098
     2.76553      4.01217     55.10646      1.54224     37.22115      4.01217     55.10646
     2.78557      4.16851     55.91136      1.58273     37.53174      4.16851     55.91136
     2.80561      4.33389     56.74733      1.62475     37.85047      4.33389     56.74733
     2.82565      4.50904     57.61613      1.66838     38.17765      4.50904     57.61613
     2.84569      4.69474     58.51966      1.71373     38.51357      4.69474     58.51966
     2.86573      4.89187     59.45998      1.76087     38.85860      4.89187     59.45998
     2.88577      5.10139     60.43929      1.80991     39.21309      5.10139     60.43929
     2.90581      5.32438     61.46002      1.86096     39.57740      5.32438     61.46002
     2.92585      5.56202     62.52474      1.91415     39.95197      5.56202     62.52474
     2.94589      5.81562     63.63629      1.96958     40.33721      5.81562     63.63629
     2.96593      6.08668     64.79773      2.02740     40.73355      6.08668     64.79773
     2.98597      6.37682     66.01238      2.08775     41.14146      6.37682     66.01238
     3.00601      6.68791     67.28391      2.15079     41.56148      6.68791     67.28391
     3.02605      7.02201     68.61625      2.21669     41.99409      7.02201     68.61625
     3.04609      7.38148     70.01380      2.28564     42.43991      7.38148     70.01380
     3.06613      7.76894     71.48129      2.35782     42.89952      7.76894     71.48129
     3.08617      8.18740     73.02398      2.43347     43.37355      8.18740     73.02398
     3.10621      8.64027     74.64761      2.51280     43.86268      8.64027     74.64761
     3.12625      9.13146     76.35858      2.59609     44.36765      9.13146     76.35858
     3.14629      9.66540     78.16389      2.68360     44.88927      9.66540     78.16389
     3.16633     10.24724     80.07135      2.77565     45.42831     10.24724     80.07135
     3.18637     10.88289     82.08959      2.87256     45.98568     10.88289     82.08959
     3.20641     11.57921     84.22825      2.97470     46.56237     11.57921     84.22825
     3.22645     12.34419     86.49802      3.08248     47.15936     12.34419     86.49802
     3.24649     13.18715     88.91089      3.19633     47.77774     13.18715     88.91089
     3.26653     14.11910     91.48032      3.31675     48.41872     14.11910     91.48032
     3.28657     15.15297     94.22134      3.44427     49.08359     15.15297     94.22134
     3.30661     16.30420     97.15090      3.57949     49.77369     16.30420     97.15090
      3.3267      17.5912     100.2881       3.7231      50.4905      17.5912     100.2881
      3.3467      19.0361     103.6544       3.8758      51.2357      19.0361     103.6544
      3.3667      20.6657     107.2742       4.0384      52.0109      20.6657     107.2742
      3.3868      22.5128     111.1749       4.2119      52.8181      22.5128     111.1749
      3.4068      24.6174     115.3873       4.3974      53.6594      24.6174     115.3873
      3.4269      27.0293     119.9463       4.5959      54.5369      27.0293     119.9463
      3.4469      29.8106     124.8906       4.8089      55.4532      29.8106     124.8906
      3.4669      33.0394     130.2630       5.0378      56.4110      33.0394     130.2630
      3.4870      36.8150     136.1098       5.2844      57.4131      36.8150     136.1098
      3.5070      41.2646     142.4795       5.5506      58.4629      41.2646     142.4795
      3.5271      46.5529     149.4197       5.8389      59.5639      46.5529     149.4197
      3.5471      52.8940     156.9704       6.1517      60.7201      52.8940     156.9704
      3.5671      60.5688     165.1531       6.4922      61.9358      60.5688     165.1530
      3.5872      69.9453     173.9475       6.8641      63.2159      69.9453     173.9475
      3.6072      81.5031     183.2530       7.2715      64.5657      81.5031     183.2530
      3.6273      95.8538     192.8179       7.7194      65.9913      95.8537     192.8178
      3.6473     113.7363     202.1226       8.2140      67.4992     113.7360     202.1226
      3.6673     135.9420     210.2051       8.7623      69.0969     135.9415     210.2050
      3.6874     163.0661     215.4545       9.3733      70.7927     163.0651     215.4550
      3.7074     194.9747     215.5491      10.0575      72.5956     194.9733     215.5509
      3.7275     230.0623     207.9435      10.8282      74.5158     230.0619     207.9486
      3.7475     265.0527     191.2655      11.7018      76.5640     265.0588     191.2742
      3.7675     296.5756     166.6773      12.6991      78.7521     296.5962     166.6811
      3.7876     323.7348     136.7162      13.8463      81.0921     323.7654     136.6926
      3.8076     347.8078     101.7875      15.1772      83.5955     347.8089     101.7216
      3.8277     368.1766      59.2278      16.7350      86.2715     368.0939      59.1658
      3.8477     379.7021       7.3617      18.5759      89.1240     379.5640       7.4107
      3.8677     375.7690     -49.9837      20.7716      92.1459     375.7272     -49.8035
      3.8878     353.9764    -104.3376      23.4123      95.3085     354.1183    -104.1886
      3.9078     317.9594    -147.6856      26.6041      98.5449     318.1605    -147.7104
      3.9279     274.7478    -176.0783      30.4555     101.7243     274.8513    -176.2281
      3.9479     231.3092    -190.0370      35.0356     104.6249     231.2883    -190.1903
      3.9679     192.2640    -192.9092      40.2863     106.9322     192.1739    -193.0016
      3.9880     159.4740    -188.6583      45.9026     108.3331     159.3690    -188.6853
      4.0080     132.9334    -180.4877      51.3050     108.7707     132.8421    -180.4672
      4.0281     111.8079    -170.5225      55.9257     108.7180     111.7408    -170.4727
      4.0481      95.0800    -160.0145      59.7375     109.0525      95.0390    -159.9484
      4.0681      81.8288    -149.6415      63.4417     110.4373      81.8133    -149.5675
      4.0882      71.3101    -139.7408      68.0313     112.8393      71.3197    -139.6649
      4.1082      62.9563    -130.4632      74.2315     115.5841      62.9917    -130.3904
      4.1283      56.3467    -121.8650      82.1962     117.6874      56.4097    -121.8018
      4.1483      51.1761    -113.9658      91.4032     118.2637      51.2685    -113.9221
      4.1683      47.2218    -106.7879     100.8212     117.0537      47.3426    -106.7794
      4.1884      44.3054    -100.3838     109.6223     114.7532      44.4442    -100.4329
      4.2084      42.2392     -94.8484     118.0450     112.4601      42.3660     -94.9784
      4.2285      40.7584     -90.2878     127.2946     110.4969      40.8156     -90.5028
      4.2485      39.4858     -86.7125     138.4386     107.9588      39.4063     -86.9654
      4.2685      38.0331     -83.9007     151.5842     103.4015      37.7964     -84.0866
      4.2886      36.2378     -81.4204     166.1017      95.6732      35.9145     -81.4374
      4.3086      34.2770     -78.8951     181.2439      83.8258      33.9938     -78.7204
      4.3287      32.4865     -76.2406     195.7536      66.4767      32.3493     -75.9385
      4.3487      31.0989     -73.6456     206.5695      42.5278      31.1497     -73.3251
      4.3687      30.1138     -71.4097     209.1987      13.6291      30.3242     -71.1807
      4.3888      29.2851     -69.7657     201.1031     -14.8467      29.5660     -69.6988
      4.4088      28.2175     -68.7050     184.5015     -37.0020      28.4565     -68.7953
      4.4289      26.6100     -67.9090     164.6733     -50.4171      26.7364     -68.0808
      4.4489      24.4846     -66.9402     146.2097     -56.5145      24.5017     -67.1084
      4.4689      22.1300     -65.5410     131.2114     -58.3911      22.0831     -65.6618
      4.4890      19.8528     -63.7154     119.5133     -58.9082      19.7839     -63.7851
      4.5090      17.8280     -61.6036     109.5967     -59.6535      17.7605     -61.6355
     4.52906     16.10500    -59.35474     99.78941    -60.58071     16.04780    -59.36285
     4.54910     14.66597    -57.07616     89.42323    -60.59092     14.62053    -57.07068
     4.56914     13.46964    -54.83165     79.02479    -58.76395     13.43466    -54.81890
     4.58918     12.47302    -52.65408     69.50855    -55.01806     12.44656    -52.63769
     4.60922     11.63919    -50.55739     61.46672    -49.84375     11.61948    -50.53935
     4.62926     10.93891    -48.54485     55.05695    -43.82374     10.92452    -48.52620
     4.64930     10.34988    -46.61404     50.18285    -37.39476     10.33976    -46.59526
     4.66934      9.85562    -44.75971     46.66693    -30.81857      9.84904    -44.74102
     4.68938      9.44431    -42.97544     44.34351    -24.22678      9.44081    -42.95689
     4.70942      9.10793    -41.25464     43.09543    -17.67178      9.10728    -41.23622
     4.72946      8.84161    -39.59126     42.86543    -11.16444      8.84379    -39.57296
     4.74950      8.64312    -37.98053     43.65947     -4.70165      8.64828    -37.96238
     4.76954      8.51205    -36.41980     45.54971      1.71052      8.52058    -36.40196
     4.78958      8.44850    -34.90952     48.67933      8.03055      8.46096    -34.89239
     4.80962      8.45022    -33.45355     53.26659     14.14334      8.46732    -33.43799
     4.82966      8.50844    -32.05685     59.59840     19.80071      8.53080    -32.04442
     4.84970      8.60550    -30.71764     67.98923     24.53170      8.63301    -30.71077
     4.86974      8.72201    -29.41644     78.65591     27.53379      8.75297    -29.41790
     4.88978      8.85536    -28.11564     91.43970     27.62112      8.88632    -28.12714
      4.9098       9.0317     -26.7780     105.3819      23.4396       9.0587     -26.7991
      4.9299       9.2960     -25.3857     118.4858      14.1976       9.3161     -25.4142
      4.9499       9.6962     -23.9408     128.3759       0.5986       9.7081     -23.9742
      4.9699      10.2783     -22.4568     133.7919     -15.3188      10.2814     -22.4930
      4.9900      11.0912     -20.9547     135.0559     -31.8322      11.0853     -20.9919
      5.0100      12.1947     -19.4671     132.5977     -48.4166      12.1791     -19.5041
      5.0301      13.6630     -18.0519     125.9225     -64.4809      13.6368     -18.0866
      5.0501      15.5827     -16.8125     114.7799     -78.2236      15.5447     -16.8423
      5.0701      18.0343     -15.9297     100.5437     -87.6641      17.9834     -15.9499
     5.09018     21.03912    -15.69575     85.59565    -92.23427     20.97645    -15.69940
     5.11022     24.44967    -16.51728     71.84493    -92.81234     24.38091    -16.49563
     5.13026     27.79243    -18.80298     60.15611    -90.76817     27.73111    -18.74963
     5.15030     30.21388    -22.64535     50.62284    -87.27327     30.17939    -22.56428
     5.17034     30.81039    -27.45177     42.98577    -83.11636     30.81698    -27.36204
     5.19038     29.28958    -32.05076     36.89528    -78.76478     29.33412    -31.97694
     5.21042     26.23287    -35.41846     32.02563    -74.47343     26.29781    -35.37496
     5.23046     22.59339    -37.23462     28.10847    -70.37144     22.66074    -37.22098
     5.25050     19.09860    -37.75409     24.93259    -66.51790     19.15776    -37.76254
     5.27054     16.08577    -37.41016     22.33261    -62.93344     16.13299    -37.43244
     5.29058     13.62264    -36.57283     20.17766    -59.61553     13.65792    -36.60291
     5.31062     11.65479    -35.49060     18.36568    -56.54514     11.67939    -35.52472
     5.33066     10.09306    -34.31141     16.82228    -53.69460     10.10831    -34.34742
     5.35070      8.85122    -33.11698     15.49539    -51.03809      8.85811    -33.15366
     5.37074      7.85769    -31.94961     14.34394    -48.55462      7.85668    -31.98616
     5.39078      7.05685    -30.82964     13.33258    -46.22282      7.04789    -30.86527
     5.41082      6.40648    -29.76540     12.43548    -44.01774      6.38909    -29.79903
     5.43086      5.87486    -28.75941     11.63925    -41.91676      5.84833    -28.78914
     5.45090      5.43773    -27.81169     10.93762    -39.90540      5.40168    -27.83438
     5.47094      5.07550    -26.92145     10.32464    -37.97588      5.03099    -26.93254
     5.49098      4.77061    -26.08720      9.79250    -36.12300      4.72193    -26.08149
     5.51102      4.50624    -25.30492      9.33258    -34.34135      4.46200    -25.27958
     5.53106      4.26811    -24.56599      8.93670    -32.62487      4.23889    -24.52462
     5.55110      4.04828    -23.85848      8.59781    -30.96692      4.04037    -23.81175
     5.57114      3.84601    -23.17230      8.31018    -29.36066      3.85696    -23.13203
     5.59118      3.66367    -22.50259      8.06931    -27.79936      3.68521    -22.47501
     5.61122      3.50268    -21.84844      7.87186    -26.27636      3.52683    -21.83337
     5.63126      3.36247    -21.21016      7.71548    -24.78524      3.38459    -21.20434
     5.65130      3.24128    -20.58780      7.59875    -23.31969      3.25970    -20.58777
     5.67134      3.13698    -19.98077      7.52115    -21.87356      3.15164    -19.98399
     5.69138      3.04762    -19.38799      7.48304    -20.44075      3.05903    -19.39288
     5.71142      2.97153    -18.80812      7.48575    -19.01515      2.98035    -18.81376
     5.73146      2.90739    -18.23967      7.53163    -17.59069      2.91418    -18.24557
     5.75150      2.85418    -17.68108      7.62432    -16.16115      2.85940    -17.68699
     5.77154      2.81115    -17.13085      7.76891    -14.72035      2.81514    -17.13665
     5.79158      2.77776    -16.58742      7.97242    -13.26202      2.78079    -16.59306
     5.81162      2.75371    -16.04926      8.24425    -11.78022      2.75595    -16.05476
     5.83166      2.73885    -15.51490      8.59689    -10.26965      2.74043    -15.52026
     5.85170      2.73321    -14.98281      9.04683     -8.72654      2.73423    -14.98807
     5.87174      2.73701    -14.45145      9.61559     -7.15020      2.73752    -14.45665
     5.89178      2.75065    -13.91925     10.33058     -5.54593      2.75068    -13.92443
     5.91182      2.77473    -13.38460     11.22503     -3.92981      2.77427    -13.38980
     5.93186      2.81006    -12.84580     12.33482     -2.33622      2.80910    -12.85106
     5.95190      2.85776    -12.30107     13.68790     -0.82691      2.85625    -12.30644
     5.97194      2.91925    -11.74853     15.28021      0.50494      2.91710    -11.75404
     5.99198      2.99638    -11.18621     17.03799      1.55492      2.99347    -11.19189
     6.01202      3.09150    -10.61202     18.79592      2.27658      3.08766    -10.61789
     6.03206      3.20764    -10.02381     20.36067      2.77734      3.20263    -10.02986
     6.05210      3.34871     -9.41945     21.67465      3.31829      3.34218     -9.42560
     6.07214      3.51971     -8.79693     22.91724      4.13878      3.51123     -8.80304
     6.09218      3.72715     -8.15475     24.39776      5.27090      3.71610     -8.16047
     6.11222      3.97934     -7.49243     26.35988      6.52488      3.96496     -7.49710
     6.13226      4.28679     -6.81157     28.85708      7.60039      4.26815     -6.81398
     6.15230      4.66214     -6.11758     31.71480      8.24323      4.63835     -6.11560
     6.17234      5.11900     -5.42249     34.60885      8.43346      5.08975     -5.41246
     6.19238      5.66803     -4.74822     37.33051      8.48028      5.63499     -4.72461
     6.21242      6.30795     -4.12825     40.07964      8.81187      6.27725     -4.08426
     6.23246      7.01097     -3.60014     43.44499      9.57577      6.99629     -3.53152
     6.25250      7.71333     -3.17917     48.09529     10.43180      7.73482     -3.09274
     6.27254      8.33780     -2.81950     54.49477     10.58753      8.41035     -2.74012
     6.29258      8.85728     -2.40913     62.69028      8.87531      8.97341     -2.37109
     6.31262      9.33908     -1.83276     71.99799      3.89109      9.46834     -1.85721
     6.33266      9.91238     -1.04090     80.62617     -5.49110     10.02025     -1.12516
    6.353        10.71       -.5555E-1     85.82       -19.05        10.77       -.1816   
     6.37275     11.82757      1.06216     85.26163    -34.41625     11.83323      0.91623
     6.39279     13.36771      2.23027     78.90133    -48.05679     13.31104      2.08655
     6.41283     15.41940      3.33795     68.97491    -57.55356     15.29941      3.22086
     6.43287     18.07141      4.21922     58.17953    -62.60951     17.89472      4.15945
     6.45291     21.37441      4.62267     48.26957    -64.24712     21.16587      4.65708
     6.47295     25.26428      4.20646     39.92801    -63.72204     25.08240      4.36356
     6.49299     29.46685      2.61340     33.19828    -62.01047     29.40330      2.87379
     6.51303     33.48907     -0.35468     27.86669    -59.74127     33.61288     -0.09829
     6.53307     36.79417     -4.61360     23.66413    -57.28266     37.05466     -4.51091
     6.55311     38.96945     -9.91356     20.34432    -54.83947     39.19964    -10.01109
     6.57315     39.61953    -15.94520     17.70138    -52.52101     39.69648    -16.13089
     6.59319     38.33748    -22.11162     15.56533    -50.37909     38.28680    -22.24835
     6.61323     35.12903    -27.45643     13.79687    -48.42345     35.04543    -27.50501
     6.63327     30.67616    -31.19066     12.29231    -46.63135     30.61631    -31.18566
     6.65331     25.92480    -33.16574     10.98961    -44.96659     25.89524    -33.14529
     6.67335     21.55765    -33.74257      9.85896    -43.40224     21.54696    -33.72417
     6.69339     17.86230    -33.41478      8.88275    -41.92717     17.86029    -33.40226
     6.71343     14.86311    -32.58494      8.04342    -40.53903     14.86425    -32.57734
     6.73347     12.47101    -31.51813      7.32180    -39.23669     12.47290    -31.51376
     6.75351     10.57012    -30.36988      6.69926    -38.01738     10.57190    -30.36744
     6.77355      9.05389    -29.22472      6.15932    -36.87654      9.05532    -29.22337
     6.79359      7.83533    -28.12516      5.68815    -35.80865      7.83643    -28.12444
     6.81363      6.84687    -27.09022      5.27445    -34.80790      6.84768    -27.08984
     6.83367      6.03706    -26.12613      4.90900    -33.86855      6.03766    -26.12594
     6.85371      5.36708    -25.23259      4.58441    -32.98530      5.36752    -25.23251
     6.87375      4.80745    -24.40594      4.29456    -32.15316      4.80776    -24.40591
     6.89379      4.33571    -23.64113      4.03451    -31.36766      4.33595    -23.64113
     6.91383      3.93472    -22.93279      3.80014    -30.62488      3.93489    -22.93280
     6.93387      3.59111    -22.27549      3.58805    -29.92110      3.59125    -22.27551
     6.95391      3.29453    -21.66427      3.39540    -29.25318      3.29464    -21.66430
     6.97395      3.03676    -21.09450      3.21976    -28.61818      3.03684    -21.09453
     6.99399      2.81131    -20.56209      3.05911    -28.01354      2.81137    -20.56212
     7.01403      2.61293    -20.06332      2.91171    -27.43691      2.61298    -20.06334
     7.03407      2.43744    -19.59496      2.77609    -26.88622      2.43747    -19.59498
     7.05411      2.28137    -19.15407      2.65094    -26.35953      2.28140    -19.15409
     7.07415      2.14193    -18.73812      2.53518    -25.85520      2.14195    -18.73814
     7.09419      2.01677    -18.34483      2.42783    -25.37164      2.01679    -18.34484
     7.11423      1.90397    -17.97219      2.32807    -24.90748      1.90399    -17.97221
     7.13427      1.80190    -17.61841      2.23514    -24.46141      1.80191    -17.61842
     7.15431      1.70921    -17.28192      2.14842    -24.03231      1.70922    -17.28193
     7.17435      1.62474    -16.96128      2.06732    -23.61907      1.62474    -16.96128
     7.19439      1.54751    -16.65524      1.99134    -23.22077      1.54751    -16.65525
     7.21443      1.47667    -16.36266      1.92004    -22.83648      1.47668    -16.36267
     7.23447      1.41153    -16.08254      1.85301    -22.46542      1.41153    -16.08255
     7.25451      1.35144    -15.81395      1.78990    -22.10680      1.35144    -15.81396
     7.27455      1.29588    -15.55608      1.73040    -21.75995      1.29588    -15.55608
     7.29459      1.24438    -15.30816      1.67421    -21.42425      1.24438    -15.30817
     7.31463      1.19652    -15.06954      1.62107    -21.09905      1.19652    -15.06955
     7.33467      1.15196    -14.83960      1.57076    -20.78385      1.15196    -14.83961
     7.35471      1.11038    -14.61777      1.52306    -20.47812      1.11038    -14.61778
     7.37475      1.07150    -14.40356      1.47779    -20.18142      1.07150    -14.40357
     7.39479      1.03507    -14.19649      1.43477    -19.89325      1.03507    -14.19650
     7.41483      1.00089    -13.99615      1.39385    -19.61327      1.00089    -13.99616
     7.43487      0.96875    -13.80213      1.35487    -19.34103      0.96875    -13.80214
     7.45491      0.93848    -13.61410      1.31772    -19.07623      0.93848    -13.61410
     7.47495      0.90994    -13.43169      1.28226    -18.81850      0.90993    -13.43169
     7.49499      0.88297    -13.25463      1.24840    -18.56754      0.88297    -13.25463
     7.51503      0.85746    -13.08262      1.21603    -18.32305      0.85746    -13.08262
     7.53507      0.83330    -12.91541      1.18505    -18.08475      0.83330    -12.91541
     7.55511      0.81038    -12.75275      1.15539    -17.85239      0.81038    -12.75275
     7.57515      0.78861    -12.59442      1.12696    -17.62572      0.78861    -12.59441
     7.59519      0.76791    -12.44020      1.09970    -17.40452      0.76791    -12.44020
     7.61523      0.74820    -12.28992      1.07352    -17.18856      0.74820    -12.28992
     7.63527      0.72942    -12.14337      1.04838    -16.97764      0.72942    -12.14337
     7.65531      0.71150    -12.00041      1.02422    -16.77156      0.71150    -12.00041
     7.67535      0.69438    -11.86086      1.00097    -16.57016      0.69438    -11.86086
     7.69539      0.67802    -11.72458      0.97860    -16.37324      0.67802    -11.72458
     7.71543      0.66236    -11.59143      0.95706    -16.18065      0.66236    -11.59143
     7.73547      0.64736    -11.46128      0.93629    -15.99221      0.64736    -11.46128
     7.75551      0.63298    -11.33401      0.91627    -15.80781      0.63298    -11.33401
     7.77555      0.61919    -11.20949      0.89695    -15.62729      0.61919    -11.20949
     7.79559      0.60594    -11.08764      0.87830    -15.45051      0.60594    -11.08764
     7.81563      0.59321    -10.96833      0.86029    -15.27734      0.59321    -10.96833
     7.83567      0.58097    -10.85148      0.84288    -15.10769      0.58097    -10.85148
     7.85571      0.56918    -10.73699      0.82605    -14.94141      0.56918    -10.73699
     7.87575      0.55783    -10.62477      0.80978    -14.77841      0.55783    -10.62477
     7.89579      0.54690    -10.51476      0.79402    -14.61857      0.54690    -10.51475
     7.91583      0.53635    -10.40686      0.77877    -14.46181      0.53635    -10.40686
     7.93587      0.52617    -10.30100      0.76399    -14.30800      0.52617    -10.30100
     7.95591      0.51634    -10.19712      0.74968    -14.15709      0.51634    -10.19712
     7.97595      0.50684    -10.09514      0.73580    -14.00897      0.50684    -10.09514
     7.99599      0.49766     -9.99501      0.72233    -13.86355      0.49766     -9.99501
     8.01603      0.48878     -9.89666      0.70927    -13.72077      0.48878     -9.89666
     8.03607      0.48018     -9.80005      0.69660    -13.58053      0.48018     -9.80005
     8.05611      0.47186     -9.70510      0.68429    -13.44278      0.47186     -9.70510
     8.07615      0.46380     -9.61178      0.67233    -13.30743      0.46380     -9.61178
     8.09619      0.45599     -9.52002      0.66072    -13.17441      0.45599     -9.52002
     8.11623      0.44842     -9.42979      0.64943    -13.04367      0.44842     -9.42979
     8.13627      0.44107     -9.34104      0.63845    -12.91515      0.44107     -9.34104
     8.15631      0.43394     -9.25372      0.62777    -12.78876      0.43394     -9.25372
     8.17635      0.42701     -9.16780      0.61739    -12.66448      0.42701     -9.16780
     8.19639      0.42029     -9.08323      0.60728    -12.54223      0.42029     -9.08323
     8.21643      0.41376     -8.99997      0.59744    -12.42196      0.41376     -8.99997
     8.23647      0.40741     -8.91799      0.58785    -12.30362      0.40741     -8.91799
     8.25651      0.40123     -8.83726      0.57852    -12.18716      0.40123     -8.83726
     8.27655      0.39523     -8.75773      0.56943    -12.07253      0.39523     -8.75773
     8.29659      0.38939     -8.67938      0.56057    -11.95969      0.38939     -8.67938
     8.31663      0.38370     -8.60217      0.55193    -11.84859      0.38370     -8.60217
     8.33667      0.37816     -8.52608      0.54350    -11.73919      0.37816     -8.52608
     8.35671      0.37277     -8.45108      0.53529    -11.63143      0.37277     -8.45108
     8.37675      0.36752     -8.37713      0.52728    -11.52530      0.36752     -8.37713
     8.39679      0.36240     -8.30422      0.51946    -11.42073      0.36240     -8.30422
     8.41683      0.35742     -8.23230      0.51183    -11.31772      0.35742     -8.23230
     8.43687      0.35256     -8.16137      0.50438    -11.21619      0.35256     -8.16137
     8.45691      0.34782     -8.09140      0.49711    -11.11613      0.34782     -8.09140
     8.47695      0.34319     -8.02235      0.49001    -11.01750      0.34319     -8.02235
     8.49699      0.33868     -7.95422      0.48308    -10.92028      0.33868     -7.95422
     8.51703      0.33428     -7.88696      0.47631    -10.82441      0.33428     -7.88696
     8.53707      0.32999     -7.82058      0.46969    -10.72988      0.32999     -7.82058
     8.55711      0.32580     -7.75504      0.46322    -10.63665      0.32580     -7.75504
     8.57715      0.32171     -7.69033      0.45690    -10.54470      0.32171     -7.69033
     8.59719      0.31771     -7.62642      0.45073    -10.45399      0.31771     -7.62642
     8.61723      0.31381     -7.56329      0.44469    -10.36449      0.31381     -7.56329
     8.63727      0.31000     -7.50094      0.43878    -10.27619      0.31000     -7.50094
     8.65731      0.30628     -7.43934      0.43301    -10.18906      0.30628     -7.43934
     8.67735      0.30265     -7.37847      0.42736    -10.10306      0.30265     -7.37847
     8.69739      0.29910     -7.31831      0.42184    -10.01817      0.29910     -7.31831
    8.717434     0.295635    -7.258852     0.416439    -9.934380     0.295635    -7.258852
    8.737474     0.292248    -7.200079     0.411155    -9.851645     0.292248    -7.200079
    8.757514     0.288939    -7.141974     0.405985    -9.769958     0.288939    -7.141974
    8.777555     0.285706    -7.084522     0.400926    -9.689289     0.285706    -7.084522
    8.797595     0.282548    -7.027707     0.395977    -9.609623     0.282548    -7.027707
    8.817636     0.279463    -6.971513     0.391133    -9.530931     0.279463    -6.971513
    8.837675     0.276449    -6.915930     0.386394    -9.453196     0.276449    -6.915929
    8.857716     0.273505    -6.860940     0.381756    -9.376395     0.273505    -6.860940
    8.877755     0.270629    -6.806533     0.377218    -9.300511     0.270629    -6.806533
    8.897796     0.267821    -6.752691     0.372777    -9.225521     0.267821    -6.752691
    8.917835     0.265079    -6.699405     0.368431    -9.151410     0.265079    -6.699405
    8.937876     0.262402    -6.646659     0.364179    -9.078163     0.262402    -6.646659
    8.957915     0.259789    -6.594443     0.360018    -9.005752     0.259789    -6.594443
    8.977956     0.257239    -6.542742     0.355947    -8.934161     0.257239    -6.542742
    8.997995     0.254751    -6.491545     0.351965    -8.863375     0.254751    -6.491545
    9.018035     0.252325    -6.440841     0.348069    -8.793379     0.252326    -6.440841
    9.038075     0.249961    -6.390613     0.344259    -8.724144     0.249961    -6.390613
    9.058115     0.247656    -6.340854     0.340534    -8.655671     0.247656    -6.340855
    9.078156     0.245412    -6.291548     0.336892    -8.587934     0.245412    -6.291548
    9.098196     0.243227    -6.242688     0.333332    -8.520912     0.243227    -6.242688
    9.118237     0.241102    -6.194256     0.329854    -8.454601     0.241102    -6.194256
    9.138276     0.239036    -6.146247     0.326457    -8.388972     0.239036    -6.146247
    9.158317     0.237029    -6.098645     0.323139    -8.324018     0.237029    -6.098645
    9.178356     0.235082    -6.051440     0.319902    -8.259719     0.235082    -6.051440
    9.198397     0.233194    -6.004619     0.316743    -8.196060     0.233194    -6.004619
    9.218436     0.231366    -5.958172     0.313665    -8.133026     0.231366    -5.958172
    9.238477     0.229599    -5.912084     0.310665    -8.070598     0.229599    -5.912084
    9.258516     0.227892    -5.866347     0.307744    -8.008776     0.227892    -5.866347
    9.278557     0.226247    -5.820946     0.304903    -7.947518     0.226247    -5.820947
    9.298596     0.224665    -5.775872     0.302143    -7.886830     0.224665    -5.775872
    9.318637     0.223146    -5.731109     0.299463    -7.826681     0.223146    -5.731109
    9.338676     0.221693    -5.686647     0.296866    -7.767072     0.221693    -5.686647
    9.358717     0.220306    -5.642472     0.294352    -7.707973     0.220306    -5.642473
    9.378757     0.218987    -5.598573     0.291923    -7.649374     0.218987    -5.598573
    9.398798     0.217738    -5.554933     0.289580    -7.591257     0.217738    -5.554933
    9.418838     0.216562    -5.511541     0.287326    -7.533603     0.216562    -5.511541
    9.438877     0.215461    -5.468382     0.285164    -7.476397     0.215461    -5.468383
    9.458918     0.214438    -5.425440     0.283097    -7.419619     0.214438    -5.425440
    9.478957     0.213497    -5.382703     0.281127    -7.363255     0.213497    -5.382703
    9.498998     0.212640    -5.340150     0.279260    -7.307281     0.212640    -5.340150
    9.519037     0.211872    -5.297769     0.277501    -7.251680     0.211872    -5.297769
    9.539078     0.211198    -5.255542     0.275854    -7.196430     0.211198    -5.255542
    9.559117     0.210623    -5.213448     0.274325    -7.141511     0.210623    -5.213448
    9.579158     0.210153    -5.171469     0.272924    -7.086898     0.210153    -5.171469
    9.599197     0.209795    -5.129588     0.271657    -7.032568     0.209795    -5.129589
    9.619238     0.209556    -5.087778     0.270534    -6.978498     0.209556    -5.087779
    9.639277     0.209445    -5.046021     0.269568    -6.924657     0.209445    -5.046021
    9.659318     0.209472    -5.004289     0.268770    -6.871018     0.209472    -5.004289
    9.679358     0.209647    -4.962557     0.268156    -6.817549     0.209646    -4.962558
    9.699399     0.209983    -4.920797     0.267744    -6.764217     0.209982    -4.920798
    9.719439     0.210494    -4.878979     0.267553    -6.710986     0.210493    -4.878980
    9.739479     0.211196    -4.837068     0.267609    -6.657810     0.211196    -4.837069
    9.759519     0.212108    -4.795032     0.267938    -6.604650     0.212108    -4.795033
    9.779559     0.213252    -4.752828     0.268574    -6.551458     0.213251    -4.752829
    9.799599     0.214650    -4.710417     0.269557    -6.498182     0.214649    -4.710418
    9.819639     0.216333    -4.667751     0.270932    -6.444762     0.216331    -4.667752
    9.839679     0.218332    -4.624777     0.272756    -6.391130     0.218330    -4.624779
    9.859718     0.220685    -4.581443     0.275095    -6.337216     0.220683    -4.581444
    9.879759     0.223439    -4.537679     0.278030    -6.282936     0.223436    -4.537681
    9.899798     0.226644    -4.493424     0.281660    -6.228199     0.226640    -4.493426
    9.919839     0.230363    -4.448595     0.286105    -6.172903     0.230359    -4.448596
    9.939879     0.234670    -4.403111     0.291513    -6.116936     0.234665    -4.403112
    9.959920     0.239654    -4.356869     0.298069    -6.060161     0.239647    -4.356872
    9.979959     0.245420    -4.309769     0.306004    -6.002439     0.245411    -4.309772
    10.00000      0.25210     -4.26169      0.31561     -5.94361      0.25209     -4.26169
# 
# 05/18/2017 at 16:42 YAMBO_RT @ anomaly [start]
# 05/18/2017 at 16:42                    [end]
#  
# Timing   [Min/Max/Average]: 04s/04s/04s
#
# .-Input file : INPUTS/09_bse_10fs_Ronly
# | optics                         # [R OPT] Optics
# | bse                            # [R BSE] Bethe Salpeter Equation.
# | bsk                            # [R BSK] Bethe Salpeter Equation kernel
# | bss                            # [R BSS] Bethe Salpeter Equation solver
# | em1s                           # [R Xs] Static Inverse Dielectric Matrix
# | BoseTemp= 0.000000     eV      # Bosonic Temperature
# | FFTGvecs=  387         RL      # [FFT] Plane-waves
# | Chimod= "hartree"              # [X] IP/Hartree/ALDA/LRC/BSfxc
# | BSEmod= "retarded"             # [BSE] resonant/retarded/coupling
# | BSKmod= "SEX"                  # [BSE] IP/Hartree/HF/ALDA/SEX/BSfxc
# | BSSmod= "h"                    # [BSS] (h)aydock/(d)iagonalization/(i)nversion/(t)ddft`
# | BSENGexx=  531         RL      # [BSK] Exchange components
# | BSENGBlk=  59          RL      # [BSK] Screened interaction block size
# | #WehCpl                        # [BSK] eh interaction included also in coupling
# | KfnQPdb= "E < 08_cohsex_eq/ndb.QP" # [EXTQP BSK BSS] Database
# | RfnRTdb= "f @ 0.1 ps < 04_elel+elph_0K/ndb.RT_carriers" # [EXTRT R] Database
# | % BEnRange
# |   0.00000 | 10.00000 | eV      # [BSS] Energy range
# | %
# | % BDmRange
# |   0.10000 |  0.10000 | eV      # [BSS] Damping range
# | %
# | BEnSteps=  500                 # [BSS] Energy steps
# | % BLongDir
# | 0.1000E-4 | 0.000    | 0.000    |        # [BSS] [cc] Electric Field
# | %
# | % BSEBands
# |   2 |  7 |                     # [BSK] Bands range
# | %
# | BSHayTrs=  0.02000             # [BSS] Relative [o/o] Haydock treshold. Strict(>0)/Average(<0)
# | % BndsRnXs
# |   1 |  8 |                     # [Xs] Polarization function bands
# | %
# | NGsBlkXs=  59          RL      # [Xs] Response block size
# | GrFnTpXs= "R"                  # [Xs] Green`s function (T)ordered,(R)etarded,(r)senant,(a)ntiresonant [T, R, r, Ta, Ra]
# | % DmRngeXs
# |   0.10000 |  0.10000 | eV      # [Xs] Damping range
# | %
# | % LongDrXs
# | 0.1000E-4 | 0.000    | 0.000    |        # [Xs] [cc] Electric Field
# | %
