#                                                           
#                                                           
# Y88b    /   e           e    e      888~~\    ,88~-_      
#  Y88b  /   d8b         d8b  d8b     888   |  d888   \     
#   Y88b/   /Y88b       d888bdY88b    888 _/  88888    |    
#    Y8Y   /  Y88b     / Y88Y Y888b   888  \  88888    |    
#     Y   /____Y88b   /   YY   Y888b  888   |  Y888   /     
#    /   /      Y88b /          Y888b 888__/    `88_-~      
#                                                           
#                                                           
#       Version 4.3.0 Revision 15185 Hash 3effa9d           
#                  MPI+SLK+OpenMP Build                     
#               http://www.yambo-code.org                   
#
# EELS @ Q(1)  [q->0 direction]:0.5774E-5 0.5774E-5 0.5774E-5
#
#
# - Energies      are  Analyt. E
# - Wavefunctions are Teter 93(XC)
#
# - The Green`s function is Retarded -
# - Using the Length Gauge -
# - [r,Vnl] *is* included -
#
#   BSK|Identifier              :4616
#      |Dimension               :32
#      |Bands                   :7 - 10
#      |Exchange           [res]: yes
#      |Correlation        [res]: yes
#      |Kernel`s coupling       : no
#      |Exchange           [cpl]: no
#      |Correlation        [cpl]: no
#      |W interaction is bare   : yes
#      |ALDA kernel in R-space  : no
#      |RL vectors    [exchange]:51
#      |RL vectors [correlation]:51
#      |E/h energy range    [ev]:-1.000000 - -1.000000
#      |Coupling range     [o/o]: 100.0000 -  100.0000
#    W |Interaction is diagonal : yes
#      |Matrix size             :0
#   RIM|RL components      [col]:0
#      |Random points      [col]:0
#
#    E/ev[1]      EEL-Im[2]    EEL-Re[3]    EELo-Im[4]   EELo-Re[5]
#
     0.00000     -0.00000     -0.05365     -0.00000     -0.30297
   0.1001E-1    0.1139E-4    -.5365E-1    0.7433E-6    -.3030   
   0.2003E-1    0.2277E-4    -.5365E-1    0.1487E-5    -.3030   
   0.3004E-1    0.3416E-4    -.5363E-1    0.2230E-5    -.3030   
   0.4005E-1    0.4555E-4    -.5362E-1    0.2973E-5    -.3030   
   0.5006E-1    0.5694E-4    -.5360E-1    0.3717E-5    -.3030   
   0.6008E-1    0.6834E-4    -.5357E-1    0.4460E-5    -.3030   
   0.7009E-1    0.7973E-4    -.5354E-1    0.5203E-5    -.3030   
   0.8010E-1    0.9113E-4    -.5351E-1    0.5947E-5    -.3030   
   0.9011E-1    0.1025E-3    -.5347E-1    0.6690E-5    -.3030   
   0.1001       0.1139E-3    -.5343E-1    0.7433E-5    -.3030   
   0.1101       0.1253E-3    -.5338E-1    0.8177E-5    -.3030   
   0.1202       0.1368E-3    -.5333E-1    0.8920E-5    -.3029   
   0.1302       0.1482E-3    -.5327E-1    0.9664E-5    -.3029   
   0.1402       0.1596E-3    -.5321E-1    0.1041E-4    -.3029   
   0.1502       0.1710E-3    -.5314E-1    0.1115E-4    -.3029   
   0.1602       0.1825E-3    -.5307E-1    0.1189E-4    -.3029   
   0.1702       0.1939E-3    -.5299E-1    0.1264E-4    -.3029   
   0.1802       0.2054E-3    -.5291E-1    0.1338E-4    -.3029   
   0.1902       0.2168E-3    -.5283E-1    0.1413E-4    -.3029   
   0.2003       0.2283E-3    -.5274E-1    0.1487E-4    -.3029   
   0.2103       0.2397E-3    -.5265E-1    0.1561E-4    -.3029   
   0.2203       0.2512E-3    -.5255E-1    0.1636E-4    -.3029   
   0.2303       0.2627E-3    -.5245E-1    0.1710E-4    -.3029   
   0.2403       0.2742E-3    -.5234E-1    0.1784E-4    -.3029   
   0.2503       0.2857E-3    -.5223E-1    0.1859E-4    -.3029   
   0.2603       0.2972E-3    -.5211E-1    0.1933E-4    -.3029   
   0.2703       0.3088E-3    -.5199E-1    0.2008E-4    -.3029   
   0.2804       0.3203E-3    -.5186E-1    0.2082E-4    -.3029   
   0.2904       0.3319E-3    -.5173E-1    0.2156E-4    -.3028   
   0.3004       0.3434E-3    -.5160E-1    0.2231E-4    -.3028   
   0.3104       0.3550E-3    -.5146E-1    0.2305E-4    -.3028   
   0.3204       0.3666E-3    -.5131E-1    0.2380E-4    -.3028   
   0.3304       0.3782E-3    -.5116E-1    0.2454E-4    -.3028   
   0.3404       0.3898E-3    -.5101E-1    0.2529E-4    -.3028   
   0.3504       0.4014E-3    -.5085E-1    0.2603E-4    -.3028   
   0.3605       0.4131E-3    -.5069E-1    0.2677E-4    -.3028   
   0.3705       0.4248E-3    -.5052E-1    0.2752E-4    -.3028   
   0.3805       0.4364E-3    -.5035E-1    0.2826E-4    -.3028   
   0.3905       0.4481E-3    -.5017E-1    0.2901E-4    -.3027   
   0.4005       0.4598E-3    -.4999E-1    0.2975E-4    -.3027   
   0.4105       0.4715E-3    -.4980E-1    0.3050E-4    -.3027   
   0.4205       0.4833E-3    -.4961E-1    0.3124E-4    -.3027   
   0.4305       0.4950E-3    -.4942E-1    0.3199E-4    -.3027   
   0.4406       0.5068E-3    -.4921E-1    0.3273E-4    -.3027   
   0.4506       0.5186E-3    -.4901E-1    0.3348E-4    -.3027   
   0.4606       0.5304E-3    -.4880E-1    0.3422E-4    -.3027   
   0.4706       0.5423E-3    -.4858E-1    0.3497E-4    -.3026   
   0.4806       0.5541E-3    -.4837E-1    0.3571E-4    -.3026   
   0.4906       0.5660E-3    -.4814E-1    0.3646E-4    -.3026   
   0.5006       0.5779E-3    -.4791E-1    0.3721E-4    -.3026   
   0.5106       0.5898E-3    -.4768E-1    0.3795E-4    -.3026   
   0.5207       0.6017E-3    -.4744E-1    0.3870E-4    -.3026   
   0.5307       0.6137E-3    -.4720E-1    0.3944E-4    -.3026   
   0.5407       0.6257E-3    -.4695E-1    0.4019E-4    -.3025   
   0.5507       0.6377E-3    -.4669E-1    0.4094E-4    -.3025   
   0.5607       0.6497E-3    -.4644E-1    0.4168E-4    -.3025   
   0.5707       0.6617E-3    -.4617E-1    0.4243E-4    -.3025   
   0.5807       0.6738E-3    -.4591E-1    0.4317E-4    -.3025   
   0.5907       0.6859E-3    -.4563E-1    0.4392E-4    -.3025   
   0.6008       0.6980E-3    -.4536E-1    0.4467E-4    -.3024   
   0.6108       0.7102E-3    -.4508E-1    0.4541E-4    -.3024   
   0.6208       0.7224E-3    -.4479E-1    0.4616E-4    -.3024   
   0.6308       0.7346E-3    -.4450E-1    0.4691E-4    -.3024   
   0.6408       0.7468E-3    -.4420E-1    0.4766E-4    -.3024   
   0.6508       0.7591E-3    -.4390E-1    0.4840E-4    -.3023   
   0.6608       0.7713E-3    -.4359E-1    0.4915E-4    -.3023   
   0.6708       0.7837E-3    -.4328E-1    0.4990E-4    -.3023   
   0.6809       0.7960E-3    -.4296E-1    0.5065E-4    -.3023   
   0.6909       0.8084E-3    -.4264E-1    0.5139E-4    -.3023   
   0.7009       0.8208E-3    -.4232E-1    0.5214E-4    -.3022   
   0.7109       0.8332E-3    -.4199E-1    0.5289E-4    -.3022   
   0.7209       0.8457E-3    -.4165E-1    0.5364E-4    -.3022   
   0.7309       0.8582E-3    -.4131E-1    0.5439E-4    -.3022   
   0.7409       0.8707E-3    -.4096E-1    0.5514E-4    -.3022   
   0.7509       0.8833E-3    -.4061E-1    0.5588E-4    -.3021   
   0.7610       0.8959E-3    -.4026E-1    0.5663E-4    -.3021   
   0.7710       0.9085E-3    -.3989E-1    0.5738E-4    -.3021   
   0.7810       0.9212E-3    -.3953E-1    0.5813E-4    -.3021   
   0.7910       0.9339E-3    -.3916E-1    0.5888E-4    -.3020   
   0.8010       0.9466E-3    -.3878E-1    0.5963E-4    -.3020   
   0.8110       0.9594E-3    -.3840E-1    0.6038E-4    -.3020   
   0.8210       0.9722E-3    -.3801E-1    0.6113E-4    -.3020   
   0.8310       0.9851E-3    -.3762E-1    0.6188E-4    -.3019   
   0.8411       0.9980E-3    -.3722E-1    0.6263E-4    -.3019   
   0.8511       0.1011E-2    -.3682E-1    0.6338E-4    -.3019   
   0.8611       0.1024E-2    -.3641E-1    0.6413E-4    -.3019   
   0.8711       0.1037E-2    -.3600E-1    0.6488E-4    -.3018   
   0.8811       0.1050E-2    -.3558E-1    0.6563E-4    -.3018   
   0.8911       0.1063E-2    -.3516E-1    0.6638E-4    -.3018   
   0.9011       0.1076E-2    -.3473E-1    0.6713E-4    -.3018   
   0.9111       0.1089E-2    -.3430E-1    0.6788E-4    -.3017   
   0.9212       0.1102E-2    -.3386E-1    0.6863E-4    -.3017   
   0.9312       0.1116E-2    -.3341E-1    0.6939E-4    -.3017   
   0.9412       0.1129E-2    -.3296E-1    0.7014E-4    -.3017   
   0.9512       0.1142E-2    -.3251E-1    0.7089E-4    -.3016   
   0.9612       0.1156E-2    -.3205E-1    0.7164E-4    -.3016   
   0.9712       0.1169E-2    -.3158E-1    0.7239E-4    -.3016   
   0.9812       0.1183E-2    -.3111E-1    0.7315E-4    -.3015   
   0.9912       0.1196E-2    -.3064E-1    0.7390E-4    -.3015   
    1.001       0.1210E-2    -.3015E-1    0.7465E-4    -.3015   
    1.011       0.1223E-2    -.2967E-1    0.7541E-4    -.3014   
    1.021       0.1237E-2    -.2918E-1    0.7616E-4    -.3014   
    1.031       0.1251E-2    -.2868E-1    0.7691E-4    -.3014   
    1.041       0.1265E-2    -.2817E-1    0.7767E-4    -.3014   
    1.051       0.1279E-2    -.2766E-1    0.7842E-4    -.3013   
    1.061       0.1292E-2    -.2715E-1    0.7917E-4    -.3013   
    1.071       0.1306E-2    -.2663E-1    0.7993E-4    -.3013   
    1.081       0.1320E-2    -.2610E-1    0.8068E-4    -.3012   
    1.091       0.1335E-2    -.2557E-1    0.8144E-4    -.3012   
    1.101       0.1349E-2    -.2503E-1    0.8219E-4    -.3012   
    1.111       0.1363E-2    -.2449E-1    0.8295E-4    -.3011   
    1.121       0.1377E-2    -.2394E-1    0.8370E-4    -.3011   
    1.131       0.1391E-2    -.2339E-1    0.8446E-4    -.3011   
    1.141       0.1406E-2    -.2283E-1    0.8521E-4    -.3010   
    1.151       0.1420E-2    -.2226E-1    0.8597E-4    -.3010   
    1.161       0.1435E-2    -.2169E-1    0.8673E-4    -.3010   
    1.171       0.1450E-2    -.2111E-1    0.8748E-4    -.3009   
    1.181       0.1464E-2    -.2053E-1    0.8824E-4    -.3009   
    1.191       0.1479E-2    -.1994E-1    0.8900E-4    -.3009   
    1.202       0.1495E-2    -.1934E-1    0.8975E-4    -.3008   
    1.212       0.1510E-2    -.1874E-1    0.9051E-4    -.3008   
    1.222       0.1525E-2    -.1814E-1    0.9127E-4    -.3007   
    1.232       0.1541E-2    -.1752E-1    0.9203E-4    -.3007   
    1.242       0.1557E-2    -.1690E-1    0.9278E-4    -.3007   
    1.252       0.1574E-2    -.1628E-1    0.9354E-4    -.3006   
    1.262       0.1592E-2    -.1564E-1    0.9430E-4    -.3006   
    1.272       0.1612E-2    -.1500E-1    0.9506E-4    -.3006   
    1.282       0.1635E-2    -.1436E-1    0.9582E-4    -.3005   
    1.292       0.1662E-2    -.1371E-1    0.9658E-4    -.3005   
    1.302       0.1692E-2    -.1307E-1    0.9734E-4    -.3004   
    1.312       0.1715E-2    -.1242E-1    0.9810E-4    -.3004   
    1.322       0.1723E-2    -.1178E-1    0.9886E-4    -.3004   
    1.332       0.1723E-2    -.1111E-1    0.9962E-4    -.3003   
    1.342       0.1727E-2    -.1043E-1    0.1004E-3    -.3003   
    1.352       0.1736E-2    -.9747E-2    0.1011E-3    -.3002   
    1.362       0.1747E-2    -.9052E-2    0.1019E-3    -.3002   
    1.372       0.1759E-2    -.8351E-2    0.1027E-3    -.3002   
    1.382       0.1773E-2    -.7645E-2    0.1034E-3    -.3001   
    1.392       0.1788E-2    -.6932E-2    0.1042E-3    -.3001   
    1.402       0.1803E-2    -.6214E-2    0.1049E-3    -.3000   
    1.412       0.1818E-2    -.5489E-2    0.1057E-3    -.3000   
    1.422       0.1834E-2    -.4757E-2    0.1065E-3    -.3000   
    1.432       0.1850E-2    -.4020E-2    0.1072E-3    -.2999   
    1.442       0.1866E-2    -.3276E-2    0.1080E-3    -.2999   
    1.452       0.1882E-2    -.2526E-2    0.1088E-3    -.2998   
    1.462       0.1898E-2    -.1769E-2    0.1095E-3    -.2998   
    1.472       0.1915E-2    -.1005E-2    0.1103E-3    -.2997   
    1.482       0.1931E-2    -.2351E-3    0.1111E-3    -.2997   
    1.492       0.1948E-2    0.5416E-3    0.1118E-3    -.2996   
    1.502       0.1965E-2    0.1325E-2    0.1126E-3    -.2996   
    1.512       0.1982E-2    0.2115E-2    0.1133E-3    -.2996   
    1.522       0.1999E-2    0.2912E-2    0.1141E-3    -.2995   
    1.532       0.2016E-2    0.3716E-2    0.1149E-3    -.2995   
    1.542       0.2033E-2    0.4527E-2    0.1156E-3    -.2994   
    1.552       0.2050E-2    0.5344E-2    0.1164E-3    -.2994   
    1.562       0.2068E-2    0.6169E-2    0.1172E-3    -.2993   
    1.572       0.2085E-2    0.7000E-2    0.1179E-3    -.2993   
    1.582       0.2103E-2    0.7839E-2    0.1187E-3    -.2992   
    1.592       0.2120E-2    0.8685E-2    0.1195E-3    -.2992   
    1.602       0.2138E-2    0.9537E-2    0.1203E-3    -.2991   
    1.612       0.2156E-2    0.1040E-1    0.1210E-3    -.2991   
    1.622       0.2174E-2    0.1126E-1    0.1218E-3    -.2990   
    1.632       0.2192E-2    0.1214E-1    0.1226E-3    -.2990   
    1.642       0.2211E-2    0.1302E-1    0.1233E-3    -.2989   
    1.652       0.2229E-2    0.1391E-1    0.1241E-3    -.2989   
    1.662       0.2247E-2    0.1481E-1    0.1249E-3    -.2988   
    1.672       0.2266E-2    0.1571E-1    0.1256E-3    -.2988   
    1.682       0.2285E-2    0.1662E-1    0.1264E-3    -.2987   
    1.692       0.2303E-2    0.1754E-1    0.1272E-3    -.2987   
    1.702       0.2322E-2    0.1847E-1    0.1279E-3    -.2986   
    1.712       0.2341E-2    0.1940E-1    0.1287E-3    -.2986   
    1.722       0.2360E-2    0.2034E-1    0.1295E-3    -.2985   
    1.732       0.2380E-2    0.2129E-1    0.1303E-3    -.2985   
    1.742       0.2399E-2    0.2225E-1    0.1310E-3    -.2984   
    1.752       0.2418E-2    0.2321E-1    0.1318E-3    -.2984   
    1.762       0.2438E-2    0.2418E-1    0.1326E-3    -.2983   
    1.772       0.2458E-2    0.2516E-1    0.1334E-3    -.2983   
    1.782       0.2478E-2    0.2615E-1    0.1341E-3    -.2982   
    1.792       0.2498E-2    0.2715E-1    0.1349E-3    -.2982   
    1.802       0.2518E-2    0.2815E-1    0.1357E-3    -.2981   
    1.812       0.2538E-2    0.2916E-1    0.1365E-3    -.2981   
    1.822       0.2558E-2    0.3018E-1    0.1372E-3    -.2980   
    1.832       0.2579E-2    0.3121E-1    0.1380E-3    -.2979   
    1.842       0.2600E-2    0.3225E-1    0.1388E-3    -.2979   
    1.852       0.2620E-2    0.3330E-1    0.1396E-3    -.2978   
    1.862       0.2641E-2    0.3435E-1    0.1403E-3    -.2978   
    1.872       0.2662E-2    0.3541E-1    0.1411E-3    -.2977   
    1.882       0.2684E-2    0.3648E-1    0.1419E-3    -.2977   
    1.892       0.2705E-2    0.3756E-1    0.1427E-3    -.2976   
    1.902       0.2726E-2    0.3865E-1    0.1434E-3    -.2976   
    1.912       0.2748E-2    0.3974E-1    0.1442E-3    -.2975   
    1.922       0.2770E-2    0.4085E-1    0.1450E-3    -.2974   
    1.932       0.2792E-2    0.4196E-1    0.1458E-3    -.2974   
    1.942       0.2814E-2    0.4308E-1    0.1466E-3    -.2973   
    1.952       0.2836E-2    0.4422E-1    0.1473E-3    -.2973   
    1.962       0.2858E-2    0.4536E-1    0.1481E-3    -.2972   
    1.972       0.2881E-2    0.4651E-1    0.1489E-3    -.2971   
    1.982       0.2904E-2    0.4766E-1    0.1497E-3    -.2971   
    1.992       0.2927E-2    0.4883E-1    0.1505E-3    -.2970   
    2.003       0.2950E-2    0.5001E-1    0.1513E-3    -.2970   
    2.013       0.2973E-2    0.5119E-1    0.1520E-3    -.2969   
    2.023       0.2996E-2    0.5239E-1    0.1528E-3    -.2968   
    2.033       0.3020E-2    0.5359E-1    0.1536E-3    -.2968   
    2.043       0.3044E-2    0.5481E-1    0.1544E-3    -.2967   
    2.053       0.3068E-2    0.5603E-1    0.1552E-3    -.2967   
    2.063       0.3092E-2    0.5726E-1    0.1560E-3    -.2966   
    2.073       0.3116E-2    0.5851E-1    0.1567E-3    -.2965   
    2.083       0.3140E-2    0.5976E-1    0.1575E-3    -.2965   
    2.093       0.3165E-2    0.6102E-1    0.1583E-3    -.2964   
    2.103       0.3190E-2    0.6229E-1    0.1591E-3    -.2963   
    2.113       0.3215E-2    0.6358E-1    0.1599E-3    -.2963   
    2.123       0.3240E-2    0.6487E-1    0.1607E-3    -.2962   
    2.133       0.3266E-2    0.6617E-1    0.1615E-3    -.2962   
    2.143       0.3291E-2    0.6748E-1    0.1623E-3    -.2961   
    2.153       0.3317E-2    0.6881E-1    0.1630E-3    -.2960   
    2.163       0.3343E-2    0.7014E-1    0.1638E-3    -.2960   
    2.173       0.3370E-2    0.7149E-1    0.1646E-3    -.2959   
    2.183       0.3396E-2    0.7284E-1    0.1654E-3    -.2958   
    2.193       0.3423E-2    0.7421E-1    0.1662E-3    -.2958   
    2.203       0.3450E-2    0.7558E-1    0.1670E-3    -.2957   
    2.213       0.3477E-2    0.7697E-1    0.1678E-3    -.2956   
    2.223       0.3505E-2    0.7837E-1    0.1686E-3    -.2956   
    2.233       0.3532E-2    0.7978E-1    0.1694E-3    -.2955   
    2.243       0.3560E-2    0.8120E-1    0.1702E-3    -.2954   
    2.253       0.3588E-2    0.8263E-1    0.1709E-3    -.2954   
    2.263       0.3617E-2    0.8407E-1    0.1717E-3    -.2953   
    2.273       0.3646E-2    0.8552E-1    0.1725E-3    -.2952   
    2.283       0.3675E-2    0.8699E-1    0.1733E-3    -.2951   
    2.293       0.3704E-2    0.8847E-1    0.1741E-3    -.2951   
    2.303       0.3734E-2    0.8996E-1    0.1749E-3    -.2950   
    2.313       0.3764E-2    0.9146E-1    0.1757E-3    -.2949   
    2.323       0.3795E-2    0.9297E-1    0.1765E-3    -.2949   
    2.333       0.3826E-2    0.9450E-1    0.1773E-3    -.2948   
    2.343       0.3858E-2    0.9603E-1    0.1781E-3    -.2947   
    2.353       0.3890E-2    0.9759E-1    0.1789E-3    -.2947   
    2.363       0.3923E-2    0.9915E-1    0.1797E-3    -.2946   
    2.373       0.3956E-2    0.1007       0.1805E-3    -.2945   
    2.383       0.3991E-2    0.1023       0.1813E-3    -.2944   
    2.393       0.4027E-2    0.1039       0.1821E-3    -.2944   
    2.403       0.4065E-2    0.1055       0.1829E-3    -.2943   
    2.413       0.4105E-2    0.1072       0.1837E-3    -.2942   
    2.423       0.4149E-2    0.1088       0.1845E-3    -.2941   
    2.433       0.4199E-2    0.1105       0.1853E-3    -.2941   
    2.443       0.4257E-2    0.1122       0.1861E-3    -.2940   
    2.453       0.4330E-2    0.1139       0.1869E-3    -.2939   
    2.463       0.4426E-2    0.1156       0.1877E-3    -.2938   
    2.473       0.4558E-2    0.1173       0.1885E-3    -.2938   
    2.483       0.4710E-2    0.1189       0.1893E-3    -.2937   
    2.493       0.4797E-2    0.1205       0.1901E-3    -.2936   
    2.503       0.4757E-2    0.1220       0.1909E-3    -.2935   
    2.513       0.4673E-2    0.1237       0.1917E-3    -.2935   
    2.523       0.4619E-2    0.1255       0.1925E-3    -.2934   
    2.533       0.4596E-2    0.1273       0.1933E-3    -.2933   
    2.543       0.4596E-2    0.1291       0.1942E-3    -.2932   
    2.553       0.4609E-2    0.1310       0.1950E-3    -.2932   
    2.563       0.4630E-2    0.1328       0.1958E-3    -.2931   
    2.573       0.4656E-2    0.1347       0.1966E-3    -.2930   
    2.583       0.4686E-2    0.1365       0.1974E-3    -.2929   
    2.593       0.4718E-2    0.1384       0.1982E-3    -.2928   
    2.603       0.4751E-2    0.1403       0.1990E-3    -.2928   
    2.613       0.4787E-2    0.1422       0.1998E-3    -.2927   
    2.623       0.4823E-2    0.1441       0.2006E-3    -.2926   
    2.633       0.4860E-2    0.1461       0.2014E-3    -.2925   
    2.643       0.4898E-2    0.1480       0.2023E-3    -.2924   
    2.653       0.4936E-2    0.1500       0.2031E-3    -.2924   
    2.663       0.4976E-2    0.1520       0.2039E-3    -.2923   
    2.673       0.5016E-2    0.1540       0.2047E-3    -.2922   
    2.683       0.5056E-2    0.1560       0.2055E-3    -.2921   
    2.693       0.5097E-2    0.1580       0.2063E-3    -.2920   
    2.703       0.5139E-2    0.1601       0.2071E-3    -.2919   
    2.713       0.5181E-2    0.1621       0.2080E-3    -.2919   
    2.723       0.5223E-2    0.1642       0.2088E-3    -.2918   
    2.733       0.5267E-2    0.1663       0.2096E-3    -.2917   
    2.743       0.5310E-2    0.1684       0.2104E-3    -.2916   
    2.753       0.5354E-2    0.1706       0.2112E-3    -.2915   
    2.763       0.5399E-2    0.1727       0.2120E-3    -.2914   
    2.773       0.5444E-2    0.1749       0.2129E-3    -.2914   
    2.783       0.5490E-2    0.1771       0.2137E-3    -.2913   
    2.793       0.5536E-2    0.1793       0.2145E-3    -.2912   
    2.804       0.5583E-2    0.1815       0.2153E-3    -.2911   
    2.814       0.5630E-2    0.1838       0.2162E-3    -.2910   
    2.824       0.5678E-2    0.1860       0.2170E-3    -.2909   
    2.834       0.5726E-2    0.1883       0.2178E-3    -.2908   
    2.844       0.5775E-2    0.1906       0.2186E-3    -.2908   
    2.854       0.5824E-2    0.1929       0.2194E-3    -.2907   
    2.864       0.5875E-2    0.1953       0.2203E-3    -.2906   
    2.874       0.5925E-2    0.1976       0.2211E-3    -.2905   
    2.884       0.5976E-2    0.2000       0.2219E-3    -.2904   
    2.894       0.6028E-2    0.2024       0.2228E-3    -.2903   
    2.904       0.6081E-2    0.2049       0.2236E-3    -.2902   
    2.914       0.6134E-2    0.2073       0.2244E-3    -.2901   
    2.924       0.6187E-2    0.2098       0.2252E-3    -.2900   
    2.934       0.6242E-2    0.2123       0.2261E-3    -.2900   
    2.944       0.6297E-2    0.2148       0.2269E-3    -.2899   
    2.954       0.6352E-2    0.2173       0.2277E-3    -.2898   
    2.964       0.6409E-2    0.2199       0.2286E-3    -.2897   
    2.974       0.6466E-2    0.2224       0.2294E-3    -.2896   
    2.984       0.6523E-2    0.2250       0.2302E-3    -.2895   
    2.994       0.6582E-2    0.2277       0.2311E-3    -.2894   
    3.004       0.6641E-2    0.2303       0.2319E-3    -.2893   
    3.014       0.6701E-2    0.2330       0.2327E-3    -.2892   
    3.024       0.6761E-2    0.2357       0.2336E-3    -.2891   
    3.034       0.6822E-2    0.2384       0.2344E-3    -.2890   
    3.044       0.6885E-2    0.2411       0.2352E-3    -.2889   
    3.054       0.6947E-2    0.2439       0.2361E-3    -.2888   
    3.064       0.7011E-2    0.2467       0.2369E-3    -.2887   
    3.074       0.7076E-2    0.2495       0.2377E-3    -.2887   
    3.084       0.7141E-2    0.2524       0.2386E-3    -.2886   
    3.094       0.7207E-2    0.2552       0.2394E-3    -.2885   
    3.104       0.7274E-2    0.2581       0.2403E-3    -.2884   
    3.114       0.7342E-2    0.2611       0.2411E-3    -.2883   
    3.124       0.7411E-2    0.2640       0.2419E-3    -.2882   
    3.134       0.7481E-2    0.2670       0.2428E-3    -.2881   
    3.144       0.7551E-2    0.2700       0.2436E-3    -.2880   
    3.154       0.7623E-2    0.2730       0.2445E-3    -.2879   
    3.164       0.7695E-2    0.2761       0.2453E-3    -.2878   
    3.174       0.7769E-2    0.2792       0.2462E-3    -.2877   
    3.184       0.7843E-2    0.2823       0.2470E-3    -.2876   
    3.194       0.7919E-2    0.2855       0.2479E-3    -.2875   
    3.204       0.7995E-2    0.2887       0.2487E-3    -.2874   
    3.214       0.8073E-2    0.2919       0.2495E-3    -.2873   
    3.224       0.8152E-2    0.2951       0.2504E-3    -.2872   
    3.234       0.8232E-2    0.2984       0.2512E-3    -.2871   
    3.244       0.8312E-2    0.3017       0.2521E-3    -.2870   
    3.254       0.8395E-2    0.3051       0.2529E-3    -.2869   
    3.264       0.8478E-2    0.3085       0.2538E-3    -.2868   
    3.274       0.8562E-2    0.3119       0.2546E-3    -.2867   
    3.284       0.8648E-2    0.3153       0.2555E-3    -.2866   
    3.294       0.8735E-2    0.3188       0.2564E-3    -.2865   
    3.304       0.8823E-2    0.3223       0.2572E-3    -.2864   
    3.314       0.8913E-2    0.3259       0.2581E-3    -.2863   
    3.324       0.9003E-2    0.3294       0.2589E-3    -.2862   
    3.334       0.9096E-2    0.3331       0.2598E-3    -.2861   
    3.344       0.9189E-2    0.3367       0.2606E-3    -.2860   
    3.354       0.9284E-2    0.3404       0.2615E-3    -.2859   
    3.364       0.9380E-2    0.3442       0.2623E-3    -.2857   
    3.374       0.9478E-2    0.3479       0.2632E-3    -.2856   
    3.384       0.9578E-2    0.3517       0.2641E-3    -.2855   
    3.394       0.9679E-2    0.3556       0.2649E-3    -.2854   
    3.404       0.9781E-2    0.3595       0.2658E-3    -.2853   
    3.414       0.9885E-2    0.3634       0.2666E-3    -.2852   
    3.424       0.9991E-2    0.3674       0.2675E-3    -.2851   
    3.434       0.1010E-1    0.3714       0.2684E-3    -.2850   
    3.444       0.1021E-1    0.3755       0.2692E-3    -.2849   
    3.454       0.1032E-1    0.3796       0.2701E-3    -.2848   
    3.464       0.1043E-1    0.3838       0.2710E-3    -.2847   
    3.474       0.1055E-1    0.3880       0.2718E-3    -.2846   
    3.484       0.1066E-1    0.3922       0.2727E-3    -.2845   
    3.494       0.1078E-1    0.3965       0.2736E-3    -.2844   
    3.504       0.1090E-1    0.4008       0.2744E-3    -.2842   
    3.514       0.1102E-1    0.4052       0.2753E-3    -.2841   
    3.524       0.1115E-1    0.4097       0.2762E-3    -.2840   
    3.534       0.1127E-1    0.4142       0.2771E-3    -.2839   
    3.544       0.1140E-1    0.4187       0.2779E-3    -.2838   
    3.554       0.1153E-1    0.4233       0.2788E-3    -.2837   
    3.564       0.1167E-1    0.4279       0.2797E-3    -.2836   
    3.574       0.1180E-1    0.4326       0.2805E-3    -.2835   
    3.584       0.1194E-1    0.4374       0.2814E-3    -.2834   
    3.594       0.1208E-1    0.4422       0.2823E-3    -.2832   
    3.605       0.1222E-1    0.4470       0.2832E-3    -.2831   
    3.615       0.1237E-1    0.4520       0.2840E-3    -.2830   
    3.625       0.1252E-1    0.4569       0.2849E-3    -.2829   
    3.635       0.1267E-1    0.4620       0.2858E-3    -.2828   
    3.645       0.1282E-1    0.4671       0.2867E-3    -.2827   
    3.655       0.1298E-1    0.4723       0.2876E-3    -.2826   
    3.665       0.1313E-1    0.4775       0.2884E-3    -.2824   
    3.675       0.1330E-1    0.4828       0.2893E-3    -.2823   
    3.685       0.1346E-1    0.4881       0.2902E-3    -.2822   
    3.695       0.1363E-1    0.4935       0.2911E-3    -.2821   
    3.705       0.1380E-1    0.4990       0.2920E-3    -.2820   
    3.715       0.1398E-1    0.5046       0.2929E-3    -.2819   
    3.725       0.1415E-1    0.5102       0.2938E-3    -.2817   
    3.735       0.1434E-1    0.5159       0.2946E-3    -.2816   
    3.745       0.1452E-1    0.5217       0.2955E-3    -.2815   
    3.755       0.1471E-1    0.5276       0.2964E-3    -.2814   
    3.765       0.1490E-1    0.5335       0.2973E-3    -.2813   
    3.775       0.1510E-1    0.5395       0.2982E-3    -.2811   
    3.785       0.1530E-1    0.5456       0.2991E-3    -.2810   
    3.795       0.1551E-1    0.5517       0.3000E-3    -.2809   
    3.805       0.1571E-1    0.5580       0.3009E-3    -.2808   
    3.815       0.1593E-1    0.5643       0.3018E-3    -.2807   
    3.825       0.1615E-1    0.5707       0.3027E-3    -.2805   
    3.835       0.1637E-1    0.5772       0.3036E-3    -.2804   
    3.845       0.1660E-1    0.5838       0.3045E-3    -.2803   
    3.855       0.1683E-1    0.5905       0.3054E-3    -.2802   
    3.865       0.1706E-1    0.5973       0.3063E-3    -.2801   
    3.875       0.1731E-1    0.6042       0.3071E-3    -.2799   
    3.885       0.1755E-1    0.6112       0.3080E-3    -.2798   
    3.895       0.1781E-1    0.6182       0.3090E-3    -.2797   
    3.905       0.1807E-1    0.6254       0.3099E-3    -.2796   
    3.915       0.1833E-1    0.6327       0.3108E-3    -.2794   
    3.925       0.1860E-1    0.6401       0.3117E-3    -.2793   
    3.935       0.1888E-1    0.6476       0.3126E-3    -.2792   
    3.945       0.1916E-1    0.6552       0.3135E-3    -.2791   
    3.955       0.1945E-1    0.6629       0.3144E-3    -.2789   
    3.965       0.1975E-1    0.6708       0.3153E-3    -.2788   
    3.975       0.2005E-1    0.6787       0.3162E-3    -.2787   
    3.985       0.2037E-1    0.6868       0.3171E-3    -.2786   
    3.995       0.2069E-1    0.6950       0.3180E-3    -.2784   
    4.005       0.2101E-1    0.7034       0.3189E-3    -.2783   
    4.015       0.2135E-1    0.7119       0.3198E-3    -.2782   
    4.025       0.2169E-1    0.7205       0.3207E-3    -.2780   
    4.035       0.2204E-1    0.7292       0.3217E-3    -.2779   
    4.045       0.2240E-1    0.7381       0.3226E-3    -.2778   
    4.055       0.2277E-1    0.7472       0.3235E-3    -.2777   
    4.065       0.2315E-1    0.7563       0.3244E-3    -.2775   
    4.075       0.2354E-1    0.7657       0.3253E-3    -.2774   
    4.085       0.2394E-1    0.7752       0.3262E-3    -.2773   
    4.095       0.2435E-1    0.7849       0.3272E-3    -.2771   
    4.105       0.2478E-1    0.7947       0.3281E-3    -.2770   
    4.115       0.2521E-1    0.8047       0.3290E-3    -.2769   
    4.125       0.2565E-1    0.8149       0.3299E-3    -.2767   
    4.135       0.2611E-1    0.8252       0.3308E-3    -.2766   
    4.145       0.2658E-1    0.8358       0.3318E-3    -.2765   
    4.155       0.2707E-1    0.8465       0.3327E-3    -.2763   
    4.165       0.2756E-1    0.8574       0.3336E-3    -.2762   
    4.175       0.2808E-1    0.8685       0.3345E-3    -.2761   
    4.185       0.2860E-1    0.8799       0.3355E-3    -.2759   
    4.195       0.2915E-1    0.8914       0.3364E-3    -.2758   
    4.205       0.2970E-1    0.9032       0.3373E-3    -.2757   
    4.215       0.3028E-1    0.9152       0.3383E-3    -.2755   
    4.225       0.3087E-1    0.9274       0.3392E-3    -.2754   
    4.235       0.3148E-1    0.9399       0.3401E-3    -.2753   
    4.245       0.3212E-1    0.9526       0.3411E-3    -.2751   
    4.255       0.3277E-1    0.9656       0.3420E-3    -.2750   
    4.265       0.3344E-1    0.9788       0.3429E-3    -.2749   
    4.275       0.3413E-1    0.9923       0.3439E-3    -.2747   
    4.285       0.3485E-1     1.006       0.3448E-3    -.2746   
    4.295       0.3559E-1     1.020       0.3457E-3    -.2744   
    4.305       0.3635E-1     1.035       0.3467E-3    -.2743   
    4.315       0.3714E-1     1.049       0.3476E-3    -.2742   
    4.325       0.3796E-1     1.064       0.3486E-3    -.2740   
    4.335       0.3880E-1     1.080       0.3495E-3    -.2739   
    4.345       0.3968E-1     1.095       0.3505E-3    -.2737   
    4.355       0.4058E-1     1.111       0.3514E-3    -.2736   
    4.365       0.4152E-1     1.128       0.3523E-3    -.2735   
    4.375       0.4250E-1     1.145       0.3533E-3    -.2733   
    4.385       0.4351E-1     1.162       0.3542E-3    -.2732   
    4.395       0.4455E-1     1.179       0.3552E-3    -.2730   
    4.406       0.4564E-1     1.197       0.3561E-3    -.2729   
    4.416       0.4677E-1     1.216       0.3571E-3    -.2728   
    4.426       0.4794E-1     1.235       0.3580E-3    -.2726   
    4.436       0.4916E-1     1.254       0.3590E-3    -.2725   
    4.446       0.5043E-1     1.274       0.3599E-3    -.2723   
    4.456       0.5175E-1     1.295       0.3609E-3    -.2722   
    4.466       0.5312E-1     1.315       0.3619E-3    -.2720   
    4.476       0.5455E-1     1.337       0.3628E-3    -.2719   
    4.486       0.5605E-1     1.359       0.3638E-3    -.2717   
    4.496       0.5760E-1     1.382       0.3647E-3    -.2716   
    4.506       0.5923E-1     1.405       0.3657E-3    -.2715   
    4.516       0.6092E-1     1.429       0.3667E-3    -.2713   
    4.526       0.6270E-1     1.454       0.3676E-3    -.2712   
    4.536       0.6455E-1     1.479       0.3686E-3    -.2710   
    4.546       0.6649E-1     1.505       0.3695E-3    -.2709   
    4.556       0.6853E-1     1.532       0.3705E-3    -.2707   
    4.566       0.7066E-1     1.560       0.3715E-3    -.2706   
    4.576       0.7289E-1     1.589       0.3724E-3    -.2704   
    4.586       0.7524E-1     1.618       0.3734E-3    -.2703   
    4.596       0.7770E-1     1.649       0.3744E-3    -.2701   
    4.606       0.8030E-1     1.680       0.3754E-3    -.2700   
    4.616       0.8302E-1     1.713       0.3763E-3    -.2698   
    4.626       0.8590E-1     1.747       0.3773E-3    -.2697   
    4.636       0.8893E-1     1.782       0.3783E-3    -.2695   
    4.646       0.9212E-1     1.818       0.3793E-3    -.2694   
    4.656       0.9550E-1     1.855       0.3802E-3    -.2692   
    4.666       0.9908E-1     1.894       0.3812E-3    -.2691   
    4.676       0.1029        1.934       0.3822E-3    -.2689   
    4.686       0.1069        1.976       0.3832E-3    -.2688   
    4.696       0.1111        2.019       0.3842E-3    -.2686   
    4.706       0.1156        2.064       0.3851E-3    -.2684   
    4.716       0.1205        2.111       0.3861E-3    -.2683   
    4.726       0.1256        2.160       0.3871E-3    -.2681   
    4.736       0.1310        2.212       0.3881E-3    -.2680   
    4.746       0.1369        2.265       0.3891E-3    -.2678   
    4.756       0.1431        2.321       0.3901E-3    -.2677   
    4.766       0.1498        2.379       0.3911E-3    -.2675   
    4.776       0.1570        2.440       0.3920E-3    -.2674   
    4.786       0.1647        2.504       0.3930E-3    -.2672   
    4.796       0.1731        2.571       0.3940E-3    -.2670   
    4.806       0.1820        2.641       0.3950E-3    -.2669   
    4.816       0.1918        2.716       0.3960E-3    -.2667   
    4.826       0.2023        2.794       0.3970E-3    -.2666   
    4.836       0.2137        2.876       0.3980E-3    -.2664   
    4.846       0.2262        2.963       0.3990E-3    -.2662   
    4.856       0.2397        3.056       0.4000E-3    -.2661   
    4.866       0.2546        3.153       0.4010E-3    -.2659   
    4.876       0.2709        3.257       0.4020E-3    -.2658   
    4.886       0.2888        3.368       0.4030E-3    -.2656   
    4.896       0.3087        3.486       0.4040E-3    -.2654   
    4.906       0.3306        3.612       0.4050E-3    -.2653   
    4.916       0.3550        3.747       0.4061E-3    -.2651   
    4.926       0.3822        3.892       0.4071E-3    -.2650   
    4.936       0.4127        4.048       0.4081E-3    -.2648   
    4.946       0.4470        4.216       0.4091E-3    -.2646   
    4.956       0.4859        4.399       0.4101E-3    -.2645   
    4.966       0.5300        4.597       0.4111E-3    -.2643   
    4.976       0.5805        4.813       0.4121E-3    -.2641   
    4.986       0.6386        5.050       0.4131E-3    -.2640   
    4.996       0.7058        5.311       0.4142E-3    -.2638   
    5.006       0.7843        5.598       0.4152E-3    -.2636   
    5.016       0.8767        5.917       0.4162E-3    -.2635   
    5.026       0.9863        6.273       0.4172E-3    -.2633   
    5.036        1.118        6.672       0.4182E-3    -.2631   
    5.046        1.277        7.123       0.4193E-3    -.2630   
    5.056        1.473        7.636       0.4203E-3    -.2628   
    5.066        1.717        8.224       0.4213E-3    -.2626   
    5.076        2.026        8.904       0.4223E-3    -.2625   
    5.086        2.426        9.697       0.4234E-3    -.2623   
    5.096        2.952        10.63       0.4244E-3    -.2621   
    5.106        3.665        11.74       0.4254E-3    -.2620   
    5.116        4.658        13.06       0.4265E-3    -.2618   
    5.126        6.089        14.64       0.4275E-3    -.2616   
    5.136        8.229        16.50       0.4285E-3    -.2614   
    5.146        11.55        18.54       0.4296E-3    -.2613   
    5.156        16.86        20.31       0.4306E-3    -.2611   
    5.166        25.09        20.18       0.4317E-3    -.2609   
    5.176        35.52        14.34       0.4327E-3    -.2608   
    5.186        41.29       0.1337       0.4337E-3    -.2606   
    5.196        35.65       -14.15       0.4348E-3    -.2604   
    5.207        25.22       -20.10       0.4358E-3    -.2602   
    5.217        16.94       -20.27       0.4369E-3    -.2601   
    5.227        11.61       -18.52       0.4379E-3    -.2599   
    5.237        8.264       -16.47       0.4390E-3    -.2597   
    5.247        6.112       -14.61       0.4400E-3    -.2595   
    5.257        4.674       -13.03       0.4411E-3    -.2594   
    5.267        3.677       -11.70       0.4421E-3    -.2592   
    5.277        2.962       -10.59       0.4432E-3    -.2590   
    5.287        2.433       -9.655       0.4442E-3    -.2588   
    5.297        2.033       -8.860       0.4453E-3    -.2586   
    5.307        1.722       -8.178       0.4464E-3    -.2585   
    5.317        1.478       -7.588       0.4474E-3    -.2583   
    5.327        1.281       -7.073       0.4485E-3    -.2581   
    5.337        1.122       -6.621       0.4495E-3    -.2579   
    5.347       0.9901       -6.220       0.4506E-3    -.2577   
    5.357       0.8804       -5.862       0.4517E-3    -.2576   
    5.367       0.7880       -5.542       0.4527E-3    -.2574   
    5.377       0.7095       -5.253       0.4538E-3    -.2572   
    5.387       0.6423       -4.992       0.4549E-3    -.2570   
    5.397       0.5842       -4.753       0.4560E-3    -.2568   
    5.407       0.5338       -4.536       0.4570E-3    -.2567   
    5.417       0.4898       -4.336       0.4581E-3    -.2565   
    5.427       0.4510       -4.152       0.4592E-3    -.2563   
    5.437       0.4168       -3.981       0.4603E-3    -.2561   
    5.447       0.3864       -3.824       0.4613E-3    -.2559   
    5.457       0.3593       -3.677       0.4624E-3    -.2557   
    5.467       0.3351       -3.540       0.4635E-3    -.2556   
    5.477       0.3133       -3.412       0.4646E-3    -.2554   
    5.487       0.2936       -3.293       0.4657E-3    -.2552   
    5.497       0.2758       -3.180       0.4668E-3    -.2550   
    5.507       0.2597       -3.074       0.4678E-3    -.2548   
    5.517       0.2450       -2.974       0.4689E-3    -.2546   
    5.527       0.2316       -2.880       0.4700E-3    -.2544   
    5.537       0.2193       -2.791       0.4711E-3    -.2542   
    5.547       0.2081       -2.706       0.4722E-3    -.2541   
    5.557       0.1977       -2.625       0.4733E-3    -.2539   
    5.567       0.1882       -2.549       0.4744E-3    -.2537   
    5.577       0.1794       -2.476       0.4755E-3    -.2535   
    5.587       0.1713       -2.406       0.4766E-3    -.2533   
    5.597       0.1638       -2.340       0.4777E-3    -.2531   
    5.607       0.1568       -2.276       0.4788E-3    -.2529   
    5.617       0.1503       -2.215       0.4799E-3    -.2527   
    5.627       0.1443       -2.156       0.4810E-3    -.2525   
    5.637       0.1387       -2.100       0.4821E-3    -.2523   
    5.647       0.1335       -2.046       0.4832E-3    -.2521   
    5.657       0.1286       -1.993       0.4843E-3    -.2519   
    5.667       0.1240       -1.943       0.4855E-3    -.2518   
    5.677       0.1198       -1.894       0.4866E-3    -.2516   
    5.687       0.1158       -1.848       0.4877E-3    -.2514   
    5.697       0.1121       -1.802       0.4888E-3    -.2512   
    5.707       0.1086       -1.758       0.4899E-3    -.2510   
    5.717       0.1053       -1.715       0.4910E-3    -.2508   
    5.727       0.1022       -1.674       0.4922E-3    -.2506   
    5.737       0.9936E-1    -1.634       0.4933E-3    -.2504   
    5.747       0.9666E-1    -1.595       0.4944E-3    -.2502   
    5.757       0.9413E-1    -1.557       0.4955E-3    -.2500   
    5.767       0.9175E-1    -1.520       0.4967E-3    -.2498   
    5.777       0.8953E-1    -1.483       0.4978E-3    -.2496   
    5.787       0.8745E-1    -1.448       0.4989E-3    -.2494   
    5.797       0.8550E-1    -1.414       0.5001E-3    -.2492   
    5.807       0.8368E-1    -1.380       0.5012E-3    -.2490   
    5.817       0.8198E-1    -1.347       0.5023E-3    -.2488   
    5.827       0.8040E-1    -1.314       0.5035E-3    -.2486   
    5.837       0.7894E-1    -1.283       0.5046E-3    -.2484   
    5.847       0.7757E-1    -1.251       0.5058E-3    -.2482   
    5.857       0.7632E-1    -1.221       0.5069E-3    -.2480   
    5.867       0.7516E-1    -1.190       0.5080E-3    -.2478   
    5.877       0.7411E-1    -1.160       0.5092E-3    -.2476   
    5.887       0.7315E-1    -1.131       0.5103E-3    -.2474   
    5.897       0.7228E-1    -1.102       0.5115E-3    -.2472   
    5.907       0.7152E-1    -1.073       0.5126E-3    -.2470   
    5.917       0.7084E-1    -1.045       0.5138E-3    -.2468   
    5.927       0.7026E-1    -1.017       0.5149E-3    -.2465   
    5.937       0.6977E-1    -.9888       0.5161E-3    -.2463   
    5.947       0.6938E-1    -.9610       0.5173E-3    -.2461   
    5.957       0.6909E-1    -.9333       0.5184E-3    -.2459   
    5.967       0.6889E-1    -.9058       0.5196E-3    -.2457   
    5.977       0.6880E-1    -.8783       0.5207E-3    -.2455   
    5.987       0.6882E-1    -.8509       0.5219E-3    -.2453   
    5.997       0.6894E-1    -.8234       0.5231E-3    -.2451   
    6.008       0.6918E-1    -.7958       0.5242E-3    -.2449   
    6.018       0.6955E-1    -.7681       0.5254E-3    -.2447   
    6.028       0.7005E-1    -.7403       0.5266E-3    -.2445   
    6.038       0.7068E-1    -.7123       0.5278E-3    -.2442   
    6.048       0.7147E-1    -.6839       0.5289E-3    -.2440   
    6.058       0.7243E-1    -.6553       0.5301E-3    -.2438   
    6.068       0.7356E-1    -.6262       0.5313E-3    -.2436   
    6.078       0.7489E-1    -.5966       0.5325E-3    -.2434   
    6.088       0.7643E-1    -.5665       0.5336E-3    -.2432   
    6.098       0.7822E-1    -.5358       0.5348E-3    -.2430   
    6.108       0.8028E-1    -.5043       0.5360E-3    -.2428   
    6.118       0.8264E-1    -.4720       0.5372E-3    -.2425   
    6.128       0.8535E-1    -.4386       0.5384E-3    -.2423   
    6.138       0.8845E-1    -.4042       0.5396E-3    -.2421   
    6.148       0.9201E-1    -.3685       0.5408E-3    -.2419   
    6.158       0.9608E-1    -.3313       0.5420E-3    -.2417   
    6.168       0.1008       -.2925       0.5432E-3    -.2415   
    6.178       0.1061       -.2517       0.5444E-3    -.2412   
    6.188       0.1124       -.2088       0.5456E-3    -.2410   
    6.198       0.1196       -.1633       0.5468E-3    -.2408   
    6.208       0.1280       -.1148       0.5480E-3    -.2406   
    6.218       0.1379       -.6302E-1    0.5492E-3    -.2404   
    6.228       0.1496       -.7209E-2    0.5504E-3    -.2401   
    6.238       0.1634       0.5327E-1    0.5516E-3    -.2399   
    6.248       0.1801       0.1193       0.5528E-3    -.2397   
    6.258       0.2002       0.1919       0.5540E-3    -.2395   
    6.268       0.2249       0.2723       0.5552E-3    -.2393   
    6.278       0.2556       0.3623       0.5565E-3    -.2390   
    6.288       0.2942       0.4640       0.5577E-3    -.2388   
    6.298       0.3437       0.5799       0.5589E-3    -.2386   
    6.308       0.4085       0.7136       0.5601E-3    -.2384   
    6.318       0.4952       0.8693       0.5613E-3    -.2381   
    6.328       0.6144        1.053       0.5626E-3    -.2379   
    6.338       0.7835        1.269       0.5638E-3    -.2377   
    6.348        1.032        1.525       0.5650E-3    -.2375   
    6.358        1.412        1.815       0.5663E-3    -.2372   
    6.368        2.013        2.108       0.5675E-3    -.2370   
    6.378        2.968        2.269       0.5687E-3    -.2368   
    6.388        4.347        1.914       0.5700E-3    -.2366   
    6.398        5.641       0.4378       0.5712E-3    -.2363   
    6.408        5.585       -1.787       0.5724E-3    -.2361   
    6.418        4.247       -3.180       0.5737E-3    -.2359   
    6.428        2.891       -3.482       0.5749E-3    -.2356   
    6.438        1.963       -3.305       0.5762E-3    -.2354   
    6.448        1.380       -3.011       0.5774E-3    -.2352   
    6.458        1.011       -2.723       0.5787E-3    -.2349   
    6.468       0.7680       -2.471       0.5799E-3    -.2347   
    6.478       0.6025       -2.257       0.5812E-3    -.2345   
    6.488       0.4855       -2.077       0.5825E-3    -.2342   
    6.498       0.4002       -1.924       0.5837E-3    -.2340   
    6.508       0.3362       -1.794       0.5850E-3    -.2338   
    6.518       0.2872       -1.680       0.5862E-3    -.2335   
    6.528       0.2487       -1.581       0.5875E-3    -.2333   
    6.538       0.2181       -1.494       0.5888E-3    -.2331   
    6.548       0.1934       -1.416       0.5900E-3    -.2328   
    6.558       0.1731       -1.346       0.5913E-3    -.2326   
    6.568       0.1562       -1.283       0.5926E-3    -.2324   
    6.578       0.1421       -1.225       0.5939E-3    -.2321   
    6.588       0.1302       -1.172       0.5951E-3    -.2319   
    6.598       0.1200       -1.124       0.5964E-3    -.2317   
    6.608       0.1112       -1.079       0.5977E-3    -.2314   
    6.618       0.1036       -1.037       0.5990E-3    -.2312   
    6.628       0.9693E-1    -.9972       0.6003E-3    -.2309   
    6.638       0.9112E-1    -.9602       0.6016E-3    -.2307   
    6.648       0.8600E-1    -.9253       0.6029E-3    -.2305   
    6.658       0.8146E-1    -.8922       0.6042E-3    -.2302   
    6.668       0.7743E-1    -.8608       0.6055E-3    -.2300   
    6.678       0.7383E-1    -.8309       0.6067E-3    -.2297   
    6.688       0.7061E-1    -.8023       0.6080E-3    -.2295   
    6.698       0.6771E-1    -.7748       0.6094E-3    -.2292   
    6.708       0.6509E-1    -.7485       0.6107E-3    -.2290   
    6.718       0.6273E-1    -.7231       0.6120E-3    -.2287   
    6.728       0.6059E-1    -.6986       0.6133E-3    -.2285   
    6.738       0.5864E-1    -.6748       0.6146E-3    -.2283   
    6.748       0.5687E-1    -.6519       0.6159E-3    -.2280   
    6.758       0.5526E-1    -.6295       0.6172E-3    -.2278   
    6.768       0.5378E-1    -.6078       0.6185E-3    -.2275   
    6.778       0.5243E-1    -.5866       0.6198E-3    -.2273   
    6.788       0.5120E-1    -.5660       0.6212E-3    -.2270   
    6.798       0.5006E-1    -.5458       0.6225E-3    -.2268   
    6.809       0.4903E-1    -.5260       0.6238E-3    -.2265   
    6.819       0.4807E-1    -.5067       0.6251E-3    -.2263   
    6.829       0.4720E-1    -.4876       0.6265E-3    -.2260   
    6.839       0.4640E-1    -.4690       0.6278E-3    -.2258   
    6.849       0.4566E-1    -.4506       0.6291E-3    -.2255   
    6.859       0.4498E-1    -.4325       0.6305E-3    -.2253   
    6.869       0.4436E-1    -.4146       0.6318E-3    -.2250   
    6.879       0.4379E-1    -.3970       0.6332E-3    -.2248   
    6.889       0.4328E-1    -.3796       0.6345E-3    -.2245   
    6.899       0.4280E-1    -.3624       0.6358E-3    -.2243   
    6.909       0.4237E-1    -.3454       0.6372E-3    -.2240   
    6.919       0.4198E-1    -.3286       0.6385E-3    -.2237   
    6.929       0.4162E-1    -.3119       0.6399E-3    -.2235   
    6.939       0.4130E-1    -.2953       0.6413E-3    -.2232   
    6.949       0.4101E-1    -.2788       0.6426E-3    -.2230   
    6.959       0.4076E-1    -.2625       0.6440E-3    -.2227   
    6.969       0.4053E-1    -.2462       0.6453E-3    -.2225   
    6.979       0.4033E-1    -.2301       0.6467E-3    -.2222   
    6.989       0.4016E-1    -.2140       0.6481E-3    -.2219   
    6.999       0.4001E-1    -.1979       0.6494E-3    -.2217   
    7.009       0.3989E-1    -.1819       0.6508E-3    -.2214   
    7.019       0.3979E-1    -.1660       0.6522E-3    -.2212   
    7.029       0.3972E-1    -.1501       0.6536E-3    -.2209   
    7.039       0.3966E-1    -.1342       0.6549E-3    -.2206   
    7.049       0.3963E-1    -.1184       0.6563E-3    -.2204   
    7.059       0.3962E-1    -.1025       0.6577E-3    -.2201   
    7.069       0.3963E-1    -.8666E-1    0.6591E-3    -.2198   
    7.079       0.3966E-1    -.7080E-1    0.6605E-3    -.2196   
    7.089       0.3971E-1    -.5493E-1    0.6619E-3    -.2193   
    7.099       0.3978E-1    -.3902E-1    0.6633E-3    -.2190   
    7.109       0.3986E-1    -.2309E-1    0.6647E-3    -.2188   
    7.119       0.3997E-1    -.7123E-2    0.6661E-3    -.2185   
    7.129       0.4009E-1    0.8891E-2    0.6675E-3    -.2182   
    7.139       0.4023E-1    0.2496E-1    0.6689E-3    -.2180   
    7.149       0.4038E-1    0.4109E-1    0.6703E-3    -.2177   
    7.159       0.4056E-1    0.5728E-1    0.6717E-3    -.2174   
    7.169       0.4075E-1    0.7355E-1    0.6731E-3    -.2172   
    7.179       0.4096E-1    0.8990E-1    0.6745E-3    -.2169   
    7.189       0.4119E-1    0.1063       0.6759E-3    -.2166   
    7.199       0.4144E-1    0.1229       0.6773E-3    -.2164   
    7.209       0.4171E-1    0.1395       0.6788E-3    -.2161   
    7.219       0.4199E-1    0.1562       0.6802E-3    -.2158   
    7.229       0.4230E-1    0.1731       0.6816E-3    -.2155   
    7.239       0.4262E-1    0.1901       0.6830E-3    -.2153   
    7.249       0.4297E-1    0.2072       0.6845E-3    -.2150   
    7.259       0.4334E-1    0.2245       0.6859E-3    -.2147   
    7.269       0.4373E-1    0.2419       0.6873E-3    -.2145   
    7.279       0.4416E-1    0.2594       0.6888E-3    -.2142   
    7.289       0.4462E-1    0.2771       0.6902E-3    -.2139   
    7.299       0.4508E-1    0.2950       0.6917E-3    -.2136   
    7.309       0.4552E-1    0.3130       0.6931E-3    -.2133   
    7.319       0.4598E-1    0.3312       0.6946E-3    -.2131   
    7.329       0.4646E-1    0.3497       0.6960E-3    -.2128   
    7.339       0.4698E-1    0.3683       0.6975E-3    -.2125   
    7.349       0.4754E-1    0.3872       0.6989E-3    -.2122   
    7.359       0.4814E-1    0.4064       0.7004E-3    -.2120   
    7.369       0.4877E-1    0.4257       0.7018E-3    -.2117   
    7.379       0.4945E-1    0.4454       0.7033E-3    -.2114   
    7.389       0.5016E-1    0.4652       0.7048E-3    -.2111   
    7.399       0.5092E-1    0.4854       0.7062E-3    -.2108   
    7.409       0.5169E-1    0.5058       0.7077E-3    -.2105   
    7.419       0.5250E-1    0.5266       0.7092E-3    -.2103   
    7.429       0.5338E-1    0.5477       0.7107E-3    -.2100   
    7.439       0.5433E-1    0.5692       0.7122E-3    -.2097   
    7.449       0.5537E-1    0.5911       0.7136E-3    -.2094   
    7.459       0.5652E-1    0.6133       0.7151E-3    -.2091   
    7.469       0.5779E-1    0.6360       0.7166E-3    -.2088   
    7.479       0.5915E-1    0.6590       0.7181E-3    -.2085   
    7.489       0.6051E-1    0.6824       0.7196E-3    -.2083   
    7.499       0.6193E-1    0.7065       0.7211E-3    -.2080   
    7.509       0.6355E-1    0.7313       0.7226E-3    -.2077   
    7.519       0.6545E-1    0.7569       0.7241E-3    -.2074   
    7.529       0.6769E-1    0.7832       0.7256E-3    -.2071   
    7.539       0.7037E-1    0.8104       0.7271E-3    -.2068   
    7.549       0.7363E-1    0.8385       0.7286E-3    -.2065   
    7.559       0.7771E-1    0.8679       0.7301E-3    -.2062   
    7.569       0.8300E-1    0.8987       0.7317E-3    -.2059   
    7.579       0.9011E-1    0.9310       0.7332E-3    -.2056   
    7.589       0.1001       0.9652       0.7347E-3    -.2053   
    7.599       0.1149        1.001       0.7362E-3    -.2050   
    7.610       0.1375        1.037       0.7378E-3    -.2048   
    7.620       0.1730        1.070       0.7393E-3    -.2045   
    7.630       0.2234        1.083       0.7408E-3    -.2042   
    7.640       0.2702        1.058       0.7424E-3    -.2039   
    7.650       0.2686        1.007       0.7439E-3    -.2036   
    7.660       0.2222       0.9868       0.7455E-3    -.2033   
    7.670       0.1757        1.006       0.7470E-3    -.2030   
    7.680       0.1445        1.042       0.7486E-3    -.2027   
    7.690       0.1256        1.083       0.7501E-3    -.2024   
    7.700       0.1142        1.124       0.7517E-3    -.2021   
    7.710       0.1074        1.165       0.7532E-3    -.2018   
    7.720       0.1033        1.205       0.7548E-3    -.2015   
    7.730       0.1010        1.244       0.7563E-3    -.2012   
    7.740       0.9992E-1     1.284       0.7579E-3    -.2009   
    7.750       0.9965E-1     1.323       0.7595E-3    -.2006   
    7.760       0.9999E-1     1.362       0.7611E-3    -.2003   
    7.770       0.1008        1.402       0.7626E-3    -.1999   
    7.780       0.1020        1.442       0.7642E-3    -.1996   
    7.790       0.1034        1.483       0.7658E-3    -.1993   
    7.800       0.1051        1.525       0.7674E-3    -.1990   
    7.810       0.1071        1.567       0.7690E-3    -.1987   
    7.820       0.1092        1.610       0.7706E-3    -.1984   
    7.830       0.1116        1.654       0.7722E-3    -.1981   
    7.840       0.1141        1.699       0.7738E-3    -.1978   
    7.850       0.1168        1.745       0.7754E-3    -.1975   
    7.860       0.1197        1.793       0.7770E-3    -.1972   
    7.870       0.1227        1.841       0.7786E-3    -.1969   
    7.880       0.1259        1.891       0.7802E-3    -.1965   
    7.890       0.1294        1.942       0.7818E-3    -.1962   
    7.900       0.1330        1.994       0.7834E-3    -.1959   
    7.910       0.1368        2.048       0.7850E-3    -.1956   
    7.920       0.1408        2.103       0.7867E-3    -.1953   
    7.930       0.1451        2.160       0.7883E-3    -.1950   
    7.940       0.1495        2.219       0.7899E-3    -.1947   
    7.950       0.1543        2.280       0.7916E-3    -.1943   
    7.960       0.1592        2.342       0.7932E-3    -.1940   
    7.970       0.1645        2.407       0.7948E-3    -.1937   
    7.980       0.1701        2.474       0.7965E-3    -.1934   
    7.990       0.1759        2.543       0.7981E-3    -.1931   
    8.000       0.1821        2.614       0.7998E-3    -.1928   
# 
# 01/03/2018 at 12:28 YAMBO @ anomaly [start]
# 01/03/2018 at 12:28                 [end]
#
# .-Input file : yambo.in
# | optics                         # [R OPT] Optics
# | bse                            # [R BSE] Bethe Salpeter Equation.
# | bsk                            # [R BSK] Bethe Salpeter Equation kernel
# | bss                            # [R BSS] Bethe Salpeter Equation solver
# | BoseTemp= 0.000000     eV      # Bosonic Temperature
# | FFTGvecs=  3473        RL      # [FFT] Plane-waves
# | X_Threads= 1                   # [OPENMP/X] Number of threads for response functions
# | DIP_Threads= 1                 # [OPENMP/X] Number of threads for dipoles
# | K_Threads= 1                   # [OPENMP/BSK] Number of threads for response functions
# | BSEmod= "retarded"             # [BSE] resonant/retarded/coupling
# | BSKmod= "HF"                   # [BSE] IP/Hartree/HF/ALDA/SEX/BSfxc
# | BSSmod= "d"                    # [BSS] (h)aydock/(d)iagonalization/(i)nversion/(t)ddft`
# | BSENGexx=  51          RL      # [BSK] Exchange components
# | BSENGBlk=  51          RL      # [BSK] Screened interaction block size
# | % KfnQP_E
# |  6.500000 | 1.000000 | 1.000000 |        # [EXTQP BSK BSS] E parameters  (c/v) eV|adim|adim
# | %
# | % BEnRange
# |  0.000000 | 8.000000 | eV      # [BSS] Energy range
# | %
# | % BDmRange
# |   0.02500 |  0.02500 | eV      # [BSS] Damping range
# | %
# | BEnSteps=  800                 # [BSS] Energy steps
# | % BLongDir
# | 0.5774E-5 |0.5774E-5 |0.5774E-5 |        # [BSS] [cc] Electric Field
# | %
# | % BSEBands
# |   7 | 10 |                     # [BSK] Bands range
# | %
