#                                                           
# ooooo   oooo ..     ooo        ooo ooooooooo.    .oooo.   
#  `88.   .8" .88.    `88.       .88 `88"   `Y8b  dP"  `Yb  
#   `88. .8" .8"88.    888b     d"88  88     888 88      88 
#    `88.8" .8" `88.   8 Y88. .P  88  88oooo888" 88      88 
#     `88" .88ooo888.  8  `888"   88  88    `88b 88      88 
#      88 .8"     `88. 8    Y     88  88    .88P `8b    d8" 
#     o88o88o      888o8          88 o88bood8P"   `Ybod8P"  
#                                                           
#                                                           
#         Version 4.3.0 Revision 15185 Hash 3effa9d         
#                   MPI+SLK+OpenMP Build                    
#                 http://www.yambo-code.org                 
#
# EELS @ Q(1)  [q->0 direction]:0.5774E-5 0.5774E-5 0.5774E-5
#
#
# - Energies      are  Analyt. E
# - Wavefunctions are Teter 93(XC)
#
# - The Green`s function is Retarded -
# - Using the Length Gauge -
# - [r,Vnl] *is* included -
#
#   BSK|Identifier              :3410
#      |Dimension               :18
#      |Bands                   :7 - 10
#      |Exchange           [res]: yes
#      |Correlation        [res]: yes
#      |Kernel`s coupling       : no
#      |Exchange           [cpl]: no
#      |Correlation        [cpl]: no
#      |W interaction is bare   : no
#      |ALDA kernel in R-space  : no
#      |RL vectors    [exchange]:51
#      |RL vectors [correlation]:51
#      |E/h energy range    [ev]: 0.000000 -  8.000000
#      |Coupling range     [o/o]: 100.0000 -  100.0000
#    W |Interaction is diagonal : no
#      |Matrix size             :51
#      |Bands                   :1 - 60
#      |e/h energy range    [ev]:-1.000000 - -1.000000
#      |Poles              [o/o]: 100.0000
#      |RL vectors in the sum   :3473
#      |[r,Vnl] included        : yes
#      |Field direction         :0.1000E-4  0.000000  0.000000
#      |Coulomb Cutoff          :none
#      |xc-Kernel               :none
#   RIM|RL components      [col]:0
#      |Random points      [col]:0
#
#    E/ev[1]      EEL-Im[2]    EEL-Re[3]    EELo-Im[4]   EELo-Re[5]
#
    4.000       0.1218E-2    -.1216       0.7423E-3    -.2030   
    4.010       0.1222E-2    -.1211       0.7447E-3    -.2027   
    4.020       0.1227E-2    -.1206       0.7471E-3    -.2024   
    4.030       0.1231E-2    -.1201       0.7495E-3    -.2021   
    4.040       0.1236E-2    -.1196       0.7520E-3    -.2018   
    4.050       0.1240E-2    -.1191       0.7544E-3    -.2015   
    4.060       0.1245E-2    -.1186       0.7568E-3    -.2012   
    4.070       0.1250E-2    -.1181       0.7593E-3    -.2009   
    4.080       0.1254E-2    -.1176       0.7617E-3    -.2006   
    4.090       0.1259E-2    -.1171       0.7642E-3    -.2002   
    4.100       0.1264E-2    -.1166       0.7667E-3    -.1999   
    4.110       0.1268E-2    -.1161       0.7691E-3    -.1996   
    4.120       0.1273E-2    -.1156       0.7716E-3    -.1993   
    4.130       0.1278E-2    -.1151       0.7741E-3    -.1990   
    4.140       0.1283E-2    -.1146       0.7766E-3    -.1987   
    4.150       0.1287E-2    -.1141       0.7790E-3    -.1984   
    4.160       0.1292E-2    -.1135       0.7815E-3    -.1981   
    4.170       0.1297E-2    -.1130       0.7840E-3    -.1978   
    4.180       0.1302E-2    -.1125       0.7865E-3    -.1975   
    4.190       0.1307E-2    -.1120       0.7891E-3    -.1971   
    4.201       0.1311E-2    -.1115       0.7916E-3    -.1968   
    4.211       0.1316E-2    -.1109       0.7941E-3    -.1965   
    4.221       0.1321E-2    -.1104       0.7966E-3    -.1962   
    4.231       0.1326E-2    -.1099       0.7991E-3    -.1959   
    4.241       0.1331E-2    -.1093       0.8017E-3    -.1955   
    4.251       0.1336E-2    -.1088       0.8042E-3    -.1952   
    4.261       0.1341E-2    -.1083       0.8068E-3    -.1949   
    4.271       0.1346E-2    -.1077       0.8093E-3    -.1946   
    4.281       0.1351E-2    -.1072       0.8119E-3    -.1942   
    4.291       0.1356E-2    -.1066       0.8144E-3    -.1939   
    4.301       0.1361E-2    -.1061       0.8170E-3    -.1936   
    4.311       0.1366E-2    -.1056       0.8196E-3    -.1933   
    4.321       0.1371E-2    -.1050       0.8221E-3    -.1929   
    4.331       0.1376E-2    -.1045       0.8247E-3    -.1926   
    4.341       0.1381E-2    -.1039       0.8273E-3    -.1923   
    4.351       0.1386E-2    -.1033       0.8299E-3    -.1919   
    4.361       0.1391E-2    -.1028       0.8325E-3    -.1916   
    4.371       0.1396E-2    -.1022       0.8351E-3    -.1913   
    4.381       0.1402E-2    -.1017       0.8377E-3    -.1909   
    4.391       0.1407E-2    -.1011       0.8403E-3    -.1906   
    4.401       0.1412E-2    -.1005       0.8430E-3    -.1903   
    4.411       0.1417E-2    -.9997E-1    0.8456E-3    -.1899   
    4.421       0.1423E-2    -.9940E-1    0.8482E-3    -.1896   
    4.431       0.1428E-2    -.9883E-1    0.8509E-3    -.1892   
    4.441       0.1433E-2    -.9826E-1    0.8535E-3    -.1889   
    4.451       0.1438E-2    -.9768E-1    0.8562E-3    -.1886   
    4.461       0.1444E-2    -.9711E-1    0.8588E-3    -.1882   
    4.471       0.1449E-2    -.9653E-1    0.8615E-3    -.1879   
    4.481       0.1454E-2    -.9594E-1    0.8642E-3    -.1875   
    4.491       0.1460E-2    -.9536E-1    0.8668E-3    -.1872   
    4.501       0.1465E-2    -.9477E-1    0.8695E-3    -.1868   
    4.511       0.1471E-2    -.9418E-1    0.8722E-3    -.1865   
    4.521       0.1476E-2    -.9359E-1    0.8749E-3    -.1861   
    4.531       0.1482E-2    -.9300E-1    0.8776E-3    -.1858   
    4.541       0.1487E-2    -.9241E-1    0.8803E-3    -.1854   
    4.551       0.1493E-2    -.9181E-1    0.8830E-3    -.1851   
    4.561       0.1498E-2    -.9121E-1    0.8857E-3    -.1847   
    4.571       0.1504E-2    -.9061E-1    0.8885E-3    -.1844   
    4.581       0.1509E-2    -.9000E-1    0.8912E-3    -.1840   
    4.591       0.1515E-2    -.8940E-1    0.8939E-3    -.1837   
    4.602       0.1520E-2    -.8879E-1    0.8967E-3    -.1833   
    4.612       0.1526E-2    -.8818E-1    0.8994E-3    -.1829   
    4.622       0.1532E-2    -.8756E-1    0.9022E-3    -.1826   
    4.632       0.1537E-2    -.8695E-1    0.9049E-3    -.1822   
    4.642       0.1543E-2    -.8633E-1    0.9077E-3    -.1818   
    4.652       0.1549E-2    -.8571E-1    0.9105E-3    -.1815   
    4.662       0.1555E-2    -.8509E-1    0.9132E-3    -.1811   
    4.672       0.1560E-2    -.8446E-1    0.9160E-3    -.1807   
    4.682       0.1566E-2    -.8384E-1    0.9188E-3    -.1804   
    4.692       0.1572E-2    -.8321E-1    0.9216E-3    -.1800   
    4.702       0.1578E-2    -.8258E-1    0.9244E-3    -.1796   
    4.712       0.1584E-2    -.8194E-1    0.9272E-3    -.1793   
    4.722       0.1590E-2    -.8131E-1    0.9301E-3    -.1789   
    4.732       0.1596E-2    -.8067E-1    0.9329E-3    -.1785   
    4.742       0.1602E-2    -.8003E-1    0.9357E-3    -.1781   
    4.752       0.1608E-2    -.7938E-1    0.9386E-3    -.1778   
    4.762       0.1614E-2    -.7874E-1    0.9414E-3    -.1774   
    4.772       0.1620E-2    -.7809E-1    0.9443E-3    -.1770   
    4.782       0.1626E-2    -.7744E-1    0.9471E-3    -.1766   
    4.792       0.1632E-2    -.7678E-1    0.9500E-3    -.1763   
    4.802       0.1638E-2    -.7613E-1    0.9529E-3    -.1759   
    4.812       0.1644E-2    -.7547E-1    0.9557E-3    -.1755   
    4.822       0.1650E-2    -.7481E-1    0.9586E-3    -.1751   
    4.832       0.1656E-2    -.7415E-1    0.9615E-3    -.1747   
    4.842       0.1663E-2    -.7348E-1    0.9644E-3    -.1743   
    4.852       0.1669E-2    -.7281E-1    0.9673E-3    -.1740   
    4.862       0.1675E-2    -.7214E-1    0.9702E-3    -.1736   
    4.872       0.1682E-2    -.7147E-1    0.9732E-3    -.1732   
    4.882       0.1688E-2    -.7080E-1    0.9761E-3    -.1728   
    4.892       0.1694E-2    -.7012E-1    0.9790E-3    -.1724   
    4.902       0.1701E-2    -.6944E-1    0.9820E-3    -.1720   
    4.912       0.1707E-2    -.6875E-1    0.9849E-3    -.1716   
    4.922       0.1714E-2    -.6807E-1    0.9879E-3    -.1712   
    4.932       0.1720E-2    -.6738E-1    0.9908E-3    -.1708   
    4.942       0.1727E-2    -.6669E-1    0.9938E-3    -.1704   
    4.952       0.1733E-2    -.6599E-1    0.9968E-3    -.1700   
    4.962       0.1740E-2    -.6530E-1    0.9998E-3    -.1696   
    4.972       0.1746E-2    -.6460E-1    0.1003E-2    -.1692   
    4.982       0.1753E-2    -.6390E-1    0.1006E-2    -.1688   
    4.992       0.1760E-2    -.6319E-1    0.1009E-2    -.1684   
    5.003       0.1767E-2    -.6249E-1    0.1012E-2    -.1680   
    5.013       0.1773E-2    -.6178E-1    0.1015E-2    -.1676   
    5.023       0.1780E-2    -.6106E-1    0.1018E-2    -.1672   
    5.033       0.1787E-2    -.6035E-1    0.1021E-2    -.1668   
    5.043       0.1794E-2    -.5963E-1    0.1024E-2    -.1664   
    5.053       0.1802E-2    -.5891E-1    0.1027E-2    -.1660   
    5.063       0.1809E-2    -.5819E-1    0.1030E-2    -.1655   
    5.073       0.1817E-2    -.5746E-1    0.1033E-2    -.1651   
    5.083       0.1825E-2    -.5673E-1    0.1036E-2    -.1647   
    5.093       0.1833E-2    -.5600E-1    0.1039E-2    -.1643   
    5.103       0.1840E-2    -.5527E-1    0.1042E-2    -.1639   
    5.113       0.1845E-2    -.5453E-1    0.1045E-2    -.1635   
    5.123       0.1852E-2    -.5379E-1    0.1049E-2    -.1630   
    5.133       0.1858E-2    -.5305E-1    0.1052E-2    -.1626   
    5.143       0.1865E-2    -.5230E-1    0.1055E-2    -.1622   
    5.153       0.1872E-2    -.5155E-1    0.1058E-2    -.1618   
    5.163       0.1879E-2    -.5080E-1    0.1061E-2    -.1614   
    5.173       0.1886E-2    -.5005E-1    0.1064E-2    -.1609   
    5.183       0.1893E-2    -.4929E-1    0.1067E-2    -.1605   
    5.193       0.1901E-2    -.4853E-1    0.1071E-2    -.1601   
    5.203       0.1908E-2    -.4777E-1    0.1074E-2    -.1596   
    5.213       0.1915E-2    -.4700E-1    0.1077E-2    -.1592   
    5.223       0.1923E-2    -.4623E-1    0.1080E-2    -.1588   
    5.233       0.1930E-2    -.4546E-1    0.1083E-2    -.1583   
    5.243       0.1938E-2    -.4468E-1    0.1086E-2    -.1579   
    5.253       0.1946E-2    -.4390E-1    0.1090E-2    -.1575   
    5.263       0.1953E-2    -.4312E-1    0.1093E-2    -.1570   
    5.273       0.1961E-2    -.4234E-1    0.1096E-2    -.1566   
    5.283       0.1969E-2    -.4155E-1    0.1099E-2    -.1562   
    5.293       0.1977E-2    -.4076E-1    0.1103E-2    -.1557   
    5.303       0.1984E-2    -.3996E-1    0.1106E-2    -.1553   
    5.313       0.1992E-2    -.3917E-1    0.1109E-2    -.1548   
    5.323       0.2000E-2    -.3837E-1    0.1112E-2    -.1544   
    5.333       0.2008E-2    -.3756E-1    0.1116E-2    -.1539   
    5.343       0.2016E-2    -.3675E-1    0.1119E-2    -.1535   
    5.353       0.2024E-2    -.3594E-1    0.1122E-2    -.1530   
    5.363       0.2033E-2    -.3513E-1    0.1126E-2    -.1526   
    5.373       0.2041E-2    -.3431E-1    0.1129E-2    -.1521   
    5.383       0.2049E-2    -.3349E-1    0.1132E-2    -.1517   
    5.393       0.2057E-2    -.3267E-1    0.1135E-2    -.1512   
    5.404       0.2066E-2    -.3184E-1    0.1139E-2    -.1508   
    5.414       0.2074E-2    -.3101E-1    0.1142E-2    -.1503   
    5.424       0.2082E-2    -.3018E-1    0.1146E-2    -.1499   
    5.434       0.2091E-2    -.2934E-1    0.1149E-2    -.1494   
    5.444       0.2100E-2    -.2850E-1    0.1152E-2    -.1489   
    5.454       0.2108E-2    -.2766E-1    0.1156E-2    -.1485   
    5.464       0.2117E-2    -.2681E-1    0.1159E-2    -.1480   
    5.474       0.2126E-2    -.2596E-1    0.1162E-2    -.1475   
    5.484       0.2135E-2    -.2511E-1    0.1166E-2    -.1471   
    5.494       0.2144E-2    -.2425E-1    0.1169E-2    -.1466   
    5.504       0.2153E-2    -.2339E-1    0.1173E-2    -.1461   
    5.514       0.2162E-2    -.2253E-1    0.1176E-2    -.1457   
    5.524       0.2171E-2    -.2166E-1    0.1180E-2    -.1452   
    5.534       0.2181E-2    -.2078E-1    0.1183E-2    -.1447   
    5.544       0.2191E-2    -.1991E-1    0.1187E-2    -.1442   
    5.554       0.2201E-2    -.1903E-1    0.1190E-2    -.1438   
    5.564       0.2210E-2    -.1815E-1    0.1194E-2    -.1433   
    5.574       0.2219E-2    -.1726E-1    0.1197E-2    -.1428   
    5.584       0.2227E-2    -.1637E-1    0.1201E-2    -.1423   
    5.594       0.2236E-2    -.1548E-1    0.1204E-2    -.1418   
    5.604       0.2245E-2    -.1458E-1    0.1208E-2    -.1414   
    5.614       0.2254E-2    -.1368E-1    0.1211E-2    -.1409   
    5.624       0.2264E-2    -.1277E-1    0.1215E-2    -.1404   
    5.634       0.2274E-2    -.1186E-1    0.1218E-2    -.1399   
    5.644       0.2283E-2    -.1095E-1    0.1222E-2    -.1394   
    5.654       0.2293E-2    -.1003E-1    0.1225E-2    -.1389   
    5.664       0.2303E-2    -.9112E-2    0.1229E-2    -.1384   
    5.674       0.2313E-2    -.8186E-2    0.1233E-2    -.1379   
    5.684       0.2323E-2    -.7257E-2    0.1236E-2    -.1374   
    5.694       0.2333E-2    -.6323E-2    0.1240E-2    -.1369   
    5.704       0.2344E-2    -.5386E-2    0.1243E-2    -.1365   
    5.714       0.2354E-2    -.4444E-2    0.1247E-2    -.1360   
    5.724       0.2364E-2    -.3498E-2    0.1251E-2    -.1355   
    5.734       0.2375E-2    -.2548E-2    0.1254E-2    -.1349   
    5.744       0.2385E-2    -.1593E-2    0.1258E-2    -.1344   
    5.754       0.2396E-2    -.6347E-3    0.1262E-2    -.1339   
    5.764       0.2407E-2    0.3282E-3    0.1265E-2    -.1334   
    5.774       0.2418E-2    0.1296E-2    0.1269E-2    -.1329   
    5.784       0.2429E-2    0.2267E-2    0.1273E-2    -.1324   
    5.794       0.2440E-2    0.3243E-2    0.1276E-2    -.1319   
    5.805       0.2451E-2    0.4224E-2    0.1280E-2    -.1314   
    5.815       0.2462E-2    0.5209E-2    0.1284E-2    -.1309   
    5.825       0.2474E-2    0.6198E-2    0.1288E-2    -.1304   
    5.835       0.2485E-2    0.7193E-2    0.1291E-2    -.1298   
    5.845       0.2497E-2    0.8191E-2    0.1295E-2    -.1293   
    5.855       0.2508E-2    0.9195E-2    0.1299E-2    -.1288   
    5.865       0.2520E-2    0.1020E-1    0.1303E-2    -.1283   
    5.875       0.2532E-2    0.1122E-1    0.1307E-2    -.1278   
    5.885       0.2544E-2    0.1223E-1    0.1310E-2    -.1272   
    5.895       0.2556E-2    0.1326E-1    0.1314E-2    -.1267   
    5.905       0.2568E-2    0.1428E-1    0.1318E-2    -.1262   
    5.915       0.2581E-2    0.1532E-1    0.1322E-2    -.1257   
    5.925       0.2593E-2    0.1635E-1    0.1326E-2    -.1251   
    5.935       0.2606E-2    0.1740E-1    0.1330E-2    -.1246   
    5.945       0.2619E-2    0.1844E-1    0.1334E-2    -.1241   
    5.955       0.2631E-2    0.1950E-1    0.1338E-2    -.1235   
    5.965       0.2644E-2    0.2055E-1    0.1341E-2    -.1230   
    5.975       0.2658E-2    0.2162E-1    0.1345E-2    -.1224   
    5.985       0.2671E-2    0.2268E-1    0.1349E-2    -.1219   
    5.995       0.2684E-2    0.2376E-1    0.1353E-2    -.1214   
    6.005       0.2698E-2    0.2484E-1    0.1357E-2    -.1208   
    6.015       0.2712E-2    0.2592E-1    0.1361E-2    -.1203   
    6.025       0.2726E-2    0.2701E-1    0.1365E-2    -.1197   
    6.035       0.2740E-2    0.2811E-1    0.1369E-2    -.1192   
    6.045       0.2754E-2    0.2921E-1    0.1373E-2    -.1186   
    6.055       0.2768E-2    0.3031E-1    0.1377E-2    -.1181   
    6.065       0.2783E-2    0.3143E-1    0.1381E-2    -.1175   
    6.075       0.2797E-2    0.3255E-1    0.1385E-2    -.1170   
    6.085       0.2812E-2    0.3367E-1    0.1389E-2    -.1164   
    6.095       0.2827E-2    0.3480E-1    0.1393E-2    -.1159   
    6.105       0.2843E-2    0.3594E-1    0.1397E-2    -.1153   
    6.115       0.2858E-2    0.3708E-1    0.1402E-2    -.1147   
    6.125       0.2874E-2    0.3823E-1    0.1406E-2    -.1142   
    6.135       0.2890E-2    0.3939E-1    0.1410E-2    -.1136   
    6.145       0.2906E-2    0.4055E-1    0.1414E-2    -.1130   
    6.155       0.2922E-2    0.4172E-1    0.1418E-2    -.1125   
    6.165       0.2938E-2    0.4289E-1    0.1422E-2    -.1119   
    6.175       0.2955E-2    0.4407E-1    0.1426E-2    -.1113   
    6.185       0.2972E-2    0.4526E-1    0.1431E-2    -.1108   
    6.195       0.2989E-2    0.4646E-1    0.1435E-2    -.1102   
    6.206       0.3007E-2    0.4766E-1    0.1439E-2    -.1096   
    6.216       0.3025E-2    0.4887E-1    0.1443E-2    -.1090   
    6.226       0.3043E-2    0.5008E-1    0.1447E-2    -.1085   
    6.236       0.3061E-2    0.5131E-1    0.1452E-2    -.1079   
    6.246       0.3079E-2    0.5254E-1    0.1456E-2    -.1073   
    6.256       0.3098E-2    0.5378E-1    0.1460E-2    -.1067   
    6.266       0.3117E-2    0.5502E-1    0.1465E-2    -.1061   
    6.276       0.3137E-2    0.5628E-1    0.1469E-2    -.1055   
    6.286       0.3157E-2    0.5754E-1    0.1473E-2    -.1049   
    6.296       0.3177E-2    0.5881E-1    0.1477E-2    -.1043   
    6.306       0.3197E-2    0.6008E-1    0.1482E-2    -.1038   
    6.316       0.3218E-2    0.6137E-1    0.1486E-2    -.1032   
    6.326       0.3239E-2    0.6266E-1    0.1491E-2    -.1026   
    6.336       0.3261E-2    0.6397E-1    0.1495E-2    -.1020   
    6.346       0.3282E-2    0.6528E-1    0.1499E-2    -.1014   
    6.356       0.3305E-2    0.6660E-1    0.1504E-2    -.1008   
    6.366       0.3327E-2    0.6793E-1    0.1508E-2    -.1002   
    6.376       0.3351E-2    0.6927E-1    0.1513E-2    -.9955E-1
    6.386       0.3374E-2    0.7061E-1    0.1517E-2    -.9894E-1
    6.396       0.3398E-2    0.7197E-1    0.1522E-2    -.9833E-1
    6.406       0.3423E-2    0.7334E-1    0.1526E-2    -.9772E-1
    6.416       0.3448E-2    0.7472E-1    0.1531E-2    -.9711E-1
    6.426       0.3474E-2    0.7610E-1    0.1535E-2    -.9650E-1
    6.436       0.3500E-2    0.7750E-1    0.1540E-2    -.9588E-1
    6.446       0.3526E-2    0.7891E-1    0.1544E-2    -.9526E-1
    6.456       0.3554E-2    0.8033E-1    0.1549E-2    -.9464E-1
    6.466       0.3581E-2    0.8176E-1    0.1553E-2    -.9402E-1
    6.476       0.3610E-2    0.8320E-1    0.1558E-2    -.9339E-1
    6.486       0.3639E-2    0.8465E-1    0.1563E-2    -.9277E-1
    6.496       0.3669E-2    0.8612E-1    0.1567E-2    -.9214E-1
    6.506       0.3700E-2    0.8759E-1    0.1572E-2    -.9151E-1
    6.516       0.3731E-2    0.8908E-1    0.1577E-2    -.9088E-1
    6.526       0.3763E-2    0.9059E-1    0.1581E-2    -.9025E-1
    6.536       0.3796E-2    0.9210E-1    0.1586E-2    -.8961E-1
    6.546       0.3830E-2    0.9363E-1    0.1591E-2    -.8898E-1
    6.556       0.3864E-2    0.9517E-1    0.1595E-2    -.8834E-1
    6.566       0.3900E-2    0.9673E-1    0.1600E-2    -.8770E-1
    6.576       0.3937E-2    0.9830E-1    0.1605E-2    -.8705E-1
    6.586       0.3974E-2    0.9988E-1    0.1610E-2    -.8641E-1
    6.596       0.4013E-2    0.1015       0.1615E-2    -.8576E-1
    6.607       0.4053E-2    0.1031       0.1619E-2    -.8511E-1
    6.617       0.4094E-2    0.1047       0.1624E-2    -.8446E-1
    6.627       0.4136E-2    0.1064       0.1629E-2    -.8381E-1
    6.637       0.4180E-2    0.1080       0.1634E-2    -.8316E-1
    6.647       0.4225E-2    0.1097       0.1639E-2    -.8250E-1
    6.657       0.4271E-2    0.1114       0.1644E-2    -.8184E-1
    6.667       0.4319E-2    0.1132       0.1649E-2    -.8118E-1
    6.677       0.4369E-2    0.1149       0.1654E-2    -.8052E-1
    6.687       0.4420E-2    0.1167       0.1659E-2    -.7986E-1
    6.697       0.4473E-2    0.1184       0.1664E-2    -.7919E-1
    6.707       0.4528E-2    0.1202       0.1669E-2    -.7852E-1
    6.717       0.4585E-2    0.1221       0.1674E-2    -.7785E-1
    6.727       0.4644E-2    0.1239       0.1679E-2    -.7718E-1
    6.737       0.4706E-2    0.1258       0.1684E-2    -.7651E-1
    6.747       0.4770E-2    0.1277       0.1689E-2    -.7583E-1
    6.757       0.4836E-2    0.1296       0.1694E-2    -.7515E-1
    6.767       0.4905E-2    0.1316       0.1699E-2    -.7447E-1
    6.777       0.4978E-2    0.1335       0.1704E-2    -.7379E-1
    6.787       0.5053E-2    0.1355       0.1709E-2    -.7310E-1
    6.797       0.5131E-2    0.1376       0.1715E-2    -.7242E-1
    6.807       0.5213E-2    0.1397       0.1720E-2    -.7173E-1
    6.817       0.5299E-2    0.1418       0.1725E-2    -.7104E-1
    6.827       0.5389E-2    0.1439       0.1730E-2    -.7035E-1
    6.837       0.5484E-2    0.1461       0.1736E-2    -.6965E-1
    6.847       0.5582E-2    0.1483       0.1741E-2    -.6895E-1
    6.857       0.5686E-2    0.1505       0.1746E-2    -.6825E-1
    6.867       0.5796E-2    0.1528       0.1752E-2    -.6755E-1
    6.877       0.5911E-2    0.1552       0.1757E-2    -.6685E-1
    6.887       0.6033E-2    0.1576       0.1762E-2    -.6614E-1
    6.897       0.6161E-2    0.1600       0.1768E-2    -.6544E-1
    6.907       0.6297E-2    0.1625       0.1773E-2    -.6473E-1
    6.917       0.6441E-2    0.1650       0.1779E-2    -.6401E-1
    6.927       0.6594E-2    0.1677       0.1784E-2    -.6330E-1
    6.937       0.6756E-2    0.1703       0.1790E-2    -.6258E-1
    6.947       0.6928E-2    0.1731       0.1795E-2    -.6186E-1
    6.957       0.7112E-2    0.1759       0.1801E-2    -.6114E-1
    6.967       0.7309E-2    0.1787       0.1807E-2    -.6042E-1
    6.977       0.7519E-2    0.1817       0.1812E-2    -.5969E-1
    6.987       0.7744E-2    0.1847       0.1818E-2    -.5897E-1
    6.997       0.7986E-2    0.1879       0.1824E-2    -.5824E-1
    7.008       0.8247E-2    0.1911       0.1829E-2    -.5750E-1
    7.018       0.8527E-2    0.1945       0.1835E-2    -.5677E-1
    7.028       0.8831E-2    0.1979       0.1841E-2    -.5603E-1
    7.038       0.9160E-2    0.2015       0.1847E-2    -.5529E-1
    7.048       0.9518E-2    0.2052       0.1853E-2    -.5455E-1
    7.058       0.9908E-2    0.2091       0.1859E-2    -.5381E-1
    7.068       0.1033E-1    0.2131       0.1865E-2    -.5306E-1
    7.078       0.1080E-1    0.2173       0.1871E-2    -.5231E-1
    7.088       0.1131E-1    0.2217       0.1877E-2    -.5156E-1
    7.098       0.1188E-1    0.2263       0.1883E-2    -.5081E-1
    7.108       0.1250E-1    0.2311       0.1889E-2    -.5005E-1
    7.118       0.1320E-1    0.2362       0.1895E-2    -.4929E-1
    7.128       0.1398E-1    0.2416       0.1901E-2    -.4853E-1
    7.138       0.1485E-1    0.2473       0.1908E-2    -.4777E-1
    7.148       0.1583E-1    0.2533       0.1914E-2    -.4700E-1
    7.158       0.1694E-1    0.2598       0.1920E-2    -.4623E-1
    7.168       0.1820E-1    0.2667       0.1927E-2    -.4546E-1
    7.178       0.1965E-1    0.2741       0.1933E-2    -.4469E-1
    7.188       0.2132E-1    0.2821       0.1940E-2    -.4391E-1
    7.198       0.2326E-1    0.2908       0.1946E-2    -.4313E-1
    7.208       0.2553E-1    0.3002       0.1953E-2    -.4235E-1
    7.218       0.2820E-1    0.3106       0.1960E-2    -.4156E-1
    7.228       0.3139E-1    0.3220       0.1966E-2    -.4078E-1
    7.238       0.3524E-1    0.3347       0.1973E-2    -.3999E-1
    7.248       0.3993E-1    0.3489       0.1980E-2    -.3919E-1
    7.258       0.4572E-1    0.3650       0.1987E-2    -.3840E-1
    7.268       0.5300E-1    0.3832       0.1994E-2    -.3760E-1
    7.278       0.6230E-1    0.4041       0.2002E-2    -.3680E-1
    7.288       0.7443E-1    0.4284       0.2009E-2    -.3600E-1
    7.298       0.9062E-1    0.4568       0.2016E-2    -.3519E-1
    7.308       0.1128       0.4904       0.2024E-2    -.3438E-1
    7.318       0.1443       0.5304       0.2032E-2    -.3357E-1
    7.328       0.1905       0.5775       0.2039E-2    -.3275E-1
    7.338       0.2609       0.6316       0.2047E-2    -.3193E-1
    7.348       0.3720       0.6865       0.2056E-2    -.3111E-1
    7.358       0.5491       0.7185       0.2064E-2    -.3028E-1
    7.368       0.8069       0.6574       0.2072E-2    -.2945E-1
    7.378        1.057       0.3879       0.2081E-2    -.2862E-1
    7.388        1.059       -.3309E-1    0.2090E-2    -.2778E-1
    7.398       0.8114       -.3063       0.2099E-2    -.2695E-1
    7.409       0.5526       -.3697       0.2109E-2    -.2610E-1
    7.419       0.3744       -.3384       0.2118E-2    -.2525E-1
    7.429       0.2624       -.2835       0.2128E-2    -.2440E-1
    7.439       0.1915       -.2293       0.2139E-2    -.2355E-1
    7.449       0.1451       -.1819       0.2150E-2    -.2269E-1
    7.459       0.1135       -.1418       0.2161E-2    -.2182E-1
    7.469       0.9124E-1    -.1080       0.2173E-2    -.2096E-1
    7.479       0.7501E-1    -.7934E-1    0.2185E-2    -.2008E-1
    7.489       0.6287E-1    -.5485E-1    0.2199E-2    -.1920E-1
    7.499       0.5357E-1    -.3370E-1    0.2212E-2    -.1832E-1
    7.509       0.4631E-1    -.1525E-1    0.2227E-2    -.1743E-1
    7.519       0.4053E-1    0.9981E-3    0.2243E-2    -.1654E-1
    7.529       0.3587E-1    0.1545E-1    0.2260E-2    -.1563E-1
    7.539       0.3206E-1    0.2840E-1    0.2279E-2    -.1473E-1
    7.549       0.2890E-1    0.4010E-1    0.2299E-2    -.1381E-1
    7.559       0.2626E-1    0.5074E-1    0.2321E-2    -.1288E-1
    7.569       0.2403E-1    0.6048E-1    0.2346E-2    -.1195E-1
    7.579       0.2212E-1    0.6946E-1    0.2373E-2    -.1101E-1
    7.589       0.2049E-1    0.7778E-1    0.2404E-2    -.1005E-1
    7.599       0.1907E-1    0.8553E-1    0.2440E-2    -.9087E-2
    7.609       0.1784E-1    0.9278E-1    0.2481E-2    -.8105E-2
    7.619       0.1677E-1    0.9960E-1    0.2529E-2    -.7108E-2
    7.629       0.1583E-1    0.1060       0.2585E-2    -.6092E-2
    7.639       0.1500E-1    0.1121       0.2653E-2    -.5053E-2
    7.649       0.1426E-1    0.1179       0.2737E-2    -.3989E-2
    7.659       0.1361E-1    0.1234       0.2841E-2    -.2893E-2
    7.669       0.1302E-1    0.1287       0.2974E-2    -.1758E-2
    7.679       0.1250E-1    0.1338       0.3148E-2    -.5770E-3
    7.689       0.1203E-1    0.1387       0.3382E-2    0.6619E-3
    7.699       0.1161E-1    0.1434       0.3707E-2    0.1971E-2
    7.709       0.1123E-1    0.1479       0.4174E-2    0.3364E-2
    7.719       0.1088E-1    0.1523       0.4874E-2    0.4843E-2
    7.729       0.1058E-1    0.1566       0.5964E-2    0.6372E-2
    7.739       0.1030E-1    0.1607       0.7699E-2    0.7776E-2
      7.7494       0.0100       0.1648       0.0104       0.0085
    7.759       0.9801E-2    0.1687       0.1352E-1    0.7246E-2
    7.769       0.9586E-2    0.1726       0.1483E-1    0.3582E-2
    7.779       0.9392E-2    0.1764       0.1270E-1    0.4480E-3
    7.789       0.9216E-2    0.1801       0.9547E-2    -.9050E-4
    7.799       0.9056E-2    0.1837       0.7175E-2    0.9246E-3
    7.810       0.8911E-2    0.1873       0.5666E-2    0.2419E-2
    7.820       0.8780E-2    0.1909       0.4721E-2    0.3969E-2
    7.830       0.8662E-2    0.1943       0.4112E-2    0.5457E-2
    7.840       0.8556E-2    0.1978       0.3706E-2    0.6863E-2
    7.850       0.8460E-2    0.2012       0.3425E-2    0.8194E-2
    7.860       0.8375E-2    0.2046       0.3225E-2    0.9465E-2
    7.870       0.8299E-2    0.2079       0.3078E-2    0.1069E-1
    7.880       0.8233E-2    0.2112       0.2968E-2    0.1187E-1
    7.890       0.8175E-2    0.2145       0.2885E-2    0.1302E-1
    7.900       0.8126E-2    0.2177       0.2820E-2    0.1415E-1
    7.910       0.8085E-2    0.2210       0.2770E-2    0.1526E-1
    7.920       0.8052E-2    0.2242       0.2730E-2    0.1636E-1
    7.930       0.8027E-2    0.2274       0.2699E-2    0.1744E-1
    7.940       0.8009E-2    0.2306       0.2674E-2    0.1851E-1
    7.950       0.7998E-2    0.2338       0.2654E-2    0.1958E-1
    7.960       0.7994E-2    0.2370       0.2639E-2    0.2063E-1
    7.970       0.7997E-2    0.2402       0.2626E-2    0.2169E-1
    7.980       0.8009E-2    0.2434       0.2617E-2    0.2274E-1
    7.990       0.8029E-2    0.2466       0.2609E-2    0.2378E-1
    8.000       0.8057E-2    0.2499       0.2604E-2    0.2483E-1
# 
# 01/03/2018 at 12:28 YAMBO @ anomaly [start]
# 01/03/2018 at 12:28                 [end]
#  
# Timing   [Min/Max/Average]: 02s/02s/02s
#
# .-Input file : yambo.in
# | optics                         # [R OPT] Optics
# | bse                            # [R BSE] Bethe Salpeter Equation.
# | bsk                            # [R BSK] Bethe Salpeter Equation kernel
# | bss                            # [R BSS] Bethe Salpeter Equation solver
# | em1s                           # [R Xs] Static Inverse Dielectric Matrix
# | BoseTemp= 0.000000     eV      # Bosonic Temperature
# | FFTGvecs=  3473        RL      # [FFT] Plane-waves
# | X_Threads= 1                   # [OPENMP/X] Number of threads for response functions
# | DIP_Threads= 1                 # [OPENMP/X] Number of threads for dipoles
# | K_Threads= 1                   # [OPENMP/BSK] Number of threads for response functions
# | Chimod= "hartree"              # [X] IP/Hartree/ALDA/LRC/BSfxc
# | BSEmod= "retarded"             # [BSE] resonant/retarded/coupling
# | BSKmod= "SEX"                  # [BSE] IP/Hartree/HF/ALDA/SEX/BSfxc
# | BSSmod= "d"                    # [BSS] (h)aydock/(d)iagonalization/(i)nversion/(t)ddft`
# | BSENGexx=  51          RL      # [BSK] Exchange components
# | BSENGBlk=  51          RL      # [BSK] Screened interaction block size
# | #WehCpl                        # [BSK] eh interaction included also in coupling
# | % KfnQP_E
# |  2.400000 | 1.000000 | 1.000000 |        # [EXTQP BSK BSS] E parameters  (c/v) eV|adim|adim
# | %
# | % BEnRange
# |  4.000000 | 8.000000 | eV      # [BSS] Energy range
# | %
# | % BDmRange
# |   0.02500 |  0.02500 | eV      # [BSS] Damping range
# | %
# | BEnSteps=  400                 # [BSS] Energy steps
# | % BLongDir
# | 0.5774E-5 |0.5774E-5 |0.5774E-5 |        # [BSS] [cc] Electric Field
# | %
# | % BSEBands
# |   7 | 10 |                     # [BSK] Bands range
# | %
# | % BSEEhEny
# |  0.000000 | 8.000000 | eV      # [BSK] Electron-hole energy range
# | %
# | % BndsRnXs
# |    1 |  60 |                   # [Xs] Polarization function bands
# | %
# | NGsBlkXs=  51          RL      # [Xs] Response block size
# | % DmRngeXs
# | 0.1000E-2 |0.1000E-2 | eV      # [Xs] Damping range
# | %
# | % LongDrXs
# | 0.1000E-4 | 0.000    | 0.000    |        # [Xs] [cc] Electric Field
# | %
