#  __      __   ______   __       __  _______    ______               
# |  \    /  \ /      \ |  \     /  \|       \  /      \              
#  \$$\  /  $$|  $$$$$$\| $$\   /  $$| $$$$$$$\|  $$$$$$\             
#   \$$\/  $$ | $$__| $$| $$$\ /  $$$| $$__/ $$| $$  | $$             
#    \$$  $$  | $$    $$| $$$$\  $$$$| $$    $$| $$  | $$             
#     \$$$$   | $$$$$$$$| $$\$$ $$ $$| $$$$$$$\| $$  | $$             
#     | $$    | $$  | $$| $$ \$$$| $$| $$__/ $$| $$__/ $$             
#     | $$    | $$  | $$| $$  \$ | $$| $$    $$ \$$    $$             
#      \$$     \$$   \$$ \$$      \$$ \$$$$$$$   \$$$$$$              
#                                                                     
# Version 5.2.0 Revision 22885 Hash (prev commit) 41fc9d87d4          
#                Branch is phys-dichroism                             
#         MPI+OpenMP+SLK+SLEPC+HDF5_MPI_IO Build                      
#                http://www.yambo-code.org                            
#
# Absorption @ Q(1):  0.999999975E-5   0.00000000      0.00000000    [q->0 direction]
#
# [GEN] GF Energies                               : Teter 93(XC)
# [GEN] Green`s Function                          : Retarded
#
# [GEN] Gauge                                     : Length
# [GEN] [r,Vnl] included                          : yes
#
# DIP band range                                  :   1  10
# DIP band range limits                           :  1  2
# DIP e/h energy range                            :  -1.00000000     -1.00000000    [eV]
# RL vectors in the sum                           :   8385
# [r,Vnl] included                                : yes
# Bands ordered                                   : yes
# Direct v evaluation                             : no
# Approach used                                   : G-space v
# Dipoles computed                                : R V P
# Wavefunctions                                   : Teter 93(XC)
#
#
# [K] Identifier                                  :   9816
# [K] Dimension                                   :   9
# [K] Bands                                       :   1  10
# [K] Exchange res                                : yes
# [K] Correlation res                             : no
# [K] Kernel`s coupling                           : yes
# [K] Exchange cpl                                : yes
# [K] Correlation cpl                             : no
# [K] W interaction is bare                       : no
# [K] ALDA kernel in R-space                      : yes
# [K] RL vectors exchange                         :   4945
# [K] E/h energy range                            :  -1.00000000     -1.00000000    [eV]
# [K] Coupling range                              :   100.000000      100.000000    [o/o]
# [X] Response Kind                               : BAR
#
# Diamagnetic term                                
# Ao                                              : -0.986616015    [nel]
# A                                               :   0.00000000    [nel]
#
#    E[1] [eV]          Im(eps)            Re(eps)            Im(eps_o)          Re(eps_o)
#
        0.000000           0.41497E-09        1.014076           0.000000           1.015202
        0.020020           0.291462E-6        1.014076           0.337752E-6        1.015202
        0.040040           0.582516E-6        1.014076           0.675509E-6        1.015202
        0.060060           0.873591E-6        1.014076           0.101329E-5        1.015203
        0.080080           0.116468E-5        1.014076           0.135110E-5        1.015203
        0.100100           0.145582E-5        1.014077           0.168896E-5        1.015203
        0.120120           0.174696E-5        1.014077           0.202684E-5        1.015203
        0.140140           0.203818E-5        1.014077           0.236479E-5        1.015204
        0.160160           0.232943E-5        1.014078           0.270281E-5        1.015204
        0.180180           0.262075E-5        1.014078           0.304088E-5        1.015205
        0.200200           0.291213E-5        1.014079           0.337903E-5        1.015206
        0.220220           0.320359E-5        1.014079           0.371730E-5        1.015206
        0.240240           0.349512E-5        1.014080           0.405565E-5        1.015207
        0.260260           0.378676E-5        1.014081           0.439413E-5        1.015208
        0.280280           0.407847E-5        1.014082           0.473271E-5        1.015209
        0.300300           0.437030E-5        1.014082           0.507144E-5        1.015210
        0.320320           0.466224E-5        1.014083           0.541029E-5        1.015211
        0.340340           0.495430E-5        1.014084           0.574929E-5        1.015212
        0.360360           0.524648E-5        1.014085           0.608845E-5        1.015213
        0.380380           0.553879E-5        1.014086           0.642776E-5        1.015214
        0.400400           0.583126E-5        1.014088           0.676727E-5        1.015216
        0.420420           0.612387E-5        1.014089           0.710696E-5        1.015217
        0.440440           0.641662E-5        1.014090           0.744683E-5        1.015219
        0.460460           0.670956E-5        1.014091           0.778691E-5        1.015220
        0.480480           0.700266E-5        1.014093           0.812720E-5        1.015222
        0.500500           0.729592E-5        1.014094           0.846771E-5        1.015223
        0.520521           0.758940E-5        1.014096           0.880846E-5        1.015225
        0.540541           0.788304E-5        1.014097           0.914945E-5        1.015227
        0.560561           0.817690E-5        1.014099           0.949068E-5        1.015229
        0.580581           0.847097E-5        1.014100           0.983217E-5        1.015231
        0.600601           0.876525E-5        1.014102           0.101739E-4        1.015233
        0.620621           0.905976E-5        1.014104           0.105160E-4        1.015235
        0.640641           0.935449E-5        1.014106           0.108583E-4        1.015237
        0.660661           0.964948E-5        1.014108           0.112009E-4        1.015239
        0.680681           0.994471E-5        1.014110           0.115438E-4        1.015241
        0.700701           0.102402E-4        1.014112           0.118871E-4        1.015244
        0.720721           0.105359E-4        1.014114           0.122307E-4        1.015246
        0.740741           0.108319E-4        1.014116           0.125746E-4        1.015249
        0.760761           0.111282E-4        1.014118           0.129188E-4        1.015251
        0.780781           0.114248E-4        1.014120           0.132634E-4        1.015254
        0.800801           0.117217E-4        1.014123           0.136084E-4        1.015257
        0.820821           0.120188E-4        1.014125           0.139537E-4        1.015259
        0.840841           0.123163E-4        1.014127           0.142995E-4        1.015262
        0.860861           0.126141E-4        1.014130           0.146456E-4        1.015265
        0.880881           0.129122E-4        1.014132           0.149921E-4        1.015268
        0.900901           0.132107E-4        1.014135           0.153390E-4        1.015271
        0.920921           0.135095E-4        1.014138           0.156864E-4        1.015274
        0.940941           0.138086E-4        1.014140           0.160342E-4        1.015277
        0.960961           0.141081E-4        1.014143           0.163824E-4        1.015280
        0.980981           0.144080E-4        1.014146           0.167311E-4        1.015284
        1.001001           0.147082E-4        1.014149           0.170802E-4        1.015287
        1.021021           0.150088E-4        1.014152           0.174299E-4        1.015291
        1.041041           0.153098E-4        1.014155           0.177799E-4        1.015294
        1.061061           0.156112E-4        1.014158           0.181306E-4        1.015298
        1.081081           0.159130E-4        1.014161           0.184816E-4        1.015301
        1.101101           0.162153E-4        1.014165           0.188332E-4        1.015305
        1.121121           0.165179E-4        1.014168           0.191854E-4        1.015309
        1.141141           0.168209E-4        1.014171           0.195380E-4        1.015313
        1.161161           0.171244E-4        1.014175           0.198912E-4        1.015317
        1.181181           0.174284E-4        1.014178           0.202450E-4        1.015321
        1.201201           0.177328E-4        1.014182           0.205993E-4        1.015325
        1.221221           0.180377E-4        1.014185           0.209542E-4        1.015329
        1.241241           0.183430E-4        1.014189           0.213097E-4        1.015333
        1.261261           0.186488E-4        1.014192           0.216657E-4        1.015338
        1.281281           0.189551E-4        1.014196           0.220224E-4        1.015342
        1.301301           0.192619E-4        1.014200           0.223797E-4        1.015346
        1.321321           0.195692E-4        1.014204           0.227376E-4        1.015351
        1.341341           0.198770E-4        1.014208           0.230961E-4        1.015356
        1.361361           0.201853E-4        1.014212           0.234553E-4        1.015360
        1.381381           0.204942E-4        1.014216           0.238152E-4        1.015365
        1.401401           0.208036E-4        1.014220           0.241757E-4        1.015370
        1.421421           0.211135E-4        1.014224           0.245369E-4        1.015375
        1.441441           0.214240E-4        1.014229           0.248988E-4        1.015380
        1.461461           0.217350E-4        1.014233           0.252614E-4        1.015385
        1.481481           0.220467E-4        1.014237           0.256247E-4        1.015390
        1.501501           0.223589E-4        1.014242           0.259887E-4        1.015395
        1.521521           0.226717E-4        1.014246           0.263535E-4        1.015400
        1.541541           0.229851E-4        1.014251           0.267190E-4        1.015405
        1.561561           0.232991E-4        1.014255           0.270853E-4        1.015411
        1.581581           0.236137E-4        1.014260           0.274523E-4        1.015416
        1.601601           0.239290E-4        1.014265           0.278201E-4        1.015422
        1.621622           0.242449E-4        1.014270           0.281887E-4        1.015427
        1.641642           0.245614E-4        1.014275           0.285581E-4        1.015433
        1.661662           0.248786E-4        1.014279           0.289283E-4        1.015439
        1.681682           0.251964E-4        1.014284           0.292993E-4        1.015445
        1.701702           0.255149E-4        1.014290           0.296712E-4        1.015450
        1.721722           0.258341E-4        1.014295           0.300439E-4        1.015457
        1.741742           0.261540E-4        1.014300           0.304175E-4        1.015463
        1.761762           0.264746E-4        1.014305           0.307919E-4        1.015469
        1.781782           0.267959E-4        1.014311           0.311673E-4        1.015475
        1.801802           0.271179E-4        1.014316           0.315435E-4        1.015481
        1.821822           0.274406E-4        1.014321           0.319206E-4        1.015488
        1.841842           0.277641E-4        1.014327           0.322987E-4        1.015494
        1.861862           0.280883E-4        1.014333           0.326776E-4        1.015500
        1.881882           0.284133E-4        1.014338           0.330576E-4        1.015507
        1.901902           0.287390E-4        1.014344           0.334384E-4        1.015514
        1.921922           0.290655E-4        1.014350           0.338203E-4        1.015520
        1.941942           0.293928E-4        1.014356           0.342031E-4        1.015527
        1.961962           0.297209E-4        1.014362           0.345869E-4        1.015534
        1.981982           0.300498E-4        1.014367           0.349717E-4        1.015541
        2.002002           0.303795E-4        1.014373           0.353575E-4        1.015548
        2.022022           0.307101E-4        1.014380           0.357444E-4        1.015555
        2.042042           0.310415E-4        1.014386           0.361323E-4        1.015562
        2.062062           0.313737E-4        1.014392           0.365212E-4        1.015570
        2.082082           0.317067E-4        1.014398           0.369113E-4        1.015577
        2.102102           0.320407E-4        1.014405           0.373024E-4        1.015584
        2.122122           0.323755E-4        1.014411           0.376946E-4        1.015592
        2.142142           0.327112E-4        1.014418           0.380879E-4        1.015599
        2.162162           0.330478E-4        1.014424           0.384823E-4        1.015607
        2.182182           0.333853E-4        1.014431           0.388779E-4        1.015615
        2.202202           0.337238E-4        1.014438           0.392746E-4        1.015623
        2.222222           0.340631E-4        1.014444           0.396724E-4        1.015631
        2.242242           0.344034E-4        1.014451           0.400715E-4        1.015639
        2.262262           0.347446E-4        1.014458           0.404717E-4        1.015647
        2.282282           0.350868E-4        1.014465           0.408731E-4        1.015655
        2.302302           0.354300E-4        1.014472           0.412758E-4        1.015663
        2.322322           0.357742E-4        1.014479           0.416797E-4        1.015671
        2.342342           0.361193E-4        1.014487           0.420848E-4        1.015680
        2.362362           0.364655E-4        1.014494           0.424912E-4        1.015688
        2.382382           0.368127E-4        1.014501           0.428988E-4        1.015697
        2.402402           0.371609E-4        1.014508           0.433077E-4        1.015705
        2.422422           0.375101E-4        1.014516           0.437180E-4        1.015714
        2.442442           0.378604E-4        1.014524           0.441295E-4        1.015723
        2.462462           0.382118E-4        1.014531           0.445424E-4        1.015732
        2.482482           0.385642E-4        1.014539           0.449566E-4        1.015741
        2.502502           0.389177E-4        1.014547           0.453722E-4        1.015750
        2.522522           0.392723E-4        1.014554           0.457891E-4        1.015759
        2.542542           0.396281E-4        1.014562           0.462075E-4        1.015768
        2.562562           0.399849E-4        1.014570           0.466272E-4        1.015777
        2.582582           0.403429E-4        1.014578           0.470484E-4        1.015787
        2.602602           0.407020E-4        1.014586           0.474710E-4        1.015796
        2.622622           0.410623E-4        1.014595           0.478951E-4        1.015806
        2.642642           0.414238E-4        1.014603           0.483206E-4        1.015815
        2.662663           0.417864E-4        1.014611           0.487476E-4        1.015825
        2.682683           0.421502E-4        1.014620           0.491761E-4        1.015835
        2.702703           0.425153E-4        1.014628           0.496061E-4        1.015845
        2.722723           0.428815E-4        1.014637           0.500377E-4        1.015855
        2.742743           0.432490E-4        1.014645           0.504708E-4        1.015865
        2.762763           0.436177E-4        1.014654           0.509054E-4        1.015875
        2.782783           0.439877E-4        1.014663           0.513416E-4        1.015885
        2.802803           0.443590E-4        1.014672           0.517795E-4        1.015895
        2.822823           0.447315E-4        1.014681           0.522189E-4        1.015906
        2.842843           0.451054E-4        1.014689           0.526600E-4        1.015916
        2.862863           0.454805E-4        1.014699           0.531027E-4        1.015927
        2.882883           0.458570E-4        1.014708           0.535471E-4        1.015938
        2.902903           0.462348E-4        1.014717           0.539932E-4        1.015948
        2.922923           0.466140E-4        1.014726           0.544409E-4        1.015959
        2.942943           0.469946E-4        1.014736           0.548904E-4        1.015970
        2.962963           0.473765E-4        1.014745           0.553416E-4        1.015981
        2.982983           0.477598E-4        1.014755           0.557946E-4        1.015992
        3.003003           0.481445E-4        1.014764           0.562494E-4        1.016004
        3.023023           0.485306E-4        1.014774           0.567059E-4        1.016015
        3.043043           0.489182E-4        1.014784           0.571642E-4        1.016026
        3.063063           0.493072E-4        1.014793           0.576244E-4        1.016038
        3.083083           0.496977E-4        1.014803           0.580864E-4        1.016049
        3.103103           0.500897E-4        1.014813           0.585503E-4        1.016061
        3.123123           0.504832E-4        1.014823           0.590160E-4        1.016073
        3.143143           0.508781E-4        1.014833           0.594837E-4        1.016085
        3.163163           0.512746E-4        1.014844           0.599532E-4        1.016097
        3.183183           0.516727E-4        1.014854           0.604248E-4        1.016109
        3.203203           0.520723E-4        1.014864           0.608982E-4        1.016121
        3.223223           0.524734E-4        1.014875           0.613737E-4        1.016133
        3.243243           0.528762E-4        1.014885           0.618512E-4        1.016145
        3.263263           0.532805E-4        1.014896           0.623306E-4        1.016158
        3.283283           0.536865E-4        1.014907           0.628122E-4        1.016170
        3.303303           0.540941E-4        1.014917           0.632957E-4        1.016183
        3.323323           0.545034E-4        1.014928           0.637814E-4        1.016196
        3.343343           0.549143E-4        1.014939           0.642692E-4        1.016208
        3.363363           0.553269E-4        1.014950           0.647590E-4        1.016221
        3.383383           0.557412E-4        1.014961           0.652511E-4        1.016234
        3.403403           0.561572E-4        1.014973           0.657453E-4        1.016248
        3.423423           0.565749E-4        1.014984           0.662417E-4        1.016261
        3.443443           0.569944E-4        1.014995           0.667403E-4        1.016274
        3.463463           0.574157E-4        1.015007           0.672411E-4        1.016287
        3.483483           0.578387E-4        1.015018           0.677442E-4        1.016301
        3.503503           0.582636E-4        1.015030           0.682496E-4        1.016315
        3.523524           0.586902E-4        1.015042           0.687572E-4        1.016328
        3.543543           0.591187E-4        1.015053           0.692672E-4        1.016342
        3.563564           0.595491E-4        1.015065           0.697796E-4        1.016356
        3.583583           0.599813E-4        1.015077           0.702943E-4        1.016370
        3.603603           0.604154E-4        1.015089           0.708114E-4        1.016384
        3.623623           0.608514E-4        1.015101           0.713309E-4        1.016398
        3.643643           0.612894E-4        1.015114           0.718528E-4        1.016413
        3.663663           0.617293E-4        1.015126           0.723773E-4        1.016427
        3.683683           0.621711E-4        1.015138           0.729042E-4        1.016442
        3.703704           0.626150E-4        1.015151           0.734336E-4        1.016456
        3.723723           0.630608E-4        1.015163           0.739656E-4        1.016471
        3.743744           0.635087E-4        1.015176           0.745001E-4        1.016486
        3.763763           0.639586E-4        1.015189           0.750373E-4        1.016501
        3.783784           0.644106E-4        1.015202           0.755770E-4        1.016516
        3.803803           0.648646E-4        1.015215           0.761194E-4        1.016531
        3.823824           0.653208E-4        1.015228           0.766645E-4        1.016546
        3.843843           0.657790E-4        1.015241           0.772122E-4        1.016562
        3.863864           0.662394E-4        1.015254           0.777627E-4        1.016577
        3.883883           0.667020E-4        1.015267           0.783160E-4        1.016593
        3.903904           0.671668E-4        1.015281           0.788720E-4        1.016609
        3.923924           0.676337E-4        1.015294           0.794308E-4        1.016624
        3.943944           0.681029E-4        1.015308           0.799924E-4        1.016640
        3.963964           0.685744E-4        1.015321           0.805569E-4        1.016657
        3.983984           0.690481E-4        1.015335           0.811243E-4        1.016673
        4.004004           0.695241E-4        1.015349           0.816946E-4        1.016689
        4.024024           0.700024E-4        1.015363           0.822679E-4        1.016705
        4.044044           0.704831E-4        1.015377           0.828442E-4        1.016722
        4.064064           0.709661E-4        1.015391           0.834234E-4        1.016739
        4.084084           0.714515E-4        1.015406           0.840057E-4        1.016755
        4.104104           0.719393E-4        1.015420           0.845910E-4        1.016772
        4.124124           0.724295E-4        1.015434           0.851795E-4        1.016789
        4.144144           0.729222E-4        1.015449           0.857710E-4        1.016806
        4.164164           0.734174E-4        1.015463           0.863658E-4        1.016824
        4.184184           0.739150E-4        1.015478           0.869637E-4        1.016841
        4.204204           0.744152E-4        1.015493           0.875649E-4        1.016858
        4.224224           0.749179E-4        1.015508           0.881692E-4        1.016876
        4.244244           0.754232E-4        1.015523           0.887769E-4        1.016894
        4.264264           0.759311E-4        1.015538           0.893880E-4        1.016911
        4.284284           0.764416E-4        1.015553           0.900023E-4        1.016929
        4.304304           0.769548E-4        1.015569           0.906201E-4        1.016948
        4.324324           0.774706E-4        1.015584           0.912413E-4        1.016966
        4.344344           0.779892E-4        1.015600           0.918659E-4        1.016984
        4.364364           0.785105E-4        1.015615           0.924940E-4        1.017002
        4.384384           0.790345E-4        1.015631           0.931257E-4        1.017021
        4.404404           0.795613E-4        1.015647           0.937609E-4        1.017040
        4.424424           0.800909E-4        1.015663           0.943997E-4        1.017058
        4.444444           0.806233E-4        1.015679           0.950421E-4        1.017077
        4.464464           0.811587E-4        1.015695           0.956883E-4        1.017097
        4.484484           0.816969E-4        1.015712           0.963381E-4        1.017116
        4.504504           0.822380E-4        1.015728           0.969916E-4        1.017135
        4.524524           0.827820E-4        1.015745           0.976490E-4        1.017155
        4.544544           0.833291E-4        1.015761           0.983102E-4        1.017174
        4.564565           0.838791E-4        1.015778           0.989752E-4        1.017194
        4.584584           0.844322E-4        1.015795           0.996442E-4        1.017214
        4.604605           0.849883E-4        1.015812           0.100317E-3        1.017234
        4.624624           0.855476E-4        1.015829           0.100994E-3        1.017254
        4.644644           0.861100E-4        1.015846           0.101675E-3        1.017274
        4.664664           0.866755E-4        1.015863           0.102360E-3        1.017295
        4.684684           0.872442E-4        1.015881           0.103049E-3        1.017315
        4.704704           0.878162E-4        1.015898           0.103742E-3        1.017336
        4.724724           0.883913E-4        1.015916           0.104439E-3        1.017357
        4.744744           0.889698E-4        1.015934           0.105141E-3        1.017378
        4.764764           0.895516E-4        1.015951           0.105847E-3        1.017399
        4.784785           0.901367E-4        1.015969           0.106557E-3        1.017420
        4.804804           0.907252E-4        1.015988           0.107272E-3        1.017442
        4.824825           0.913171E-4        1.016006           0.107991E-3        1.017463
        4.844844           0.919125E-4        1.016024           0.108714E-3        1.017485
        4.864865           0.925114E-4        1.016042           0.109442E-3        1.017507
        4.884884           0.931138E-4        1.016061           0.110174E-3        1.017529
        4.904905           0.937198E-4        1.016080           0.110911E-3        1.017551
        4.924924           0.943293E-4        1.016099           0.111653E-3        1.017573
        4.944945           0.949424E-4        1.016118           0.112400E-3        1.017595
        4.964964           0.955593E-4        1.016137           0.113151E-3        1.017618
        4.984985           0.961797E-4        1.016156           0.113907E-3        1.017641
        5.005005           0.968040E-4        1.016175           0.114667E-3        1.017663
        5.025025           0.974321E-4        1.016195           0.115433E-3        1.017686
        5.045045           0.980639E-4        1.016214           0.116204E-3        1.017710
        5.065065           0.986996E-4        1.016234           0.116979E-3        1.017733
        5.085085           0.993392E-4        1.016254           0.117760E-3        1.017757
        5.105105           0.999827E-4        1.016273           0.118546E-3        1.017780
        5.125125           0.100630E-3        1.016294           0.119336E-3        1.017804
        5.145144           0.101282E-3        1.016314           0.120133E-3        1.017828
        5.165165           0.101937E-3        1.016334           0.120934E-3        1.017852
        5.185184           0.102597E-3        1.016355           0.121741E-3        1.017876
        5.205205           0.103261E-3        1.016375           0.122553E-3        1.017901
        5.225225           0.103929E-3        1.016396           0.123370E-3        1.017925
        5.245245           0.104601E-3        1.016417           0.124193E-3        1.017950
        5.265265           0.105277E-3        1.016438           0.125022E-3        1.017975
        5.285285           0.105958E-3        1.016459           0.125856E-3        1.018000
        5.305305           0.106643E-3        1.016480           0.126695E-3        1.018026
        5.325325           0.107333E-3        1.016502           0.127541E-3        1.018051
        5.345345           0.108026E-3        1.016523           0.128392E-3        1.018077
        5.365365           0.108725E-3        1.016545           0.129249E-3        1.018102
        5.385385           0.109428E-3        1.016567           0.130113E-3        1.018128
        5.405405           0.110135E-3        1.016589           0.130982E-3        1.018154
        5.425425           0.110848E-3        1.016611           0.131857E-3        1.018181
        5.445445           0.111564E-3        1.016633           0.132738E-3        1.018207
        5.465465           0.112286E-3        1.016655           0.133625E-3        1.018234
        5.485485           0.113012E-3        1.016678           0.134519E-3        1.018261
        5.505505           0.113744E-3        1.016701           0.135419E-3        1.018288
        5.525526           0.114480E-3        1.016724           0.136325E-3        1.018315
        5.545545           0.115221E-3        1.016747           0.137238E-3        1.018342
        5.565566           0.115967E-3        1.016770           0.138157E-3        1.018370
        5.585585           0.116718E-3        1.016793           0.139083E-3        1.018398
        5.605606           0.117474E-3        1.016816           0.140016E-3        1.018425
        5.625625           0.118235E-3        1.016840           0.140955E-3        1.018454
        5.645645           0.119001E-3        1.016864           0.141901E-3        1.018482
        5.665665           0.119773E-3        1.016888           0.142854E-3        1.018510
        5.685685           0.120550E-3        1.016912           0.143814E-3        1.018539
        5.705705           0.121332E-3        1.016936           0.144781E-3        1.018568
        5.725725           0.122120E-3        1.016960           0.145756E-3        1.018597
        5.745746           0.122913E-3        1.016985           0.146737E-3        1.018626
        5.765765           0.123712E-3        1.017009           0.147726E-3        1.018656
        5.785786           0.124517E-3        1.017034           0.148722E-3        1.018685
        5.805805           0.125327E-3        1.017059           0.149725E-3        1.018715
        5.825826           0.126143E-3        1.017084           0.150736E-3        1.018745
        5.845845           0.126964E-3        1.017110           0.151755E-3        1.018776
        5.865866           0.127792E-3        1.017135           0.152781E-3        1.018806
        5.885885           0.128625E-3        1.017161           0.153815E-3        1.018837
        5.905906           0.129464E-3        1.017187           0.154858E-3        1.018868
        5.925925           0.130310E-3        1.017213           0.155908E-3        1.018899
        5.945946           0.131161E-3        1.017239           0.156966E-3        1.018930
        5.965966           0.132019E-3        1.017265           0.158032E-3        1.018962
        5.985986           0.132883E-3        1.017292           0.159107E-3        1.018993
        6.006006           0.133753E-3        1.017318           0.160190E-3        1.019025
        6.026026           0.134629E-3        1.017345           0.161281E-3        1.019057
        6.046046           0.135512E-3        1.017372           0.162381E-3        1.019090
        6.066066           0.136402E-3        1.017399           0.163489E-3        1.019122
        6.086086           0.137298E-3        1.017427           0.164607E-3        1.019155
        6.106106           0.138201E-3        1.017454           0.165733E-3        1.019188
        6.126126           0.139111E-3        1.017482           0.166868E-3        1.019222
        6.146146           0.140027E-3        1.017510           0.168012E-3        1.019255
        6.166166           0.140950E-3        1.017538           0.169166E-3        1.019289
        6.186186           0.141881E-3        1.017566           0.170328E-3        1.019323
        6.206206           0.142818E-3        1.017595           0.171500E-3        1.019357
        6.226226           0.143763E-3        1.017624           0.172682E-3        1.019391
        6.246246           0.144714E-3        1.017653           0.173873E-3        1.019426
        6.266266           0.145673E-3        1.017682           0.175074E-3        1.019461
        6.286286           0.146640E-3        1.017711           0.176285E-3        1.019496
        6.306306           0.147614E-3        1.017740           0.177505E-3        1.019531
        6.326326           0.148595E-3        1.017770           0.178736E-3        1.019567
        6.346346           0.149584E-3        1.017800           0.179977E-3        1.019603
        6.366366           0.150581E-3        1.017830           0.181228E-3        1.019639
        6.386386           0.151586E-3        1.017860           0.182490E-3        1.019675
        6.406406           0.152598E-3        1.017890           0.183762E-3        1.019712
        6.426426           0.153619E-3        1.017921           0.185046E-3        1.019749
        6.446446           0.154648E-3        1.017952           0.186340E-3        1.019786
        6.466466           0.155685E-3        1.017983           0.187644E-3        1.019824
        6.486486           0.156730E-3        1.018014           0.188961E-3        1.019861
        6.506506           0.157783E-3        1.018046           0.190288E-3        1.019899
        6.526526           0.158846E-3        1.018077           0.191626E-3        1.019938
        6.546546           0.159916E-3        1.018109           0.192977E-3        1.019976
        6.566566           0.160996E-3        1.018141           0.194339E-3        1.020015
        6.586586           0.162084E-3        1.018174           0.195712E-3        1.020054
        6.606606           0.163181E-3        1.018206           0.197098E-3        1.020093
        6.626626           0.164287E-3        1.018239           0.198496E-3        1.020133
        6.646646           0.165402E-3        1.018272           0.199906E-3        1.020172
        6.666666           0.166527E-3        1.018305           0.201328E-3        1.020213
        6.686686           0.167660E-3        1.018339           0.202764E-3        1.020253
        6.706707           0.168804E-3        1.018372           0.204211E-3        1.020294
        6.726726           0.169956E-3        1.018406           0.205672E-3        1.020335
        6.746747           0.171119E-3        1.018440           0.207146E-3        1.020376
        6.766766           0.172291E-3        1.018475           0.208633E-3        1.020418
        6.786787           0.173473E-3        1.018509           0.210134E-3        1.020460
        6.806807           0.174666E-3        1.018544           0.211648E-3        1.020502
        6.826826           0.175868E-3        1.018579           0.213176E-3        1.020544
        6.846846           0.177081E-3        1.018615           0.214718E-3        1.020587
        6.866867           0.178304E-3        1.018650           0.216274E-3        1.020630
        6.886887           0.179538E-3        1.018686           0.217844E-3        1.020674
        6.906906           0.180782E-3        1.018722           0.219429E-3        1.020717
        6.926927           0.182037E-3        1.018758           0.221028E-3        1.020761
        6.946947           0.183304E-3        1.018795           0.222643E-3        1.020806
        6.966967           0.184581E-3        1.018832           0.224272E-3        1.020851
        6.986986           0.185869E-3        1.018869           0.225917E-3        1.020896
        7.007007           0.187169E-3        1.018906           0.227577E-3        1.020941
        7.027027           0.188481E-3        1.018944           0.229253E-3        1.020987
        7.047047           0.189804E-3        1.018981           0.230945E-3        1.021033
        7.067066           0.191139E-3        1.019019           0.232653E-3        1.021079
        7.087087           0.192486E-3        1.019058           0.234378E-3        1.021126
        7.107107           0.193845E-3        1.019096           0.236118E-3        1.021173
        7.127127           0.195216E-3        1.019135           0.237876E-3        1.021220
        7.147147           0.196600E-3        1.019175           0.239651E-3        1.021268
        7.167167           0.197996E-3        1.019214           0.241443E-3        1.021316
        7.187187           0.199405E-3        1.019254           0.243252E-3        1.021365
        7.207206           0.200827E-3        1.019294           0.245080E-3        1.021414
        7.227227           0.202262E-3        1.019334           0.246925E-3        1.021463
        7.247247           0.203711E-3        1.019375           0.248788E-3        1.021512
        7.267267           0.205173E-3        1.019416           0.250670E-3        1.021562
        7.287286           0.206648E-3        1.019457           0.252571E-3        1.021613
        7.307307           0.208138E-3        1.019498           0.254491E-3        1.021663
        7.327327           0.209641E-3        1.019540           0.256429E-3        1.021714
        7.347347           0.211159E-3        1.019582           0.258388E-3        1.021766
        7.367367           0.212690E-3        1.019625           0.260366E-3        1.021818
        7.387387           0.214237E-3        1.019668           0.262365E-3        1.021870
        7.407407           0.215798E-3        1.019711           0.264383E-3        1.021923
        7.427427           0.217374E-3        1.019754           0.266423E-3        1.021976
        7.447447           0.218966E-3        1.019797           0.268483E-3        1.022030
        7.467467           0.220573E-3        1.019841           0.270565E-3        1.022083
        7.487487           0.222195E-3        1.019886           0.272668E-3        1.022138
        7.507507           0.223833E-3        1.019930           0.274794E-3        1.022192
        7.527527           0.225487E-3        1.019975           0.276941E-3        1.022248
        7.547547           0.227158E-3        1.020021           0.279111E-3        1.022303
        7.567567           0.228845E-3        1.020066           0.281304E-3        1.022359
        7.587587           0.230549E-3        1.020112           0.283520E-3        1.022416
        7.607607           0.232269E-3        1.020159           0.285760E-3        1.022473
        7.627627           0.234007E-3        1.020205           0.288024E-3        1.022530
        7.647647           0.235762E-3        1.020252           0.290312E-3        1.022588
        7.667667           0.237535E-3        1.020299           0.292624E-3        1.022646
        7.687687           0.239326E-3        1.020347           0.294962E-3        1.022705
        7.707707           0.241135E-3        1.020395           0.297325E-3        1.022764
        7.727727           0.242962E-3        1.020444           0.299713E-3        1.022824
        7.747747           0.244808E-3        1.020492           0.302128E-3        1.022884
        7.767767           0.246674E-3        1.020542           0.304570E-3        1.022945
        7.787787           0.248558E-3        1.020591           0.307038E-3        1.023006
        7.807807           0.250462E-3        1.020641           0.309534E-3        1.023068
        7.827827           0.252386E-3        1.020691           0.312057E-3        1.023130
        7.847847           0.254329E-3        1.020742           0.314609E-3        1.023193
        7.867867           0.256294E-3        1.020793           0.317190E-3        1.023256
        7.887887           0.258279E-3        1.020845           0.319800E-3        1.023320
        7.907907           0.260284E-3        1.020896           0.322439E-3        1.023384
        7.927927           0.262312E-3        1.020949           0.325108E-3        1.023449
        7.947948           0.264361E-3        1.021001           0.327808E-3        1.023514
        7.967968           0.266431E-3        1.021055           0.330539E-3        1.023580
        7.987987           0.268524E-3        1.021108           0.333301E-3        1.023646
        8.008007           0.270640E-3        1.021162           0.336095E-3        1.023713
        8.028028           0.272779E-3        1.021216           0.338922E-3        1.023781
        8.048048           0.274941E-3        1.021271           0.341782E-3        1.023849
        8.068068           0.277127E-3        1.021326           0.344676E-3        1.023917
        8.088087           0.279337E-3        1.021382           0.347603E-3        1.023987
        8.108108           0.281571E-3        1.021438           0.350566E-3        1.024056
        8.128128           0.283830E-3        1.021495           0.353563E-3        1.024127
        8.148148           0.286114E-3        1.021552           0.356597E-3        1.024198
        8.168168           0.288424E-3        1.021609           0.359667E-3        1.024270
        8.188188           0.290760E-3        1.021667           0.362774E-3        1.024342
        8.208207           0.293122E-3        1.021726           0.365918E-3        1.024415
        8.228228           0.295511E-3        1.021784           0.369101E-3        1.024488
        8.248248           0.297927E-3        1.021844           0.372323E-3        1.024562
        8.268268           0.300371E-3        1.021904           0.375584E-3        1.024637
        8.288287           0.302843E-3        1.021964           0.378886E-3        1.024713
        8.308308           0.305343E-3        1.022025           0.382229E-3        1.024789
        8.328328           0.307873E-3        1.022086           0.385613E-3        1.024866
        8.348348           0.310432E-3        1.022148           0.389040E-3        1.024943
        8.368367           0.313021E-3        1.022210           0.392510E-3        1.025021
        8.388388           0.315640E-3        1.022273           0.396023E-3        1.025100
        8.408408           0.318290E-3        1.022336           0.399582E-3        1.025180
        8.428429           0.320972E-3        1.022400           0.403185E-3        1.025260
        8.448447           0.323686E-3        1.022465           0.406835E-3        1.025341
        8.468468           0.326432E-3        1.022530           0.410532E-3        1.025423
        8.488488           0.329212E-3        1.022596           0.414277E-3        1.025505
        8.508509           0.332025E-3        1.022662           0.418070E-3        1.025588
        8.528527           0.334872E-3        1.022728           0.421913E-3        1.025672
        8.548548           0.337754E-3        1.022796           0.425807E-3        1.025757
        8.568568           0.340672E-3        1.022864           0.429752E-3        1.025843
        8.588589           0.343625E-3        1.022932           0.433749E-3        1.025929
        8.608608           0.346615E-3        1.023001           0.437800E-3        1.026016
        8.628628           0.349642E-3        1.023071           0.441905E-3        1.026104
        8.648648           0.352707E-3        1.023141           0.446065E-3        1.026193
        8.668669           0.355810E-3        1.023212           0.450281E-3        1.026282
        8.688688           0.358953E-3        1.023283           0.454555E-3        1.026373
        8.708708           0.362135E-3        1.023355           0.458887E-3        1.026464
        8.728728           0.365359E-3        1.023428           0.463279E-3        1.026556
        8.748748           0.368623E-3        1.023501           0.467731E-3        1.026650
        8.768768           0.371929E-3        1.023576           0.472245E-3        1.026744
        8.788788           0.375279E-3        1.023650           0.476822E-3        1.026838
        8.808808           0.378672E-3        1.023726           0.481463E-3        1.026934
        8.828828           0.382109E-3        1.023802           0.486170E-3        1.027031
        8.848848           0.385591E-3        1.023878           0.490943E-3        1.027129
        8.868869           0.389119E-3        1.023956           0.495784E-3        1.027227
        8.888888           0.392694E-3        1.024034           0.500695E-3        1.027327
        8.908908           0.396317E-3        1.024113           0.505676E-3        1.027428
        8.928928           0.399989E-3        1.024193           0.510729E-3        1.027529
        8.948949           0.403709E-3        1.024273           0.515856E-3        1.027632
        8.968968           0.407481E-3        1.024354           0.521058E-3        1.027736
        8.988988           0.411303E-3        1.024436           0.526336E-3        1.027840
        9.009008           0.415178E-3        1.024519           0.531692E-3        1.027946
        9.029029           0.419106E-3        1.024602           0.537128E-3        1.028053
        9.049048           0.423089E-3        1.024686           0.542645E-3        1.028161
        9.069068           0.427126E-3        1.024771           0.548245E-3        1.028270
        9.089088           0.431221E-3        1.024857           0.553930E-3        1.028380
        9.109109           0.435373E-3        1.024944           0.559701E-3        1.028491
        9.129129           0.439583E-3        1.025031           0.565560E-3        1.028604
        9.149148           0.443853E-3        1.025120           0.571509E-3        1.028718
        9.169168           0.448185E-3        1.025209           0.577550E-3        1.028832
        9.189189           0.452578E-3        1.025299           0.583685E-3        1.028949
        9.209209           0.457035E-3        1.025390           0.589915E-3        1.029066
        9.229228           0.461557E-3        1.025482           0.596244E-3        1.029184
        9.249249           0.466144E-3        1.025574           0.602672E-3        1.029304
        9.269269           0.470799E-3        1.025668           0.609203E-3        1.029425
        9.289289           0.475522E-3        1.025763           0.615838E-3        1.029548
        9.309309           0.480316E-3        1.025858           0.622580E-3        1.029672
        9.329329           0.485182E-3        1.025955           0.629431E-3        1.029797
        9.349349           0.490120E-3        1.026052           0.636393E-3        1.029923
        9.369369           0.495132E-3        1.026151           0.643469E-3        1.030051
        9.389389           0.500221E-3        1.026250           0.650662E-3        1.030181
        9.409409           0.505388E-3        1.026351           0.657974E-3        1.030311
        9.429429           0.510634E-3        1.026452           0.665408E-3        1.030444
        9.449449           0.515961E-3        1.026555           0.672966E-3        1.030577
        9.469469           0.521371E-3        1.026659           0.680652E-3        1.030713
        9.489489           0.526865E-3        1.026763           0.688468E-3        1.030849
        9.509509           0.532446E-3        1.026869           0.696418E-3        1.030988
        9.529529           0.538115E-3        1.026976           0.704504E-3        1.031128
        9.549549           0.543874E-3        1.027084           0.712730E-3        1.031269
        9.569570           0.549725E-3        1.027194           0.721099E-3        1.031413
        9.589589           0.555671E-3        1.027304           0.729615E-3        1.031558
        9.609609           0.561713E-3        1.027416           0.738281E-3        1.031704
        9.629629           0.567853E-3        1.027529           0.747100E-3        1.031853
        9.649650           0.574095E-3        1.027643           0.756077E-3        1.032003
        9.669669           0.580439E-3        1.027758           0.765215E-3        1.032155
        9.689689           0.586888E-3        1.027875           0.774518E-3        1.032309
        9.709709           0.593445E-3        1.027993           0.783990E-3        1.032465
        9.729730           0.600113E-3        1.028112           0.793636E-3        1.032622
        9.749749           0.606893E-3        1.028233           0.803460E-3        1.032782
        9.769769           0.613789E-3        1.028355           0.813466E-3        1.032943
        9.789789           0.620803E-3        1.028478           0.823659E-3        1.033107
        9.809810           0.627938E-3        1.028603           0.834044E-3        1.033273
        9.829829           0.635197E-3        1.028729           0.844625E-3        1.033440
        9.849849           0.642583E-3        1.028857           0.855409E-3        1.033610
        9.869869           0.650099E-3        1.028986           0.866399E-3        1.033782
        9.889890           0.657748E-3        1.029117           0.877602E-3        1.033956
        9.909909           0.665532E-3        1.029249           0.889023E-3        1.034133
        9.929929           0.673458E-3        1.029383           0.900668E-3        1.034312
        9.949949           0.681526E-3        1.029518           0.912543E-3        1.034493
        9.969970           0.689741E-3        1.029655           0.924654E-3        1.034676
        9.989989           0.698106E-3        1.029794           0.937007E-3        1.034862
        10.01001           0.706626E-3        1.029934           0.949610E-3        1.035051
        10.03003           0.715303E-3        1.030076           0.962469E-3        1.035241
        10.05005           0.724144E-3        1.030220           0.975591E-3        1.035435
        10.07007           0.733150E-3        1.030366           0.988984E-3        1.035631
        10.09009           0.742328E-3        1.030513           0.001003           1.035830
        10.11011           0.751681E-3        1.030663           0.001017           1.036032
        10.13013           0.761213E-3        1.030814           0.001031           1.036236
        10.15015           0.770931E-3        1.030967           0.001045           1.036443
        10.17017           0.780838E-3        1.031122           0.001060           1.036654
        10.19019           0.790940E-3        1.031279           0.001075           1.036867
        10.21021           0.801242E-3        1.031438           0.001091           1.037083
        10.23023           0.811749E-3        1.031599           0.001107           1.037303
        10.25025           0.822468E-3        1.031762           0.001123           1.037525
        10.27027           0.833404E-3        1.031927           0.001140           1.037751
        10.29029           0.844563E-3        1.032095           0.001157           1.037980
        10.31031           0.855952E-3        1.032265           0.001174           1.038213
        10.33033           0.867577E-3        1.032437           0.001192           1.038449
        10.35035           0.879445E-3        1.032611           0.001210           1.038689
        10.37037           0.891562E-3        1.032788           0.001228           1.038932
        10.39039           0.903937E-3        1.032968           0.001247           1.039179
        10.41041           0.916576E-3        1.033149           0.001267           1.039430
        10.43043           0.929488E-3        1.033334           0.001287           1.039685
        10.45045           0.942680E-3        1.033521           0.001307           1.039944
        10.47047           0.956161E-3        1.033710           0.001328           1.040207
        10.49049           0.969940E-3        1.033903           0.001349           1.040474
        10.51051           0.984027E-3        1.034098           0.001371           1.040745
        10.53053           0.998428E-3        1.034295           0.001393           1.041021
        10.55055           0.001013           1.034496           0.001416           1.041301
        10.57057           0.001028           1.034700           0.001440           1.041586
        10.59059           0.001044           1.034907           0.001464           1.041876
        10.61061           0.001059           1.035117           0.001489           1.042170
        10.63063           0.001076           1.035330           0.001515           1.042470
        10.65065           0.001092           1.035546           0.001541           1.042775
        10.67067           0.001109           1.035766           0.001567           1.043085
        10.69069           0.001126           1.035989           0.001595           1.043400
        10.71071           0.001144           1.036215           0.001623           1.043721
        10.73073           0.001162           1.036445           0.001652           1.044047
        10.75075           0.001181           1.036679           0.001682           1.044380
        10.77077           0.001200           1.036917           0.001713           1.044718
        10.79079           0.001220           1.037158           0.001744           1.045063
        10.81081           0.001240           1.037403           0.001777           1.045413
        10.83083           0.001260           1.037653           0.001810           1.045771
        10.85085           0.001281           1.037906           0.001844           1.046135
        10.87087           0.001303           1.038164           0.001880           1.046506
        10.89089           0.001325           1.038426           0.001916           1.046884
        10.91091           0.001348           1.038693           0.001953           1.047270
        10.93093           0.001371           1.038964           0.001992           1.047663
        10.95095           0.001396           1.039240           0.002032           1.048064
        10.97097           0.001420           1.039521           0.002073           1.048472
        10.99099           0.001446           1.039806           0.002115           1.048889
        11.01101           0.001472           1.040097           0.002159           1.049315
        11.03103           0.001499           1.040393           0.002203           1.049749
        11.05105           0.001526           1.040695           0.002250           1.050192
        11.07107           0.001555           1.041002           0.002298           1.050645
        11.09109           0.001584           1.041314           0.002347           1.051107
        11.11111           0.001614           1.041633           0.002398           1.051579
        11.13113           0.001645           1.041958           0.002451           1.052062
        11.15115           0.001677           1.042289           0.002506           1.052555
        11.17117           0.001710           1.042626           0.002562           1.053059
        11.19119           0.001744           1.042970           0.002621           1.053574
        11.21121           0.001780           1.043321           0.002682           1.054102
        11.23123           0.001816           1.043679           0.002744           1.054641
        11.25125           0.001853           1.044045           0.002809           1.055193
        11.27127           0.001892           1.044417           0.002877           1.055758
        11.29129           0.001931           1.044798           0.002947           1.056337
        11.31131           0.001972           1.045186           0.003019           1.056929
        11.33133           0.002015           1.045583           0.003095           1.057537
        11.35135           0.002059           1.045988           0.003173           1.058159
        11.37137           0.002104           1.046402           0.003254           1.058797
        11.39139           0.002151           1.046826           0.003339           1.059451
        11.41141           0.002200           1.047258           0.003427           1.060123
        11.43143           0.002251           1.047701           0.003519           1.060812
        11.45145           0.002303           1.048154           0.003614           1.061519
        11.47147           0.002357           1.048617           0.003714           1.062246
        11.49149           0.002413           1.049091           0.003817           1.062992
        11.51151           0.002471           1.049576           0.003926           1.063759
        11.53153           0.002532           1.050073           0.004039           1.064548
        11.55155           0.002595           1.050582           0.004157           1.065360
        11.57157           0.002660           1.051104           0.004280           1.066195
        11.59159           0.002728           1.051639           0.004409           1.067055
        11.61161           0.002799           1.052187           0.004544           1.067940
        11.63163           0.002872           1.052750           0.004686           1.068853
        11.65165           0.002949           1.053327           0.004835           1.069794
        11.67167           0.003029           1.053920           0.004991           1.070765
        11.69169           0.003112           1.054529           0.005154           1.071766
        11.71171           0.003199           1.055154           0.005326           1.072801
        11.73173           0.003290           1.055797           0.005507           1.073870
        11.75175           0.003385           1.056458           0.005698           1.074974
        11.77177           0.003484           1.057138           0.005899           1.076117
        11.79179           0.003588           1.057838           0.006111           1.077300
        11.81181           0.003697           1.058559           0.006334           1.078525
        11.83183           0.003811           1.059301           0.006571           1.079794
        11.85185           0.003930           1.060066           0.006821           1.081110
        11.87187           0.004056           1.060855           0.007087           1.082476
        11.89189           0.004188           1.061669           0.007368           1.083894
        11.91191           0.004326           1.062510           0.007667           1.085368
        11.93193           0.004472           1.063377           0.007984           1.086901
        11.95195           0.004626           1.064274           0.008322           1.088497
        11.97197           0.004788           1.065202           0.008683           1.090159
        11.99199           0.004959           1.066162           0.009067           1.091893
        12.01201           0.005139           1.067155           0.009479           1.093702
        12.03203           0.005330           1.068185           0.009919           1.095591
        12.05205           0.005533           1.069252           0.010392           1.097567
        12.07207           0.005747           1.070360           0.010899           1.099635
        12.09209           0.005975           1.071510           0.011445           1.101802
        12.11211           0.006217           1.072705           0.012034           1.104075
        12.13213           0.006475           1.073948           0.012670           1.106462
        12.15215           0.006749           1.075241           0.013359           1.108972
        12.17217           0.007042           1.076589           0.014106           1.111615
        12.19219           0.007355           1.077994           0.014918           1.114402
        12.21221           0.007690           1.079461           0.015803           1.117343
        12.23223           0.008049           1.080993           0.016770           1.120453
        12.25225           0.008434           1.082595           0.017829           1.123746
        12.27227           0.008849           1.084272           0.018992           1.127238
        12.29229           0.009296           1.086030           0.020274           1.130948
        12.31231           0.009779           1.087875           0.021691           1.134897
        12.33233           0.010301           1.089813           0.023262           1.139106
        12.35235           0.010867           1.091852           0.025011           1.143603
        12.37237           0.011482           1.093999           0.026964           1.148416
        12.39239           0.012153           1.096264           0.029154           1.153578
        12.41241           0.012885           1.098657           0.031622           1.159127
        12.43243           0.013687           1.101188           0.034416           1.165104
        12.45245           0.014567           1.103871           0.037592           1.171557
        12.47247           0.015536           1.106718           0.041225           1.178542
        12.49249           0.016608           1.109746           0.045403           1.186117
        12.51251           0.017795           1.112971           0.050239           1.194353
        12.53253           0.019116           1.116413           0.055871           1.203325
        12.55255           0.020591           1.120095           0.062481           1.213116
        12.57257           0.022244           1.124040           0.070297           1.223816
        12.59259           0.024106           1.128277           0.079616           1.235515
        12.61261           0.026213           1.132838           0.090826           1.248294
        12.63263           0.028608           1.137759           0.104437           1.262216
        12.65265           0.031346           1.143081           0.121125           1.277282
        12.67267           0.034493           1.148849           0.141784           1.293386
        12.69269           0.038134           1.155114           0.167598           1.310203
        12.71271           0.042373           1.161936           0.200110           1.327013
        12.73273           0.047345           1.169376           0.241244           1.342377
        12.75275           0.053222           1.177502           0.293188           1.353612
        12.77277           0.060225           1.186382           0.357864           1.356036
        12.79279           0.068645           1.196079           0.435515           1.342180
        12.81281           0.078863           1.206641           0.521831           1.301922
        12.83283           0.091383           1.218071           0.604181           1.225766
        12.85285           0.106875           1.230296           0.661094           1.113080
        12.87287           0.126224           1.243080           0.671624           0.980406
        12.89289           0.150585           1.255896           0.631318           0.856763
        12.91291           0.181399           1.267686           0.556256           0.765281
        12.93293           0.220325           1.276477           0.469476           0.711602
        12.95295           0.268844           1.278810           0.387500           0.688545
        12.97297           0.327242           1.269136           0.317536           0.685575
        12.99299           0.392482           1.239854           0.260730           0.694034
        13.01301           0.455357           1.183629           0.215583           0.708207
        13.03303           0.499827           1.099483           0.179916           0.724716
        13.05305           0.509721           0.999289           0.151669           0.741703
        13.07307           0.480869           0.904862           0.129148           0.758207
        13.09309           0.424864           0.834238           0.111031           0.773776
        13.11311           0.359203           0.792336           0.096318           0.788231
        13.13313           0.296751           0.774006           0.084253           0.801541
        13.15315           0.243269           0.771264           0.074267           0.813748
        13.17317           0.199772           0.777446           0.065926           0.824929
        13.19319           0.165186           0.788121           0.058901           0.835172
        13.21321           0.137861           0.800660           0.052938           0.844567
        13.23323           0.116229           0.813611           0.047840           0.853201
        13.25325           0.098988           0.826223           0.043452           0.861153
        13.27327           0.085128           0.838138           0.039651           0.868494
        13.29329           0.073878           0.849214           0.036340           0.875289
        13.31331           0.064659           0.859423           0.033441           0.881594
        13.33333           0.057033           0.868797           0.030890           0.887460
        13.35335           0.050667           0.877390           0.028635           0.892932
        13.37337           0.045310           0.885272           0.026634           0.898048
        13.39339           0.040765           0.892509           0.024851           0.902844
        13.41341           0.036882           0.899169           0.023257           0.907350
        13.43343           0.033542           0.905311           0.021827           0.911594
        13.45345           0.030652           0.910989           0.020541           0.915600
        13.47347           0.028136           0.916252           0.019380           0.919390
        13.49349           0.025935           0.921145           0.018331           0.922983
        13.51351           0.024000           0.925705           0.017381           0.926397
        13.53353           0.022291           0.929967           0.016518           0.929647
        13.55355           0.020777           0.933960           0.015733           0.932747
        13.57357           0.019428           0.937711           0.015019           0.935711
        13.59359           0.018225           0.941244           0.014367           0.938549
        13.61361           0.017147           0.944579           0.013772           0.941273
        13.63363           0.016178           0.947735           0.013229           0.943891
        13.65365           0.015306           0.950729           0.012733           0.946413
        13.67367           0.014520           0.953575           0.012280           0.948846
        13.69369           0.013808           0.956288           0.011866           0.951199
        13.71371           0.013164           0.958878           0.011488           0.953477
        13.73373           0.012579           0.961357           0.011144           0.955687
        13.75375           0.012048           0.963734           0.010831           0.957836
        13.77377           0.011566           0.966019           0.010547           0.959928
        13.79379           0.011127           0.968219           0.010290           0.961969
        13.81381           0.010728           0.970341           0.010058           0.963963
        13.83383           0.010365           0.972393           0.009851           0.965916
        13.85385           0.010035           0.974381           0.009667           0.967832
        13.87387           0.009736           0.976310           0.009504           0.969714
        13.89389           0.009464           0.978186           0.009363           0.971568
        13.91391           0.009218           0.980014           0.009241           0.973396
        13.93393           0.008997           0.981798           0.009140           0.975203
        13.95395           0.008798           0.983542           0.009058           0.976991
        13.97397           0.008620           0.985250           0.008995           0.978766
        13.99399           0.008461           0.986927           0.008952           0.980530
        14.01401           0.008322           0.988576           0.008927           0.982288
        14.03403           0.008200           0.990200           0.008921           0.984041
        14.05405           0.008096           0.991803           0.008935           0.985796
        14.07407           0.008008           0.993387           0.008968           0.987553
        14.09409           0.007935           0.994957           0.009022           0.989319
        14.11411           0.007879           0.996514           0.009097           0.991096
        14.13413           0.007837           0.998061           0.009193           0.992888
        14.15415           0.007810           0.999603           0.009313           0.994701
        14.17417           0.007799           1.001140           0.009458           0.996536
        14.19419           0.007801           1.002676           0.009628           0.998401
        14.21421           0.007819           1.004215           0.009826           1.000299
        14.23423           0.007851           1.005758           0.010054           1.002235
        14.25425           0.007899           1.007309           0.010314           1.004216
        14.27427           0.007961           1.008870           0.010610           1.006247
        14.29429           0.008040           1.010444           0.010944           1.008334
        14.31431           0.008135           1.012035           0.011321           1.010486
        14.33433           0.008247           1.013645           0.011745           1.012708
        14.35435           0.008377           1.015278           0.012222           1.015011
        14.37437           0.008526           1.016938           0.012757           1.017403
        14.39439           0.008694           1.018627           0.013359           1.019894
        14.41441           0.008883           1.020349           0.014036           1.022497
        14.43443           0.009095           1.022110           0.014798           1.025224
        14.45445           0.009330           1.023911           0.015657           1.028089
        14.47447           0.009591           1.025760           0.016628           1.031108
        14.49449           0.009880           1.027659           0.017729           1.034299
        14.51451           0.010200           1.029615           0.018980           1.037683
        14.53453           0.010552           1.031633           0.020407           1.041283
        14.55455           0.010940           1.033720           0.022042           1.045124
        14.57457           0.011368           1.035881           0.023924           1.049236
        14.59459           0.011840           1.038125           0.026100           1.053652
        14.61461           0.012360           1.040459           0.028631           1.058407
        14.63463           0.012934           1.042892           0.031592           1.063544
        14.65465           0.013568           1.045435           0.035081           1.069107
        14.67467           0.014270           1.048097           0.039221           1.075142
        14.69469           0.015047           1.050891           0.044173           1.081699
        14.71471           0.015911           1.053830           0.050147           1.088820
        14.73473           0.016872           1.056929           0.057419           1.096534
        14.75475           0.017945           1.060205           0.066357           1.104839
        14.77477           0.019146           1.063676           0.077445           1.113670
        14.79480           0.020494           1.067364           0.091326           1.122841
        14.81481           0.022013           1.071292           0.108832           1.131940
        14.83483           0.023730           1.075487           0.130995           1.140157
        14.85485           0.025681           1.079979           0.158977           1.145989
        14.87487           0.027907           1.084803           0.193737           1.146834
        14.89489           0.030460           1.089997           0.235237           1.138591
        14.91491           0.033403           1.095605           0.280842           1.115838
        14.93493           0.036816           1.101676           0.323352           1.073823
        14.95495           0.040800           1.108264           0.351150           1.013018
        14.97497           0.045484           1.115430           0.353740           0.943109
        14.99499           0.051030           1.123235           0.330010           0.879560
        15.01501           0.057653           1.131746           0.289238           0.833699
        15.03503           0.065628           1.141020           0.243450           0.807572
        15.05505           0.075323           1.151098           0.200805           0.796992
        15.07507           0.087221           1.161983           0.164661           0.796432
        15.09509           0.101962           1.173594           0.135406           0.801498
        15.11511           0.120395           1.185696           0.112178           0.809328
        15.13513           0.143625           1.197766           0.093820           0.818248
        15.15515           0.173024           1.208760           0.079267           0.827341
        15.17517           0.210153           1.216740           0.067646           0.836140
        15.19519           0.256356           1.218329           0.058284           0.844424
        15.21521           0.311747           1.208156           0.050667           0.852110
        15.23524           0.373133           1.178990           0.044409           0.859188
        15.25525           0.431328           1.124173           0.039218           0.865682
        15.27527           0.470953           1.043553           0.034874           0.871634
        15.29529           0.477314           0.949245           0.031207           0.877091
        15.31531           0.447705           0.861965           0.028087           0.882100
        15.33533           0.393865           0.797825           0.025412           0.886706
        15.35535           0.332143           0.760494           0.023104           0.890950
        15.37537           0.274073           0.744702           0.021100           0.894871
        15.39540           0.224605           0.742967           0.019348           0.898501
        15.41541           0.184475           0.749201           0.017810           0.901869
        15.43543           0.152588           0.759397           0.016451           0.905002
        15.45545           0.127390           0.771197           0.015246           0.907923
        15.47547           0.107426           0.783303           0.014171           0.910653
        15.49549           0.091498           0.795047           0.013210           0.913208
        15.51551           0.078676           0.806115           0.012346           0.915607
        15.53553           0.068255           0.816383           0.011567           0.917862
        15.55556           0.059701           0.825833           0.010862           0.919986
        15.57557           0.052614           0.834495           0.010221           0.921990
        15.59559           0.046688           0.842422           0.009639           0.923884
        15.61561           0.041691           0.849681           0.009106           0.925678
        15.63563           0.037444           0.856332           0.008619           0.927379
        15.65565           0.033807           0.862437           0.008171           0.928995
        15.67568           0.030671           0.868055           0.007759           0.930531
        15.69569           0.027950           0.873233           0.007380           0.931994
        15.71572           0.025575           0.878018           0.007028           0.933390
        15.73573           0.023491           0.882450           0.006703           0.934722
        15.75575           0.021652           0.886564           0.006401           0.935996
        15.77577           0.020022           0.890392           0.006120           0.937214
        15.79579           0.018570           0.893962           0.005858           0.938382
        15.81581           0.017273           0.897298           0.005614           0.939502
        15.83584           0.016108           0.900422           0.005385           0.940577
        15.85585           0.015059           0.903353           0.005171           0.941610
        15.87588           0.014110           0.906108           0.004970           0.942603
        15.89590           0.013250           0.908702           0.004782           0.943559
        15.91591           0.012467           0.911149           0.004605           0.944481
        15.93594           0.011753           0.913462           0.004438           0.945369
        15.95595           0.011100           0.915650           0.004281           0.946226
        15.97597           0.010501           0.917724           0.004132           0.947054
        15.99600           0.009950           0.919692           0.003991           0.947854
        16.01601           0.009443           0.921563           0.003859           0.948627
        16.03603           0.008974           0.923343           0.003733           0.949375
        16.05606           0.008541           0.925039           0.003613           0.950100
        16.07607           0.008139           0.926657           0.003500           0.950802
        16.09610           0.007765           0.928203           0.003392           0.951483
        16.11612           0.007417           0.929680           0.003290           0.952143
        16.13614           0.007093           0.931094           0.003192           0.952784
        16.15616           0.006791           0.932449           0.003099           0.953406
        16.17617           0.006508           0.933748           0.003011           0.954011
        16.19619           0.006242           0.934995           0.002926           0.954598
        16.21622           0.005994           0.936193           0.002845           0.955170
        16.23623           0.005760           0.937345           0.002768           0.955726
        16.25626           0.005540           0.938453           0.002694           0.956267
        16.27628           0.005333           0.939521           0.002623           0.956794
        16.29630           0.005138           0.940550           0.002555           0.957307
        16.31632           0.004954           0.941542           0.002490           0.957808
        16.33634           0.004780           0.942500           0.002428           0.958296
        16.35636           0.004615           0.943425           0.002368           0.958772
        16.37638           0.004459           0.944319           0.002310           0.959236
        16.39639           0.004311           0.945184           0.002255           0.959689
        16.41641           0.004171           0.946020           0.002202           0.960132
        16.43644           0.004037           0.946830           0.002151           0.960565
        16.45646           0.003911           0.947615           0.002101           0.960987
        16.47648           0.003790           0.948376           0.002054           0.961400
        16.49650           0.003675           0.949114           0.002008           0.961804
        16.51652           0.003565           0.949830           0.001964           0.962199
        16.53654           0.003461           0.950525           0.001921           0.962585
        16.55655           0.003361           0.951200           0.001880           0.962963
        16.57657           0.003266           0.951856           0.001841           0.963333
        16.59660           0.003175           0.952494           0.001802           0.963696
        16.61662           0.003087           0.953114           0.001765           0.964051
        16.63664           0.003004           0.953718           0.001729           0.964399
        16.65666           0.002924           0.954305           0.001695           0.964739
        16.67668           0.002847           0.954878           0.001661           0.965073
        16.69670           0.002773           0.955435           0.001628           0.965401
        16.71671           0.002703           0.955978           0.001597           0.965722
        16.73673           0.002635           0.956508           0.001566           0.966037
        16.75676           0.002570           0.957025           0.001537           0.966346
        16.77678           0.002507           0.957529           0.001508           0.966650
        16.79680           0.002447           0.958021           0.001480           0.966947
        16.81682           0.002388           0.958501           0.001453           0.967239
        16.83684           0.002332           0.958970           0.001427           0.967526
        16.85686           0.002279           0.959428           0.001401           0.967808
        16.87687           0.002227           0.959876           0.001377           0.968085
        16.89689           0.002176           0.960314           0.001352           0.968357
        16.91692           0.002128           0.960742           0.001329           0.968625
        16.93694           0.002081           0.961160           0.001306           0.968887
        16.95695           0.002036           0.961570           0.001284           0.969146
        16.97698           0.001992           0.961970           0.001263           0.969400
        16.99700           0.001950           0.962363           0.001242           0.969649
        17.01702           0.001910           0.962747           0.001221           0.969895
        17.03704           0.001870           0.963123           0.001201           0.970136
        17.05705           0.001832           0.963491           0.001182           0.970374
        17.07708           0.001795           0.963852           0.001163           0.970608
        17.09710           0.001759           0.964206           0.001145           0.970838
        17.11712           0.001724           0.964553           0.001127           0.971065
        17.13714           0.001691           0.964893           0.001109           0.971288
        17.15716           0.001658           0.965227           0.001092           0.971508
        17.17718           0.001627           0.965554           0.001076           0.971724
        17.19720           0.001596           0.965875           0.001059           0.971937
        17.21722           0.001566           0.966190           0.001043           0.972147
        17.23724           0.001537           0.966499           0.001028           0.972354
        17.25726           0.001509           0.966803           0.001013           0.972557
        17.27728           0.001482           0.967101           0.998101E-3        0.972758
        17.29730           0.001455           0.967394           0.983675E-3        0.972956
        17.31732           0.001429           0.967681           0.969580E-3        0.973151
        17.33734           0.001404           0.967963           0.955803E-3        0.973343
        17.35736           0.001380           0.968241           0.942336E-3        0.973532
        17.37738           0.001356           0.968514           0.929168E-3        0.973719
        17.39740           0.001333           0.968782           0.916289E-3        0.973904
        17.41742           0.001310           0.969046           0.903692E-3        0.974085
        17.43744           0.001289           0.969305           0.891369E-3        0.974265
        17.45746           0.001267           0.969560           0.879309E-3        0.974441
        17.47748           0.001246           0.969810           0.867506E-3        0.974616
        17.49750           0.001226           0.970057           0.855953E-3        0.974788
        17.51752           0.001206           0.970300           0.844642E-3        0.974958
        17.53754           0.001187           0.970538           0.833565E-3        0.975125
        17.55756           0.001168           0.970773           0.822717E-3        0.975291
        17.57758           0.001150           0.971005           0.812091E-3        0.975454
        17.59760           0.001132           0.971232           0.801680E-3        0.975615
        17.61762           0.001115           0.971457           0.791478E-3        0.975774
        17.63764           0.001098           0.971677           0.781480E-3        0.975931
        17.65766           0.001081           0.971895           0.771681E-3        0.976086
        17.67768           0.001065           0.972109           0.762073E-3        0.976240
        17.69770           0.001049           0.972320           0.752653E-3        0.976391
        17.71772           0.001033           0.972528           0.743415E-3        0.976541
        17.73774           0.001018           0.972732           0.734355E-3        0.976688
        17.75776           0.001004           0.972934           0.725468E-3        0.976834
        17.77778           0.989074E-3        0.973133           0.716748E-3        0.976978
        17.79780           0.974937E-3        0.973329           0.708193E-3        0.977120
        17.81782           0.961113E-3        0.973523           0.699797E-3        0.977261
        17.83784           0.947590E-3        0.973713           0.691556E-3        0.977400
        17.85786           0.934364E-3        0.973901           0.683467E-3        0.977538
        17.87788           0.921422E-3        0.974086           0.675525E-3        0.977673
        17.89790           0.908758E-3        0.974269           0.667727E-3        0.977808
        17.91792           0.896363E-3        0.974449           0.660070E-3        0.977940
        17.93794           0.884229E-3        0.974627           0.652550E-3        0.978071
        17.95796           0.872349E-3        0.974802           0.645163E-3        0.978201
        17.97798           0.860716E-3        0.974976           0.637906E-3        0.978329
        17.99800           0.849322E-3        0.975146           0.630776E-3        0.978456
        18.01802           0.838162E-3        0.975315           0.623770E-3        0.978581
        18.03804           0.827228E-3        0.975481           0.616886E-3        0.978705
        18.05806           0.816513E-3        0.975645           0.610118E-3        0.978828
        18.07808           0.806014E-3        0.975807           0.603467E-3        0.978949
        18.09810           0.795722E-3        0.975967           0.596928E-3        0.979069
        18.11812           0.785633E-3        0.976125           0.590499E-3        0.979188
        18.13814           0.775742E-3        0.976281           0.584178E-3        0.979305
        18.15816           0.766042E-3        0.976435           0.577961E-3        0.979422
        18.17818           0.756530E-3        0.976587           0.571847E-3        0.979536
        18.19820           0.747200E-3        0.976738           0.565833E-3        0.979650
        18.21822           0.738046E-3        0.976886           0.559917E-3        0.979763
        18.23824           0.729066E-3        0.977033           0.554097E-3        0.979874
        18.25826           0.720254E-3        0.977177           0.548371E-3        0.979984
        18.27828           0.711606E-3        0.977320           0.542736E-3        0.980093
        18.29830           0.703118E-3        0.977462           0.537191E-3        0.980201
        18.31832           0.694785E-3        0.977602           0.531733E-3        0.980308
        18.33834           0.686605E-3        0.977740           0.526361E-3        0.980414
        18.35836           0.678573E-3        0.977876           0.521072E-3        0.980519
        18.37838           0.670685E-3        0.978011           0.515866E-3        0.980622
        18.39840           0.662938E-3        0.978144           0.510740E-3        0.980725
        18.41842           0.655329E-3        0.978276           0.505692E-3        0.980826
        18.43844           0.647854E-3        0.978406           0.500722E-3        0.980927
        18.45846           0.640510E-3        0.978535           0.495827E-3        0.981027
        18.47848           0.633293E-3        0.978662           0.491005E-3        0.981125
        18.49850           0.626202E-3        0.978788           0.486256E-3        0.981223
        18.51852           0.619233E-3        0.978912           0.481578E-3        0.981320
        18.53854           0.612382E-3        0.979035           0.476968E-3        0.981416
        18.55856           0.605648E-3        0.979157           0.472427E-3        0.981511
        18.57858           0.599028E-3        0.979278           0.467952E-3        0.981605
        18.59860           0.592518E-3        0.979397           0.463542E-3        0.981698
        18.61862           0.586117E-3        0.979514           0.459197E-3        0.981790
        18.63864           0.579822E-3        0.979631           0.454913E-3        0.981881
        18.65866           0.573630E-3        0.979746           0.450691E-3        0.981972
        18.67868           0.567540E-3        0.979860           0.446530E-3        0.982062
        18.69870           0.561549E-3        0.979973           0.442426E-3        0.982151
        18.71872           0.555655E-3        0.980085           0.438382E-3        0.982239
        18.73874           0.549855E-3        0.980195           0.434393E-3        0.982326
        18.75876           0.544148E-3        0.980305           0.430460E-3        0.982412
        18.77878           0.538532E-3        0.980413           0.426582E-3        0.982498
        18.79880           0.533004E-3        0.980520           0.422758E-3        0.982583
        18.81882           0.527563E-3        0.980626           0.418986E-3        0.982667
        18.83884           0.522207E-3        0.980731           0.415265E-3        0.982751
        18.85886           0.516934E-3        0.980835           0.411595E-3        0.982833
        18.87888           0.511743E-3        0.980938           0.407974E-3        0.982915
        18.89890           0.506631E-3        0.981040           0.404403E-3        0.982997
        18.91892           0.501597E-3        0.981140           0.400878E-3        0.983077
        18.93894           0.496640E-3        0.981240           0.397402E-3        0.983157
        18.95896           0.491757E-3        0.981339           0.393970E-3        0.983236
        18.97898           0.486947E-3        0.981437           0.390585E-3        0.983314
        18.99900           0.482210E-3        0.981534           0.387243E-3        0.983392
        19.01902           0.477542E-3        0.981630           0.383945E-3        0.983469
        19.03904           0.472944E-3        0.981725           0.380691E-3        0.983546
        19.05906           0.468413E-3        0.981819           0.377478E-3        0.983622
        19.07908           0.463948E-3        0.981912           0.374306E-3        0.983697
        19.09910           0.459548E-3        0.982004           0.371175E-3        0.983771
        19.11912           0.455212E-3        0.982096           0.368084E-3        0.983845
        19.13914           0.450938E-3        0.982186           0.365032E-3        0.983919
        19.15916           0.446725E-3        0.982276           0.362019E-3        0.983991
        19.17918           0.442572E-3        0.982365           0.359043E-3        0.984064
        19.19920           0.438477E-3        0.982453           0.356105E-3        0.984135
        19.21922           0.434441E-3        0.982540           0.353203E-3        0.984206
        19.23924           0.430461E-3        0.982627           0.350337E-3        0.984276
        19.25926           0.426536E-3        0.982713           0.347507E-3        0.984346
        19.27928           0.422666E-3        0.982798           0.344711E-3        0.984415
        19.29930           0.418849E-3        0.982882           0.341950E-3        0.984484
        19.31932           0.415084E-3        0.982965           0.339222E-3        0.984552
        19.33934           0.411371E-3        0.983048           0.336527E-3        0.984620
        19.35936           0.407709E-3        0.983130           0.333864E-3        0.984687
        19.37938           0.404096E-3        0.983211           0.331234E-3        0.984753
        19.39940           0.400531E-3        0.983291           0.328635E-3        0.984819
        19.41942           0.397014E-3        0.983371           0.326067E-3        0.984885
        19.43944           0.393545E-3        0.983450           0.323529E-3        0.984950
        19.45946           0.390121E-3        0.983528           0.321021E-3        0.985014
        19.47948           0.386742E-3        0.983606           0.318543E-3        0.985078
        19.49950           0.383408E-3        0.983683           0.316093E-3        0.985142
        19.51952           0.380117E-3        0.983760           0.313672E-3        0.985205
        19.53954           0.376869E-3        0.983835           0.311279E-3        0.985267
        19.55956           0.373663E-3        0.983910           0.308914E-3        0.985329
        19.57958           0.370498E-3        0.983985           0.306576E-3        0.985391
        19.59960           0.367374E-3        0.984058           0.304265E-3        0.985452
        19.61962           0.364290E-3        0.984132           0.301980E-3        0.985513
        19.63964           0.361245E-3        0.984204           0.299721E-3        0.985573
        19.65966           0.358239E-3        0.984276           0.297487E-3        0.985632
        19.67968           0.355270E-3        0.984348           0.295279E-3        0.985692
        19.69970           0.352339E-3        0.984418           0.293095E-3        0.985751
        19.71972           0.349444E-3        0.984489           0.290936E-3        0.985809
        19.73974           0.346586E-3        0.984558           0.288801E-3        0.985867
        19.75976           0.343762E-3        0.984627           0.286689E-3        0.985925
        19.77978           0.340974E-3        0.984696           0.284601E-3        0.985982
        19.79980           0.338219E-3        0.984764           0.282535E-3        0.986039
        19.81982           0.335498E-3        0.984831           0.280492E-3        0.986095
        19.83984           0.332811E-3        0.984898           0.278472E-3        0.986151
        19.85986           0.330155E-3        0.984964           0.276473E-3        0.986206
        19.87988           0.327532E-3        0.985030           0.274496E-3        0.986261
        19.89990           0.324940E-3        0.985095           0.272540E-3        0.986316
        19.91992           0.322379E-3        0.985160           0.270605E-3        0.986370
        19.93994           0.319849E-3        0.985224           0.268691E-3        0.986424
        19.95996           0.317348E-3        0.985288           0.266798E-3        0.986478
        19.97998           0.314878E-3        0.985351           0.264924E-3        0.986531
        20.00000           0.312435E-3        0.985414           0.263070E-3        0.986584
# 
# 10/30/2023 at 17:43 yambo_rt @ unimi-XPS-8930 [start]
# 10/30/2023 at 17:43                           [end]
#
# .-Input file  yambo.in_generated
# | optics                           # [R] Linear Response optical properties
# | bss                              # [R] BSE solver
# | bse                              # [R][BSE] Bethe Salpeter Equation.
# | tddft                            # [R][K] Use TDDFT kernel
# | BoseTemp= 0.000000         eV    # Bosonic Temperature
# | BS_nCPU_LinAlg_INV= 1            # [PARALLEL] CPUs for Linear Algebra (if -1 it is automatically set)
# | BS_nCPU_LinAlg_DIAGO= 1          # [PARALLEL] CPUs for Linear Algebra (if -1 it is automatically set)
# | X_Threads= 1                     # [OPENMP/X] Number of threads for response functions
# | DIP_Threads= 1                   # [OPENMP/X] Number of threads for dipoles
# | K_Threads= 1                     # [OPENMP/BSK] Number of threads for response functions
# | BSKmod= "ALDA"                   # [BSE] IP/Hartree/HF/ALDA/SEX/BSfxc
# | BSEmod= "coupling"               # [BSE] resonant/retarded/coupling
# | BSSmod= "d"                      # [BSS] (h)aydock/(d)iagonalization/(s)lepc/(i)nversion/(t)ddft`
# | DipComputed= "R V P"             # [DIP] [default R P V; extra P2 Spin Orb]
# | BSENGexx=  4945            RL    # [BSK] Exchange components
# | FxcLibxc                       # [BSK] force computing Fxc via libxc
# | % BSEQptR
# |  1 | 1 |                             # [BSK] Transferred momenta range
# | %
# | % BSEBands
# |   1 | 10 |                           # [BSK] Bands range
# | %
# | % BEnRange
# |   0.00000 | 20.00000 |         eV    # [BSS] Energy range
# | %
# | % BDmRange
# |  0.100000 | 0.100000 |         eV    # [BSS] Damping range
# | %
# | BEnSteps= 1000                   # [BSS] Energy steps
# | % BLongDir
# |  1.000000 | 0.000000 | 0.000000 |        # [BSS] [cc] Electric Field versor
# | %
# | BSEprop= " abs jdos"             # [BSS] Can be any among abs/jdos/kerr/asymm/anHAll/magn/dich/photolum/esrt
# | BSEdips= "none"                  # [BSS] Can be "trace/none" or "xy/xz/yz" to define off-diagonal rotation plane
# | #WRbsWF                        # [BSS] Write to disk excitonic the WFs
