#                                                           
#  /$$     /$$ /$$$$$$  /$$      /$$ /$$$$$$$   /$$$$$$     
# |  $$   /$$//$$__  $$| $$$    /$$$| $$__  $$ /$$__  $$    
#  \  $$ /$$/| $$  \ $$| $$$$  /$$$$| $$  \ $$| $$  \ $$    
#   \  $$$$/ | $$$$$$$$| $$ $$/$$ $$| $$$$$$$ | $$  | $$    
#    \  $$/  | $$__  $$| $$  $$$| $$| $$__  $$| $$  | $$    
#     | $$   | $$  | $$| $$\  $ | $$| $$  \ $$| $$  | $$    
#     | $$   | $$  | $$| $$ \/  | $$| $$$$$$$/|  $$$$$$/    
#     |__/   |__/  |__/|__/     |__/|_______/  \______/     
#                                                           
#       Version 4.3.0 Revision 15624 Hash 7ed12fb           
#                     MPI+SLK Build                         
#               http://www.yambo-code.org                   
#
# Absorption @ Q(1) [q->0 direction] :0.1000E-4  0.000     0.000   
#
#
# - Energies      are Teter 93(XC)
# - Wavefunctions are Teter 93(XC)
#
# - The Green`s function is Retarded -
# - Using the Length Gauge -
# - [r,Vnl] *is* included -
#
#   BSK|Identifier              :7301
#      |Dimension               :9
#      |Bands                   :1 - 10
#      |Exchange           [res]: yes
#      |Correlation        [res]: no
#      |Kernel`s coupling       : yes
#      |Exchange           [cpl]: yes
#      |Correlation        [cpl]: no
#      |W interaction is bare   : no
#      |ALDA kernel in R-space  : yes
#      |RL vectors    [exchange]:4945
#      |E/h energy range    [ev]:-1.000000 - -1.000000
#      |Coupling range     [o/o]: 100.0000 -  100.0000
#
#    E/ev[1]      EPS-Im[2]    EPS-Re[3]    EPSo-Im[4]   EPSo-Re[5]
#
    0.000       0.2205E-8     1.014        0.000        1.015   
   0.2002E-1    0.2934E-6     1.014       0.3378E-6     1.015   
   0.4004E-1    0.5846E-6     1.014       0.6755E-6     1.015   
   0.6006E-1    0.8758E-6     1.014       0.1013E-5     1.015   
   0.8008E-1    0.1167E-5     1.014       0.1351E-5     1.015   
   0.1001       0.1458E-5     1.014       0.1689E-5     1.015   
   0.1201       0.1750E-5     1.014       0.2027E-5     1.015   
   0.1401       0.2041E-5     1.014       0.2365E-5     1.015   
   0.1602       0.2332E-5     1.014       0.2703E-5     1.015   
   0.1802       0.2624E-5     1.014       0.3041E-5     1.015   
   0.2002       0.2915E-5     1.014       0.3379E-5     1.015   
   0.2202       0.3207E-5     1.014       0.3717E-5     1.015   
   0.2402       0.3499E-5     1.014       0.4056E-5     1.015   
   0.2603       0.3790E-5     1.014       0.4394E-5     1.015   
   0.2803       0.4082E-5     1.014       0.4733E-5     1.015   
   0.3003       0.4374E-5     1.014       0.5071E-5     1.015   
   0.3203       0.4666E-5     1.014       0.5410E-5     1.015   
   0.3403       0.4958E-5     1.014       0.5749E-5     1.015   
   0.3604       0.5251E-5     1.014       0.6088E-5     1.015   
   0.3804       0.5543E-5     1.014       0.6428E-5     1.015   
   0.4004       0.5836E-5     1.014       0.6767E-5     1.015   
   0.4204       0.6128E-5     1.014       0.7107E-5     1.015   
   0.4404       0.6421E-5     1.014       0.7447E-5     1.015   
   0.4605       0.6714E-5     1.014       0.7787E-5     1.015   
   0.4805       0.7008E-5     1.014       0.8127E-5     1.015   
   0.5005       0.7301E-5     1.014       0.8468E-5     1.015   
   0.5205       0.7595E-5     1.014       0.8808E-5     1.015   
   0.5405       0.7888E-5     1.014       0.9149E-5     1.015   
   0.5606       0.8182E-5     1.014       0.9491E-5     1.015   
   0.5806       0.8477E-5     1.014       0.9832E-5     1.015   
   0.6006       0.8771E-5     1.014       0.1017E-4     1.015   
   0.6206       0.9066E-5     1.014       0.1052E-4     1.015   
   0.6406       0.9361E-5     1.014       0.1086E-4     1.015   
   0.6607       0.9656E-5     1.014       0.1120E-4     1.015   
   0.6807       0.9951E-5     1.014       0.1154E-4     1.015   
   0.7007       0.1025E-4     1.014       0.1189E-4     1.015   
   0.7207       0.1054E-4     1.014       0.1223E-4     1.015   
   0.7407       0.1084E-4     1.014       0.1257E-4     1.015   
   0.7608       0.1114E-4     1.014       0.1292E-4     1.015   
   0.7808       0.1143E-4     1.014       0.1326E-4     1.015   
   0.8008       0.1173E-4     1.014       0.1361E-4     1.015   
   0.8208       0.1203E-4     1.014       0.1395E-4     1.015   
   0.8408       0.1232E-4     1.014       0.1430E-4     1.015   
   0.8609       0.1262E-4     1.014       0.1465E-4     1.015   
   0.8809       0.1292E-4     1.014       0.1499E-4     1.015   
   0.9009       0.1322E-4     1.014       0.1534E-4     1.015   
   0.9209       0.1352E-4     1.014       0.1569E-4     1.015   
   0.9409       0.1382E-4     1.014       0.1603E-4     1.015   
   0.9610       0.1412E-4     1.014       0.1638E-4     1.015   
   0.9810       0.1442E-4     1.014       0.1673E-4     1.015   
    1.001       0.1472E-4     1.014       0.1708E-4     1.015   
    1.021       0.1502E-4     1.014       0.1743E-4     1.015   
    1.041       0.1532E-4     1.014       0.1778E-4     1.015   
    1.061       0.1562E-4     1.014       0.1813E-4     1.015   
    1.081       0.1592E-4     1.014       0.1848E-4     1.015   
    1.101       0.1622E-4     1.014       0.1883E-4     1.015   
    1.121       0.1653E-4     1.014       0.1919E-4     1.015   
    1.141       0.1683E-4     1.014       0.1954E-4     1.015   
    1.161       0.1713E-4     1.014       0.1989E-4     1.015   
    1.181       0.1744E-4     1.014       0.2024E-4     1.015   
    1.201       0.1774E-4     1.014       0.2060E-4     1.015   
    1.221       0.1805E-4     1.014       0.2095E-4     1.015   
    1.241       0.1835E-4     1.014       0.2131E-4     1.015   
    1.261       0.1866E-4     1.014       0.2167E-4     1.015   
    1.281       0.1897E-4     1.014       0.2202E-4     1.015   
    1.301       0.1927E-4     1.014       0.2238E-4     1.015   
    1.321       0.1958E-4     1.014       0.2274E-4     1.015   
    1.341       0.1989E-4     1.014       0.2310E-4     1.015   
    1.361       0.2020E-4     1.014       0.2346E-4     1.015   
    1.381       0.2051E-4     1.014       0.2382E-4     1.015   
    1.401       0.2082E-4     1.014       0.2418E-4     1.015   
    1.421       0.2113E-4     1.014       0.2454E-4     1.015   
    1.441       0.2144E-4     1.014       0.2490E-4     1.015   
    1.461       0.2175E-4     1.014       0.2526E-4     1.015   
    1.481       0.2206E-4     1.014       0.2562E-4     1.015   
    1.502       0.2237E-4     1.014       0.2599E-4     1.015   
    1.522       0.2268E-4     1.014       0.2635E-4     1.015   
    1.542       0.2300E-4     1.014       0.2672E-4     1.015   
    1.562       0.2331E-4     1.014       0.2709E-4     1.015   
    1.582       0.2363E-4     1.014       0.2745E-4     1.015   
    1.602       0.2394E-4     1.014       0.2782E-4     1.015   
    1.622       0.2426E-4     1.014       0.2819E-4     1.015   
    1.642       0.2457E-4     1.014       0.2856E-4     1.015   
    1.662       0.2489E-4     1.014       0.2893E-4     1.015   
    1.682       0.2521E-4     1.014       0.2930E-4     1.015   
    1.702       0.2553E-4     1.014       0.2967E-4     1.015   
    1.722       0.2585E-4     1.014       0.3004E-4     1.015   
    1.742       0.2617E-4     1.014       0.3042E-4     1.015   
    1.762       0.2649E-4     1.014       0.3079E-4     1.015   
    1.782       0.2681E-4     1.014       0.3117E-4     1.015   
    1.802       0.2713E-4     1.014       0.3154E-4     1.015   
    1.822       0.2746E-4     1.014       0.3192E-4     1.015   
    1.842       0.2778E-4     1.014       0.3230E-4     1.015   
    1.862       0.2810E-4     1.014       0.3268E-4     1.016   
    1.882       0.2843E-4     1.014       0.3306E-4     1.016   
    1.902       0.2875E-4     1.014       0.3344E-4     1.016   
    1.922       0.2908E-4     1.014       0.3382E-4     1.016   
    1.942       0.2941E-4     1.014       0.3420E-4     1.016   
    1.962       0.2974E-4     1.014       0.3459E-4     1.016   
    1.982       0.3007E-4     1.014       0.3497E-4     1.016   
    2.002       0.3040E-4     1.014       0.3536E-4     1.016   
    2.022       0.3073E-4     1.014       0.3574E-4     1.016   
    2.042       0.3106E-4     1.014       0.3613E-4     1.016   
    2.062       0.3139E-4     1.014       0.3652E-4     1.016   
    2.082       0.3172E-4     1.014       0.3691E-4     1.016   
    2.102       0.3206E-4     1.014       0.3730E-4     1.016   
    2.122       0.3239E-4     1.014       0.3769E-4     1.016   
    2.142       0.3273E-4     1.014       0.3809E-4     1.016   
    2.162       0.3307E-4     1.014       0.3848E-4     1.016   
    2.182       0.3340E-4     1.014       0.3888E-4     1.016   
    2.202       0.3374E-4     1.014       0.3927E-4     1.016   
    2.222       0.3408E-4     1.014       0.3967E-4     1.016   
    2.242       0.3442E-4     1.014       0.4007E-4     1.016   
    2.262       0.3476E-4     1.014       0.4047E-4     1.016   
    2.282       0.3511E-4     1.014       0.4087E-4     1.016   
    2.302       0.3545E-4     1.014       0.4128E-4     1.016   
    2.322       0.3579E-4     1.014       0.4168E-4     1.016   
    2.342       0.3614E-4     1.014       0.4208E-4     1.016   
    2.362       0.3648E-4     1.014       0.4249E-4     1.016   
    2.382       0.3683E-4     1.015       0.4290E-4     1.016   
    2.402       0.3718E-4     1.015       0.4331E-4     1.016   
    2.422       0.3753E-4     1.015       0.4372E-4     1.016   
    2.442       0.3788E-4     1.015       0.4413E-4     1.016   
    2.462       0.3823E-4     1.015       0.4454E-4     1.016   
    2.482       0.3858E-4     1.015       0.4496E-4     1.016   
    2.503       0.3894E-4     1.015       0.4537E-4     1.016   
    2.523       0.3929E-4     1.015       0.4579E-4     1.016   
    2.543       0.3965E-4     1.015       0.4621E-4     1.016   
    2.563       0.4001E-4     1.015       0.4663E-4     1.016   
    2.583       0.4036E-4     1.015       0.4705E-4     1.016   
    2.603       0.4072E-4     1.015       0.4747E-4     1.016   
    2.623       0.4108E-4     1.015       0.4790E-4     1.016   
    2.643       0.4145E-4     1.015       0.4832E-4     1.016   
    2.663       0.4181E-4     1.015       0.4875E-4     1.016   
    2.683       0.4217E-4     1.015       0.4918E-4     1.016   
    2.703       0.4254E-4     1.015       0.4961E-4     1.016   
    2.723       0.4290E-4     1.015       0.5004E-4     1.016   
    2.743       0.4327E-4     1.015       0.5047E-4     1.016   
    2.763       0.4364E-4     1.015       0.5091E-4     1.016   
    2.783       0.4401E-4     1.015       0.5134E-4     1.016   
    2.803       0.4438E-4     1.015       0.5178E-4     1.016   
    2.823       0.4475E-4     1.015       0.5222E-4     1.016   
    2.843       0.4513E-4     1.015       0.5266E-4     1.016   
    2.863       0.4550E-4     1.015       0.5310E-4     1.016   
    2.883       0.4588E-4     1.015       0.5355E-4     1.016   
    2.903       0.4626E-4     1.015       0.5399E-4     1.016   
    2.923       0.4664E-4     1.015       0.5444E-4     1.016   
    2.943       0.4702E-4     1.015       0.5489E-4     1.016   
    2.963       0.4740E-4     1.015       0.5534E-4     1.016   
    2.983       0.4778E-4     1.015       0.5579E-4     1.016   
    3.003       0.4817E-4     1.015       0.5625E-4     1.016   
    3.023       0.4856E-4     1.015       0.5671E-4     1.016   
    3.043       0.4894E-4     1.015       0.5716E-4     1.016   
    3.063       0.4933E-4     1.015       0.5762E-4     1.016   
    3.083       0.4972E-4     1.015       0.5809E-4     1.016   
    3.103       0.5012E-4     1.015       0.5855E-4     1.016   
    3.123       0.5051E-4     1.015       0.5902E-4     1.016   
    3.143       0.5090E-4     1.015       0.5948E-4     1.016   
    3.163       0.5130E-4     1.015       0.5995E-4     1.016   
    3.183       0.5170E-4     1.015       0.6042E-4     1.016   
    3.203       0.5210E-4     1.015       0.6090E-4     1.016   
    3.223       0.5250E-4     1.015       0.6137E-4     1.016   
    3.243       0.5290E-4     1.015       0.6185E-4     1.016   
    3.263       0.5331E-4     1.015       0.6233E-4     1.016   
    3.283       0.5371E-4     1.015       0.6281E-4     1.016   
    3.303       0.5412E-4     1.015       0.6330E-4     1.016   
    3.323       0.5453E-4     1.015       0.6378E-4     1.016   
    3.343       0.5494E-4     1.015       0.6427E-4     1.016   
    3.363       0.5535E-4     1.015       0.6476E-4     1.016   
    3.383       0.5577E-4     1.015       0.6525E-4     1.016   
    3.403       0.5619E-4     1.015       0.6575E-4     1.016   
    3.423       0.5660E-4     1.015       0.6624E-4     1.016   
    3.443       0.5702E-4     1.015       0.6674E-4     1.016   
    3.463       0.5744E-4     1.015       0.6724E-4     1.016   
    3.483       0.5787E-4     1.015       0.6774E-4     1.016   
    3.504       0.5829E-4     1.015       0.6825E-4     1.016   
    3.524       0.5872E-4     1.015       0.6876E-4     1.016   
    3.544       0.5915E-4     1.015       0.6927E-4     1.016   
    3.564       0.5958E-4     1.015       0.6978E-4     1.016   
    3.584       0.6001E-4     1.015       0.7029E-4     1.016   
    3.604       0.6045E-4     1.015       0.7081E-4     1.016   
    3.624       0.6088E-4     1.015       0.7133E-4     1.016   
    3.644       0.6132E-4     1.015       0.7185E-4     1.016   
    3.664       0.6176E-4     1.015       0.7238E-4     1.016   
    3.684       0.6220E-4     1.015       0.7290E-4     1.016   
    3.704       0.6265E-4     1.015       0.7343E-4     1.016   
    3.724       0.6309E-4     1.015       0.7397E-4     1.016   
    3.744       0.6354E-4     1.015       0.7450E-4     1.016   
    3.764       0.6399E-4     1.015       0.7504E-4     1.017   
    3.784       0.6444E-4     1.015       0.7558E-4     1.017   
    3.804       0.6490E-4     1.015       0.7612E-4     1.017   
    3.824       0.6535E-4     1.015       0.7666E-4     1.017   
    3.844       0.6581E-4     1.015       0.7721E-4     1.017   
    3.864       0.6627E-4     1.015       0.7776E-4     1.017   
    3.884       0.6674E-4     1.015       0.7832E-4     1.017   
    3.904       0.6720E-4     1.015       0.7887E-4     1.017   
    3.924       0.6767E-4     1.015       0.7943E-4     1.017   
    3.944       0.6814E-4     1.015       0.7999E-4     1.017   
    3.964       0.6861E-4     1.015       0.8056E-4     1.017   
    3.984       0.6908E-4     1.015       0.8112E-4     1.017   
    4.004       0.6956E-4     1.015       0.8169E-4     1.017   
    4.024       0.7004E-4     1.015       0.8227E-4     1.017   
    4.044       0.7052E-4     1.015       0.8284E-4     1.017   
    4.064       0.7100E-4     1.015       0.8342E-4     1.017   
    4.084       0.7149E-4     1.015       0.8401E-4     1.017   
    4.104       0.7198E-4     1.015       0.8459E-4     1.017   
    4.124       0.7247E-4     1.015       0.8518E-4     1.017   
    4.144       0.7296E-4     1.015       0.8577E-4     1.017   
    4.164       0.7345E-4     1.015       0.8637E-4     1.017   
    4.184       0.7395E-4     1.015       0.8696E-4     1.017   
    4.204       0.7445E-4     1.015       0.8756E-4     1.017   
    4.224       0.7496E-4     1.016       0.8817E-4     1.017   
    4.244       0.7546E-4     1.016       0.8878E-4     1.017   
    4.264       0.7597E-4     1.016       0.8939E-4     1.017   
    4.284       0.7648E-4     1.016       0.9000E-4     1.017   
    4.304       0.7699E-4     1.016       0.9062E-4     1.017   
    4.324       0.7751E-4     1.016       0.9124E-4     1.017   
    4.344       0.7803E-4     1.016       0.9187E-4     1.017   
    4.364       0.7855E-4     1.016       0.9249E-4     1.017   
    4.384       0.7907E-4     1.016       0.9313E-4     1.017   
    4.404       0.7960E-4     1.016       0.9376E-4     1.017   
    4.424       0.8013E-4     1.016       0.9440E-4     1.017   
    4.444       0.8066E-4     1.016       0.9504E-4     1.017   
    4.464       0.8120E-4     1.016       0.9569E-4     1.017   
    4.484       0.8174E-4     1.016       0.9634E-4     1.017   
    4.505       0.8228E-4     1.016       0.9699E-4     1.017   
    4.525       0.8282E-4     1.016       0.9765E-4     1.017   
    4.545       0.8337E-4     1.016       0.9831E-4     1.017   
    4.565       0.8392E-4     1.016       0.9898E-4     1.017   
    4.585       0.8447E-4     1.016       0.9964E-4     1.017   
    4.605       0.8503E-4     1.016       0.1003E-3     1.017   
    4.625       0.8559E-4     1.016       0.1010E-3     1.017   
    4.645       0.8615E-4     1.016       0.1017E-3     1.017   
    4.665       0.8672E-4     1.016       0.1024E-3     1.017   
    4.685       0.8729E-4     1.016       0.1030E-3     1.017   
    4.705       0.8786E-4     1.016       0.1037E-3     1.017   
    4.725       0.8844E-4     1.016       0.1044E-3     1.017   
    4.745       0.8901E-4     1.016       0.1051E-3     1.017   
    4.765       0.8960E-4     1.016       0.1058E-3     1.017   
    4.785       0.9018E-4     1.016       0.1066E-3     1.017   
    4.805       0.9077E-4     1.016       0.1073E-3     1.017   
    4.825       0.9136E-4     1.016       0.1080E-3     1.017   
    4.845       0.9196E-4     1.016       0.1087E-3     1.017   
    4.865       0.9256E-4     1.016       0.1094E-3     1.018   
    4.885       0.9316E-4     1.016       0.1102E-3     1.018   
    4.905       0.9377E-4     1.016       0.1109E-3     1.018   
    4.925       0.9438E-4     1.016       0.1117E-3     1.018   
    4.945       0.9499E-4     1.016       0.1124E-3     1.018   
    4.965       0.9561E-4     1.016       0.1132E-3     1.018   
    4.985       0.9623E-4     1.016       0.1139E-3     1.018   
    5.005       0.9685E-4     1.016       0.1147E-3     1.018   
    5.025       0.9748E-4     1.016       0.1154E-3     1.018   
    5.045       0.9811E-4     1.016       0.1162E-3     1.018   
    5.065       0.9875E-4     1.016       0.1170E-3     1.018   
    5.085       0.9939E-4     1.016       0.1178E-3     1.018   
    5.105       0.1000E-3     1.016       0.1185E-3     1.018   
    5.125       0.1007E-3     1.016       0.1193E-3     1.018   
    5.145       0.1013E-3     1.016       0.1201E-3     1.018   
    5.165       0.1020E-3     1.016       0.1209E-3     1.018   
    5.185       0.1026E-3     1.016       0.1217E-3     1.018   
    5.205       0.1033E-3     1.016       0.1226E-3     1.018   
    5.225       0.1040E-3     1.016       0.1234E-3     1.018   
    5.245       0.1047E-3     1.016       0.1242E-3     1.018   
    5.265       0.1053E-3     1.016       0.1250E-3     1.018   
    5.285       0.1060E-3     1.016       0.1259E-3     1.018   
    5.305       0.1067E-3     1.016       0.1267E-3     1.018   
    5.325       0.1074E-3     1.017       0.1275E-3     1.018   
    5.345       0.1081E-3     1.017       0.1284E-3     1.018   
    5.365       0.1088E-3     1.017       0.1292E-3     1.018   
    5.385       0.1095E-3     1.017       0.1301E-3     1.018   
    5.405       0.1102E-3     1.017       0.1310E-3     1.018   
    5.425       0.1109E-3     1.017       0.1319E-3     1.018   
    5.445       0.1116E-3     1.017       0.1327E-3     1.018   
    5.465       0.1123E-3     1.017       0.1336E-3     1.018   
    5.485       0.1131E-3     1.017       0.1345E-3     1.018   
    5.506       0.1138E-3     1.017       0.1354E-3     1.018   
    5.526       0.1145E-3     1.017       0.1363E-3     1.018   
    5.546       0.1153E-3     1.017       0.1372E-3     1.018   
    5.566       0.1160E-3     1.017       0.1382E-3     1.018   
    5.586       0.1168E-3     1.017       0.1391E-3     1.018   
    5.606       0.1175E-3     1.017       0.1400E-3     1.018   
    5.626       0.1183E-3     1.017       0.1410E-3     1.018   
    5.646       0.1191E-3     1.017       0.1419E-3     1.018   
    5.666       0.1198E-3     1.017       0.1429E-3     1.019   
    5.686       0.1206E-3     1.017       0.1438E-3     1.019   
    5.706       0.1214E-3     1.017       0.1448E-3     1.019   
    5.726       0.1222E-3     1.017       0.1458E-3     1.019   
    5.746       0.1230E-3     1.017       0.1467E-3     1.019   
    5.766       0.1238E-3     1.017       0.1477E-3     1.019   
    5.786       0.1246E-3     1.017       0.1487E-3     1.019   
    5.806       0.1254E-3     1.017       0.1497E-3     1.019   
    5.826       0.1262E-3     1.017       0.1507E-3     1.019   
    5.846       0.1270E-3     1.017       0.1518E-3     1.019   
    5.866       0.1279E-3     1.017       0.1528E-3     1.019   
    5.886       0.1287E-3     1.017       0.1538E-3     1.019   
    5.906       0.1295E-3     1.017       0.1549E-3     1.019   
    5.926       0.1304E-3     1.017       0.1559E-3     1.019   
    5.946       0.1312E-3     1.017       0.1570E-3     1.019   
    5.966       0.1321E-3     1.017       0.1580E-3     1.019   
    5.986       0.1330E-3     1.017       0.1591E-3     1.019   
    6.006       0.1338E-3     1.017       0.1602E-3     1.019   
    6.026       0.1347E-3     1.017       0.1613E-3     1.019   
    6.046       0.1356E-3     1.017       0.1624E-3     1.019   
    6.066       0.1365E-3     1.017       0.1635E-3     1.019   
    6.086       0.1374E-3     1.017       0.1646E-3     1.019   
    6.106       0.1383E-3     1.017       0.1657E-3     1.019   
    6.126       0.1392E-3     1.017       0.1669E-3     1.019   
    6.146       0.1401E-3     1.018       0.1680E-3     1.019   
    6.166       0.1410E-3     1.018       0.1692E-3     1.019   
    6.186       0.1420E-3     1.018       0.1703E-3     1.019   
    6.206       0.1429E-3     1.018       0.1715E-3     1.019   
    6.226       0.1438E-3     1.018       0.1727E-3     1.019   
    6.246       0.1448E-3     1.018       0.1739E-3     1.019   
    6.266       0.1457E-3     1.018       0.1751E-3     1.019   
    6.286       0.1467E-3     1.018       0.1763E-3     1.019   
    6.306       0.1477E-3     1.018       0.1775E-3     1.020   
    6.326       0.1487E-3     1.018       0.1787E-3     1.020   
    6.346       0.1497E-3     1.018       0.1800E-3     1.020   
    6.366       0.1507E-3     1.018       0.1812E-3     1.020   
    6.386       0.1517E-3     1.018       0.1825E-3     1.020   
    6.406       0.1527E-3     1.018       0.1838E-3     1.020   
    6.426       0.1537E-3     1.018       0.1850E-3     1.020   
    6.446       0.1547E-3     1.018       0.1863E-3     1.020   
    6.466       0.1558E-3     1.018       0.1876E-3     1.020   
    6.486       0.1568E-3     1.018       0.1890E-3     1.020   
    6.507       0.1579E-3     1.018       0.1903E-3     1.020   
    6.527       0.1589E-3     1.018       0.1916E-3     1.020   
    6.547       0.1600E-3     1.018       0.1930E-3     1.020   
    6.567       0.1611E-3     1.018       0.1943E-3     1.020   
    6.587       0.1622E-3     1.018       0.1957E-3     1.020   
    6.607       0.1633E-3     1.018       0.1971E-3     1.020   
    6.627       0.1644E-3     1.018       0.1985E-3     1.020   
    6.647       0.1655E-3     1.018       0.1999E-3     1.020   
    6.667       0.1666E-3     1.018       0.2013E-3     1.020   
    6.687       0.1677E-3     1.018       0.2028E-3     1.020   
    6.707       0.1689E-3     1.018       0.2042E-3     1.020   
    6.727       0.1700E-3     1.018       0.2057E-3     1.020   
    6.747       0.1712E-3     1.018       0.2071E-3     1.020   
    6.767       0.1724E-3     1.018       0.2086E-3     1.020   
    6.787       0.1736E-3     1.019       0.2101E-3     1.020   
    6.807       0.1748E-3     1.019       0.2116E-3     1.021   
    6.827       0.1760E-3     1.019       0.2132E-3     1.021   
    6.847       0.1772E-3     1.019       0.2147E-3     1.021   
    6.867       0.1784E-3     1.019       0.2163E-3     1.021   
    6.887       0.1796E-3     1.019       0.2178E-3     1.021   
    6.907       0.1809E-3     1.019       0.2194E-3     1.021   
    6.927       0.1821E-3     1.019       0.2210E-3     1.021   
    6.947       0.1834E-3     1.019       0.2226E-3     1.021   
    6.967       0.1847E-3     1.019       0.2243E-3     1.021   
    6.987       0.1860E-3     1.019       0.2259E-3     1.021   
    7.007       0.1873E-3     1.019       0.2276E-3     1.021   
    7.027       0.1886E-3     1.019       0.2293E-3     1.021   
    7.047       0.1899E-3     1.019       0.2309E-3     1.021   
    7.067       0.1912E-3     1.019       0.2327E-3     1.021   
    7.087       0.1926E-3     1.019       0.2344E-3     1.021   
    7.107       0.1939E-3     1.019       0.2361E-3     1.021   
    7.127       0.1953E-3     1.019       0.2379E-3     1.021   
    7.147       0.1967E-3     1.019       0.2397E-3     1.021   
    7.167       0.1981E-3     1.019       0.2414E-3     1.021   
    7.187       0.1995E-3     1.019       0.2433E-3     1.021   
    7.207       0.2009E-3     1.019       0.2451E-3     1.021   
    7.227       0.2024E-3     1.019       0.2469E-3     1.021   
    7.247       0.2038E-3     1.019       0.2488E-3     1.022   
    7.267       0.2053E-3     1.019       0.2507E-3     1.022   
    7.287       0.2068E-3     1.019       0.2526E-3     1.022   
    7.307       0.2082E-3     1.020       0.2545E-3     1.022   
    7.327       0.2097E-3     1.020       0.2564E-3     1.022   
    7.347       0.2113E-3     1.020       0.2584E-3     1.022   
    7.367       0.2128E-3     1.020       0.2604E-3     1.022   
    7.387       0.2143E-3     1.020       0.2624E-3     1.022   
    7.407       0.2159E-3     1.020       0.2644E-3     1.022   
    7.427       0.2175E-3     1.020       0.2664E-3     1.022   
    7.447       0.2191E-3     1.020       0.2685E-3     1.022   
    7.467       0.2207E-3     1.020       0.2706E-3     1.022   
    7.487       0.2223E-3     1.020       0.2727E-3     1.022   
    7.508       0.2239E-3     1.020       0.2748E-3     1.022   
    7.528       0.2256E-3     1.020       0.2769E-3     1.022   
    7.548       0.2273E-3     1.020       0.2791E-3     1.022   
    7.568       0.2290E-3     1.020       0.2813E-3     1.022   
    7.588       0.2307E-3     1.020       0.2835E-3     1.022   
    7.608       0.2324E-3     1.020       0.2858E-3     1.022   
    7.628       0.2341E-3     1.020       0.2880E-3     1.023   
    7.648       0.2359E-3     1.020       0.2903E-3     1.023   
    7.668       0.2377E-3     1.020       0.2926E-3     1.023   
    7.688       0.2394E-3     1.020       0.2950E-3     1.023   
    7.708       0.2413E-3     1.020       0.2973E-3     1.023   
    7.728       0.2431E-3     1.020       0.2997E-3     1.023   
    7.748       0.2449E-3     1.020       0.3021E-3     1.023   
    7.768       0.2468E-3     1.021       0.3046E-3     1.023   
    7.788       0.2487E-3     1.021       0.3070E-3     1.023   
    7.808       0.2506E-3     1.021       0.3095E-3     1.023   
    7.828       0.2525E-3     1.021       0.3121E-3     1.023   
    7.848       0.2545E-3     1.021       0.3146E-3     1.023   
    7.868       0.2564E-3     1.021       0.3172E-3     1.023   
    7.888       0.2584E-3     1.021       0.3198E-3     1.023   
    7.908       0.2604E-3     1.021       0.3224E-3     1.023   
    7.928       0.2624E-3     1.021       0.3251E-3     1.023   
    7.948       0.2645E-3     1.021       0.3278E-3     1.024   
    7.968       0.2666E-3     1.021       0.3305E-3     1.024   
    7.988       0.2687E-3     1.021       0.3333E-3     1.024   
    8.008       0.2708E-3     1.021       0.3361E-3     1.024   
    8.028       0.2729E-3     1.021       0.3389E-3     1.024   
    8.048       0.2751E-3     1.021       0.3418E-3     1.024   
    8.068       0.2773E-3     1.021       0.3447E-3     1.024   
    8.088       0.2795E-3     1.021       0.3476E-3     1.024   
    8.108       0.2817E-3     1.021       0.3506E-3     1.024   
    8.128       0.2840E-3     1.022       0.3536E-3     1.024   
    8.148       0.2863E-3     1.022       0.3566E-3     1.024   
    8.168       0.2886E-3     1.022       0.3597E-3     1.024   
    8.188       0.2909E-3     1.022       0.3628E-3     1.024   
    8.208       0.2933E-3     1.022       0.3659E-3     1.024   
    8.228       0.2957E-3     1.022       0.3691E-3     1.024   
    8.248       0.2981E-3     1.022       0.3723E-3     1.025   
    8.268       0.3005E-3     1.022       0.3756E-3     1.025   
    8.288       0.3030E-3     1.022       0.3789E-3     1.025   
    8.308       0.3055E-3     1.022       0.3822E-3     1.025   
    8.328       0.3080E-3     1.022       0.3856E-3     1.025   
    8.348       0.3106E-3     1.022       0.3890E-3     1.025   
    8.368       0.3132E-3     1.022       0.3925E-3     1.025   
    8.388       0.3158E-3     1.022       0.3960E-3     1.025   
    8.408       0.3185E-3     1.022       0.3996E-3     1.025   
    8.428       0.3211E-3     1.022       0.4032E-3     1.025   
    8.448       0.3238E-3     1.022       0.4068E-3     1.025   
    8.468       0.3266E-3     1.023       0.4105E-3     1.025   
    8.488       0.3294E-3     1.023       0.4143E-3     1.026   
    8.509       0.3322E-3     1.023       0.4181E-3     1.026   
    8.529       0.3350E-3     1.023       0.4219E-3     1.026   
    8.549       0.3379E-3     1.023       0.4258E-3     1.026   
    8.569       0.3408E-3     1.023       0.4298E-3     1.026   
    8.589       0.3438E-3     1.023       0.4337E-3     1.026   
    8.609       0.3468E-3     1.023       0.4378E-3     1.026   
    8.629       0.3498E-3     1.023       0.4419E-3     1.026   
    8.649       0.3529E-3     1.023       0.4461E-3     1.026   
    8.669       0.3560E-3     1.023       0.4503E-3     1.026   
    8.689       0.3591E-3     1.023       0.4546E-3     1.026   
    8.709       0.3623E-3     1.023       0.4589E-3     1.026   
    8.729       0.3655E-3     1.023       0.4633E-3     1.027   
    8.749       0.3688E-3     1.024       0.4677E-3     1.027   
    8.769       0.3721E-3     1.024       0.4722E-3     1.027   
    8.789       0.3755E-3     1.024       0.4768E-3     1.027   
    8.809       0.3789E-3     1.024       0.4815E-3     1.027   
    8.829       0.3823E-3     1.024       0.4862E-3     1.027   
    8.849       0.3858E-3     1.024       0.4909E-3     1.027   
    8.869       0.3893E-3     1.024       0.4958E-3     1.027   
    8.889       0.3929E-3     1.024       0.5007E-3     1.027   
    8.909       0.3965E-3     1.024       0.5057E-3     1.027   
    8.929       0.4002E-3     1.024       0.5107E-3     1.028   
    8.949       0.4039E-3     1.024       0.5159E-3     1.028   
    8.969       0.4077E-3     1.024       0.5211E-3     1.028   
    8.989       0.4115E-3     1.024       0.5263E-3     1.028   
    9.009       0.4154E-3     1.025       0.5317E-3     1.028   
    9.029       0.4193E-3     1.025       0.5371E-3     1.028   
    9.049       0.4233E-3     1.025       0.5426E-3     1.028   
    9.069       0.4273E-3     1.025       0.5482E-3     1.028   
    9.089       0.4314E-3     1.025       0.5539E-3     1.028   
    9.109       0.4356E-3     1.025       0.5597E-3     1.028   
    9.129       0.4398E-3     1.025       0.5656E-3     1.029   
    9.149       0.4441E-3     1.025       0.5715E-3     1.029   
    9.169       0.4484E-3     1.025       0.5775E-3     1.029   
    9.189       0.4528E-3     1.025       0.5837E-3     1.029   
    9.209       0.4573E-3     1.025       0.5899E-3     1.029   
    9.229       0.4618E-3     1.025       0.5962E-3     1.029   
    9.249       0.4664E-3     1.026       0.6027E-3     1.029   
    9.269       0.4710E-3     1.026       0.6092E-3     1.029   
    9.289       0.4757E-3     1.026       0.6158E-3     1.030   
    9.309       0.4805E-3     1.026       0.6226E-3     1.030   
    9.329       0.4854E-3     1.026       0.6294E-3     1.030   
    9.349       0.4904E-3     1.026       0.6364E-3     1.030   
    9.369       0.4954E-3     1.026       0.6435E-3     1.030   
    9.389       0.5005E-3     1.026       0.6507E-3     1.030   
    9.409       0.5056E-3     1.026       0.6580E-3     1.030   
    9.429       0.5109E-3     1.026       0.6654E-3     1.030   
    9.449       0.5162E-3     1.027       0.6730E-3     1.031   
    9.469       0.5216E-3     1.027       0.6807E-3     1.031   
    9.489       0.5271E-3     1.027       0.6885E-3     1.031   
    9.510       0.5327E-3     1.027       0.6964E-3     1.031   
    9.530       0.5384E-3     1.027       0.7045E-3     1.031   
    9.550       0.5441E-3     1.027       0.7127E-3     1.031   
    9.570       0.5500E-3     1.027       0.7211E-3     1.031   
    9.590       0.5559E-3     1.027       0.7296E-3     1.032   
    9.610       0.5620E-3     1.027       0.7383E-3     1.032   
    9.630       0.5681E-3     1.028       0.7471E-3     1.032   
    9.650       0.5744E-3     1.028       0.7561E-3     1.032   
    9.670       0.5807E-3     1.028       0.7652E-3     1.032   
    9.690       0.5872E-3     1.028       0.7745E-3     1.032   
    9.710       0.5937E-3     1.028       0.7840E-3     1.032   
    9.730       0.6004E-3     1.028       0.7936E-3     1.033   
    9.750       0.6072E-3     1.028       0.8035E-3     1.033   
    9.770       0.6141E-3     1.028       0.8135E-3     1.033   
    9.790       0.6211E-3     1.028       0.8237E-3     1.033   
    9.810       0.6282E-3     1.029       0.8340E-3     1.033   
    9.830       0.6355E-3     1.029       0.8446E-3     1.033   
    9.850       0.6429E-3     1.029       0.8554E-3     1.034   
    9.870       0.6504E-3     1.029       0.8664E-3     1.034   
    9.890       0.6580E-3     1.029       0.8776E-3     1.034   
    9.910       0.6658E-3     1.029       0.8890E-3     1.034   
    9.930       0.6737E-3     1.029       0.9007E-3     1.034   
    9.950       0.6818E-3     1.030       0.9125E-3     1.034   
    9.970       0.6900E-3     1.030       0.9247E-3     1.035   
    9.990       0.6984E-3     1.030       0.9370E-3     1.035   
    10.01       0.7069E-3     1.030       0.9496E-3     1.035   
    10.03       0.7156E-3     1.030       0.9625E-3     1.035   
    10.05       0.7244E-3     1.030       0.9756E-3     1.035   
    10.07       0.7335E-3     1.030       0.9890E-3     1.036   
    10.09       0.7426E-3     1.031       0.1003E-2     1.036   
    10.11       0.7520E-3     1.031       0.1017E-2     1.036   
    10.13       0.7615E-3     1.031       0.1031E-2     1.036   
    10.15       0.7712E-3     1.031       0.1045E-2     1.036   
    10.17       0.7812E-3     1.031       0.1060E-2     1.037   
    10.19       0.7913E-3     1.031       0.1075E-2     1.037   
    10.21       0.8016E-3     1.031       0.1091E-2     1.037   
    10.23       0.8121E-3     1.032       0.1107E-2     1.037   
    10.25       0.8228E-3     1.032       0.1123E-2     1.038   
    10.27       0.8337E-3     1.032       0.1140E-2     1.038   
    10.29       0.8449E-3     1.032       0.1157E-2     1.038   
    10.31       0.8563E-3     1.032       0.1174E-2     1.038   
    10.33       0.8679E-3     1.032       0.1192E-2     1.038   
    10.35       0.8798E-3     1.033       0.1210E-2     1.039   
    10.37       0.8919E-3     1.033       0.1228E-2     1.039   
    10.39       0.9043E-3     1.033       0.1247E-2     1.039   
    10.41       0.9169E-3     1.033       0.1267E-2     1.039   
    10.43       0.9298E-3     1.033       0.1287E-2     1.040   
    10.45       0.9430E-3     1.034       0.1307E-2     1.040   
    10.47       0.9565E-3     1.034       0.1328E-2     1.040   
    10.49       0.9703E-3     1.034       0.1349E-2     1.040   
    10.51       0.9844E-3     1.034       0.1371E-2     1.041   
    10.53       0.9988E-3     1.034       0.1393E-2     1.041   
    10.55       0.1014E-2     1.035       0.1416E-2     1.041   
    10.57       0.1029E-2     1.035       0.1440E-2     1.042   
    10.59       0.1044E-2     1.035       0.1464E-2     1.042   
    10.61       0.1060E-2     1.035       0.1489E-2     1.042   
    10.63       0.1076E-2     1.035       0.1515E-2     1.042   
    10.65       0.1092E-2     1.036       0.1541E-2     1.043   
    10.67       0.1109E-2     1.036       0.1567E-2     1.043   
    10.69       0.1127E-2     1.036       0.1595E-2     1.043   
    10.71       0.1144E-2     1.036       0.1623E-2     1.044   
    10.73       0.1163E-2     1.036       0.1652E-2     1.044   
    10.75       0.1181E-2     1.037       0.1682E-2     1.044   
    10.77       0.1200E-2     1.037       0.1713E-2     1.045   
    10.79       0.1220E-2     1.037       0.1744E-2     1.045   
    10.81       0.1240E-2     1.037       0.1777E-2     1.045   
    10.83       0.1261E-2     1.038       0.1810E-2     1.046   
    10.85       0.1282E-2     1.038       0.1844E-2     1.046   
    10.87       0.1303E-2     1.038       0.1880E-2     1.047   
    10.89       0.1326E-2     1.038       0.1916E-2     1.047   
    10.91       0.1348E-2     1.039       0.1953E-2     1.047   
    10.93       0.1372E-2     1.039       0.1992E-2     1.048   
    10.95       0.1396E-2     1.039       0.2032E-2     1.048   
    10.97       0.1421E-2     1.040       0.2073E-2     1.048   
    10.99       0.1446E-2     1.040       0.2115E-2     1.049   
    11.01       0.1472E-2     1.040       0.2159E-2     1.049   
    11.03       0.1499E-2     1.040       0.2203E-2     1.050   
    11.05       0.1527E-2     1.041       0.2250E-2     1.050   
    11.07       0.1555E-2     1.041       0.2298E-2     1.051   
    11.09       0.1585E-2     1.041       0.2347E-2     1.051   
    11.11       0.1615E-2     1.042       0.2398E-2     1.052   
    11.13       0.1646E-2     1.042       0.2451E-2     1.052   
    11.15       0.1678E-2     1.042       0.2506E-2     1.053   
    11.17       0.1711E-2     1.043       0.2562E-2     1.053   
    11.19       0.1745E-2     1.043       0.2621E-2     1.054   
    11.21       0.1780E-2     1.043       0.2682E-2     1.054   
    11.23       0.1816E-2     1.044       0.2744E-2     1.055   
    11.25       0.1853E-2     1.044       0.2809E-2     1.055   
    11.27       0.1892E-2     1.044       0.2877E-2     1.056   
    11.29       0.1932E-2     1.045       0.2947E-2     1.056   
    11.31       0.1973E-2     1.045       0.3019E-2     1.057   
    11.33       0.2015E-2     1.046       0.3095E-2     1.058   
    11.35       0.2059E-2     1.046       0.3173E-2     1.058   
    11.37       0.2104E-2     1.046       0.3254E-2     1.059   
    11.39       0.2151E-2     1.047       0.3339E-2     1.059   
    11.41       0.2200E-2     1.047       0.3427E-2     1.060   
    11.43       0.2251E-2     1.048       0.3519E-2     1.061   
    11.45       0.2303E-2     1.048       0.3614E-2     1.062   
    11.47       0.2357E-2     1.049       0.3714E-2     1.062   
    11.49       0.2413E-2     1.049       0.3817E-2     1.063   
    11.51       0.2471E-2     1.050       0.3926E-2     1.064   
    11.53       0.2532E-2     1.050       0.4039E-2     1.065   
    11.55       0.2595E-2     1.051       0.4157E-2     1.065   
    11.57       0.2660E-2     1.051       0.4280E-2     1.066   
    11.59       0.2728E-2     1.052       0.4409E-2     1.067   
    11.61       0.2799E-2     1.052       0.4544E-2     1.068   
    11.63       0.2872E-2     1.053       0.4686E-2     1.069   
    11.65       0.2949E-2     1.053       0.4835E-2     1.070   
    11.67       0.3029E-2     1.054       0.4991E-2     1.071   
    11.69       0.3112E-2     1.055       0.5154E-2     1.072   
    11.71       0.3199E-2     1.055       0.5326E-2     1.073   
    11.73       0.3289E-2     1.056       0.5507E-2     1.074   
    11.75       0.3384E-2     1.056       0.5698E-2     1.075   
    11.77       0.3483E-2     1.057       0.5899E-2     1.076   
    11.79       0.3587E-2     1.058       0.6111E-2     1.077   
    11.81       0.3696E-2     1.059       0.6334E-2     1.079   
    11.83       0.3810E-2     1.059       0.6571E-2     1.080   
    11.85       0.3929E-2     1.060       0.6821E-2     1.081   
    11.87       0.4054E-2     1.061       0.7087E-2     1.082   
    11.89       0.4186E-2     1.062       0.7368E-2     1.084   
    11.91       0.4324E-2     1.063       0.7667E-2     1.085   
    11.93       0.4470E-2     1.063       0.7984E-2     1.087   
    11.95       0.4623E-2     1.064       0.8322E-2     1.088   
    11.97       0.4785E-2     1.065       0.8683E-2     1.090   
    11.99       0.4956E-2     1.066       0.9067E-2     1.092   
    12.01       0.5136E-2     1.067       0.9479E-2     1.094   
    12.03       0.5327E-2     1.068       0.9919E-2     1.096   
    12.05       0.5529E-2     1.069       0.1039E-1     1.098   
    12.07       0.5744E-2     1.070       0.1090E-1     1.100   
    12.09       0.5971E-2     1.072       0.1145E-1     1.102   
    12.11       0.6213E-2     1.073       0.1203E-1     1.104   
    12.13       0.6470E-2     1.074       0.1267E-1     1.106   
    12.15       0.6744E-2     1.075       0.1336E-1     1.109   
    12.17       0.7036E-2     1.077       0.1411E-1     1.112   
    12.19       0.7348E-2     1.078       0.1492E-1     1.114   
    12.21       0.7682E-2     1.079       0.1580E-1     1.117   
    12.23       0.8041E-2     1.081       0.1677E-1     1.120   
    12.25       0.8425E-2     1.083       0.1783E-1     1.124   
    12.27       0.8839E-2     1.084       0.1899E-1     1.127   
    12.29       0.9285E-2     1.086       0.2027E-1     1.131   
    12.31       0.9767E-2     1.088       0.2169E-1     1.135   
    12.33       0.1029E-1     1.090       0.2326E-1     1.139   
    12.35       0.1085E-1     1.092       0.2501E-1     1.144   
    12.37       0.1147E-1     1.094       0.2696E-1     1.148   
    12.39       0.1214E-1     1.096       0.2915E-1     1.154   
    12.41241      0.01287      1.09864      0.03162      1.15913
    12.43243      0.01366      1.10117      0.03442      1.16510
    12.45245      0.01454      1.10384      0.03759      1.17156
    12.47247      0.01551      1.10669      0.04123      1.17854
    12.49249      0.01658      1.10971      0.04540      1.18612
    12.51251      0.01776      1.11293      0.05024      1.19435
    12.53253      0.01908      1.11636      0.05587      1.20332
    12.55255      0.02054      1.12004      0.06248      1.21312
    12.57257      0.02219      1.12398      0.07030      1.22382
    12.59259      0.02405      1.12820      0.07962      1.23551
    12.61261      0.02614      1.13276      0.09083      1.24829
    12.63263      0.02853      1.13767      0.10444      1.26222
    12.65265      0.03125      1.14297      0.12112      1.27728
    12.67267      0.03438      1.14873      0.14178      1.29339
    12.69269      0.03801      1.15498      0.16760      1.31020
    12.71271      0.04222      1.16178      0.20011      1.32701
    12.73273      0.04716      1.16920      0.24124      1.34238
    12.75275      0.05300      1.17730      0.29319      1.35361
    12.77277      0.05996      1.18616      0.35786      1.35604
    12.79279      0.06832      1.19583      0.43552      1.34218
    12.81281      0.07847      1.20636      0.52183      1.30192
    12.83283      0.09089      1.21777      0.60418      1.22577
    12.85285      0.10626      1.22997      0.66109      1.11308
    12.87287      0.12544      1.24275      0.67162      0.98041
    12.89289      0.14959      1.25560      0.63132      0.85676
    12.91291      0.18013      1.26747      0.55626      0.76528
    12.93293      0.21872      1.27645      0.46948      0.71160
    12.95295      0.26687      1.27914      0.38750      0.68854
    12.97297      0.32493      1.27010      0.31754      0.68557
    12.99299      0.39008      1.24176      0.26073      0.69403
    13.01301      0.45338      1.18669      0.21558      0.70821
    13.03303      0.49900      1.10349      0.17992      0.72472
    13.05305      0.51053      1.00347      0.15167      0.74170
    13.07307      0.48311      0.90830      0.12915      0.75821
    13.09309      0.42783      0.83644      0.11103      0.77378
    13.11311      0.36220      0.79339      0.09632      0.78823
    13.13313      0.29941      0.77423      0.08425      0.80154
    13.15315      0.24547      0.77099      0.07427      0.81375
    13.17317      0.20154      0.77691      0.06593      0.82493
    13.19319      0.16659      0.78747      0.05890      0.83517
    13.21321      0.13898      0.79998      0.05294      0.84457
    13.23323      0.11712      0.81294      0.04784      0.85320
    13.25325      0.09971      0.82559      0.04345      0.86115
    13.27327      0.08572      0.83755      0.03965      0.86849
    13.29329      0.07436      0.84867      0.03634      0.87529
    13.31331      0.06506      0.85892      0.03344      0.88159
    13.33333      0.05737      0.86834      0.03089      0.88746
    13.35335      0.05095      0.87697      0.02864      0.89293
    13.37337      0.04555      0.88489      0.02663      0.89805
    13.39339      0.04098      0.89216      0.02485      0.90284
    13.41341      0.03707      0.89885      0.02326      0.90735
    13.43343      0.03370      0.90501      0.02183      0.91159
    13.45345      0.03079      0.91072      0.02054      0.91560
    13.47347      0.02826      0.91600      0.01938      0.91939
    13.49349      0.02605      0.92091      0.01833      0.92298
    13.51351      0.02410      0.92549      0.01738      0.92640
    13.53353      0.02238      0.92977      0.01652      0.92965
    13.55355      0.02086      0.93378      0.01573      0.93275
    13.57357      0.01950      0.93754      0.01502      0.93571
    13.59359      0.01829      0.94109      0.01437      0.93855
    13.61361      0.01721      0.94443      0.01377      0.94127
    13.63       0.1624E-1    0.9476       0.1323E-1    0.9439   
    13.65       0.1536E-1    0.9506       0.1273E-1    0.9464   
    13.67       0.1457E-1    0.9535       0.1228E-1    0.9488   
    13.69       0.1386E-1    0.9562       0.1187E-1    0.9512   
    13.71       0.1321E-1    0.9588       0.1149E-1    0.9535   
    13.73       0.1262E-1    0.9613       0.1114E-1    0.9557   
    13.75       0.1209E-1    0.9637       0.1083E-1    0.9578   
    13.77       0.1160E-1    0.9659       0.1055E-1    0.9599   
    13.79       0.1116E-1    0.9682       0.1029E-1    0.9620   
    13.81       0.1076E-1    0.9703       0.1006E-1    0.9640   
    13.83       0.1040E-1    0.9723       0.9851E-2    0.9659   
    13.85       0.1007E-1    0.9743       0.9667E-2    0.9678   
    13.87       0.9767E-2    0.9763       0.9504E-2    0.9697   
    13.89       0.9495E-2    0.9782       0.9363E-2    0.9716   
    13.91       0.9249E-2    0.9800       0.9241E-2    0.9734   
    13.93       0.9027E-2    0.9818       0.9140E-2    0.9752   
    13.95       0.8827E-2    0.9835       0.9058E-2    0.9770   
    13.97       0.8649E-2    0.9852       0.8995E-2    0.9788   
    13.99       0.8490E-2    0.9869       0.8952E-2    0.9805   
    14.01       0.8351E-2    0.9886       0.8927E-2    0.9823   
    14.03       0.8229E-2    0.9902       0.8921E-2    0.9840   
    14.05       0.8125E-2    0.9918       0.8935E-2    0.9858   
    14.07       0.8037E-2    0.9934       0.8968E-2    0.9876   
    14.09       0.7965E-2    0.9950       0.9022E-2    0.9893   
    14.11       0.7909E-2    0.9965       0.9097E-2    0.9911   
    14.13       0.7868E-2    0.9981       0.9193E-2    0.9929   
    14.15       0.7842E-2    0.9996       0.9313E-2    0.9947   
    14.17       0.7831E-2     1.001       0.9458E-2    0.9965   
    14.19       0.7834E-2     1.003       0.9628E-2    0.9984   
    14.21       0.7853E-2     1.004       0.9826E-2     1.000   
    14.23       0.7887E-2     1.006       0.1005E-1     1.002   
    14.25       0.7935E-2     1.007       0.1031E-1     1.004   
    14.27       0.8000E-2     1.009       0.1061E-1     1.006   
    14.29       0.8080E-2     1.011       0.1094E-1     1.008   
    14.31       0.8177E-2     1.012       0.1132E-1     1.010   
    14.33       0.8291E-2     1.014       0.1175E-1     1.013   
    14.35       0.8423E-2     1.015       0.1222E-1     1.015   
    14.37       0.8574E-2     1.017       0.1276E-1     1.017   
    14.39       0.8745E-2     1.019       0.1336E-1     1.020   
    14.41       0.8937E-2     1.020       0.1404E-1     1.022   
    14.43       0.9152E-2     1.022       0.1480E-1     1.025   
    14.45       0.9391E-2     1.024       0.1566E-1     1.028   
    14.47       0.9656E-2     1.026       0.1663E-1     1.031   
    14.49       0.9950E-2     1.028       0.1773E-1     1.034   
    14.51       0.1027E-1     1.030       0.1898E-1     1.038   
    14.53       0.1063E-1     1.032       0.2041E-1     1.041   
    14.55       0.1103E-1     1.034       0.2204E-1     1.045   
    14.57       0.1146E-1     1.036       0.2392E-1     1.049   
    14.59       0.1194E-1     1.038       0.2610E-1     1.054   
    14.61       0.1247E-1     1.041       0.2863E-1     1.058   
    14.63       0.1305E-1     1.043       0.3159E-1     1.064   
    14.65       0.1370E-1     1.046       0.3508E-1     1.069   
    14.67       0.1441E-1     1.048       0.3922E-1     1.075   
    14.69469      0.01520      1.05127      0.04417      1.08170
    14.71471      0.01608      1.05424      0.05015      1.08882
    14.73473      0.01706      1.05737      0.05742      1.09653
    14.75475      0.01816      1.06068      0.06636      1.10484
    14.77477      0.01938      1.06419      0.07745      1.11367
    14.79480      0.02076      1.06792      0.09133      1.12284
    14.81481      0.02231      1.07190      0.10883      1.13194
    14.83483      0.02407      1.07614      0.13100      1.14016
    14.85485      0.02607      1.08069      0.15898      1.14599
    14.87487      0.02835      1.08558      0.19374      1.14683
    14.89489      0.03096      1.09085      0.23524      1.13859
    14.91491      0.03399      1.09654      0.28084      1.11584
    14.93493      0.03749      1.10270      0.32335      1.07382
    14.95495      0.04160      1.10939      0.35115      1.01302
    14.97497      0.04642      1.11666      0.35374      0.94311
    14.99499      0.05215      1.12459      0.33001      0.87956
    15.01501      0.05899      1.13324      0.28924      0.83370
    15.03503      0.06725      1.14265      0.24345      0.80757
    15.05505      0.07731      1.15288      0.20080      0.79699
    15.07508      0.08967      1.16390      0.16466      0.79643
    15.09509      0.10501      1.17562      0.13541      0.80150
    15.11511      0.12423      1.18776      0.11218      0.80933
    15.13513      0.14848      1.19973      0.09382      0.81825
    15.15515      0.17917      1.21034      0.07927      0.82734
    15.17517      0.21787      1.21744      0.06765      0.83614
    15.19519      0.26581      1.21733      0.05828      0.84442
    15.21521      0.32266      1.20423      0.05067      0.85211
    15.23524      0.38432      1.17074      0.04441      0.85919
    15.25525      0.44033      1.11088      0.03922      0.86568
    15.27527      0.47467      1.02648      0.03487      0.87163
    15.29529      0.47409      0.93191      0.03121      0.87709
    15.31531      0.43883      0.84808      0.02809      0.88210
    15.33534      0.38239      0.78903      0.02541      0.88671
    15.35535      0.32072      0.75624      0.02310      0.89095
    15.37537      0.26407      0.74361      0.02110      0.89487
    15.39540      0.21638      0.74374      0.01935      0.89850
    15.41541      0.17790      0.75095      0.01781      0.90187
    15.43543      0.14739      0.76158      0.01645      0.90500
    15.46       0.1233       0.7735       0.1525E-1    0.9079   
    15.48       0.1042       0.7856       0.1417E-1    0.9107   
    15.50       0.8887E-1    0.7972       0.1321E-1    0.9132   
    15.52       0.7655E-1    0.8081       0.1235E-1    0.9156   
    15.54       0.6651E-1    0.8182       0.1157E-1    0.9179   
    15.56       0.5826E-1    0.8275       0.1086E-1    0.9200   
    15.58       0.5141E-1    0.8360       0.1022E-1    0.9220   
    15.60       0.4568E-1    0.8438       0.9639E-2    0.9239   
    15.62       0.4083E-1    0.8510       0.9106E-2    0.9257   
    15.64       0.3671E-1    0.8575       0.8619E-2    0.9274   
    15.66       0.3318E-1    0.8635       0.8171E-2    0.9290   
    15.68       0.3013E-1    0.8691       0.7759E-2    0.9305   
    15.70       0.2748E-1    0.8742       0.7380E-2    0.9320   
    15.72       0.2516E-1    0.8789       0.7028E-2    0.9334   
    15.74       0.2312E-1    0.8832       0.6703E-2    0.9347   
    15.76       0.2133E-1    0.8873       0.6401E-2    0.9360   
    15.78       0.1973E-1    0.8911       0.6120E-2    0.9372   
    15.80       0.1831E-1    0.8946       0.5858E-2    0.9384   
    15.82       0.1704E-1    0.8979       0.5614E-2    0.9395   
    15.84       0.1590E-1    0.9010       0.5385E-2    0.9406   
    15.86       0.1487E-1    0.9039       0.5171E-2    0.9416   
    15.88       0.1394E-1    0.9066       0.4970E-2    0.9426   
    15.90       0.1309E-1    0.9092       0.4782E-2    0.9436   
    15.92       0.1233E-1    0.9116       0.4605E-2    0.9445   
    15.94       0.1162E-1    0.9139       0.4438E-2    0.9454   
    15.96       0.1098E-1    0.9160       0.4281E-2    0.9462   
    15.98       0.1039E-1    0.9181       0.4132E-2    0.9471   
    16.00       0.9851E-2    0.9200       0.3991E-2    0.9479   
    16.02       0.9351E-2    0.9219       0.3859E-2    0.9486   
    16.04       0.8889E-2    0.9237       0.3733E-2    0.9494   
    16.06       0.8462E-2    0.9253       0.3613E-2    0.9501   
    16.08       0.8065E-2    0.9269       0.3500E-2    0.9508   
    16.10       0.7697E-2    0.9285       0.3392E-2    0.9515   
    16.12       0.7354E-2    0.9299       0.3290E-2    0.9521   
    16.14       0.7034E-2    0.9313       0.3192E-2    0.9528   
    16.16       0.6735E-2    0.9327       0.3099E-2    0.9534   
    16.18       0.6456E-2    0.9340       0.3011E-2    0.9540   
    16.20       0.6194E-2    0.9352       0.2926E-2    0.9546   
    16.22       0.5948E-2    0.9364       0.2845E-2    0.9552   
    16.24       0.5717E-2    0.9375       0.2768E-2    0.9557   
    16.26       0.5500E-2    0.9386       0.2694E-2    0.9563   
    16.28       0.5296E-2    0.9397       0.2623E-2    0.9568   
    16.30       0.5103E-2    0.9407       0.2555E-2    0.9573   
    16.32       0.4920E-2    0.9417       0.2490E-2    0.9578   
    16.34       0.4748E-2    0.9427       0.2428E-2    0.9583   
    16.36       0.4585E-2    0.9436       0.2368E-2    0.9588   
    16.38       0.4431E-2    0.9445       0.2310E-2    0.9592   
    16.40       0.4284E-2    0.9453       0.2255E-2    0.9597   
    16.42       0.4145E-2    0.9462       0.2202E-2    0.9601   
    16.44       0.4013E-2    0.9470       0.2151E-2    0.9606   
    16.46       0.3887E-2    0.9477       0.2101E-2    0.9610   
    16.48       0.3768E-2    0.9485       0.2054E-2    0.9614   
    16.50       0.3654E-2    0.9492       0.2008E-2    0.9618   
    16.52       0.3545E-2    0.9500       0.1964E-2    0.9622   
    16.54       0.3442E-2    0.9506       0.1921E-2    0.9626   
    16.56       0.3343E-2    0.9513       0.1880E-2    0.9630   
    16.58       0.3248E-2    0.9520       0.1841E-2    0.9633   
    16.60       0.3158E-2    0.9526       0.1802E-2    0.9637   
    16.62       0.3071E-2    0.9532       0.1765E-2    0.9641   
    16.64       0.2989E-2    0.9538       0.1729E-2    0.9644   
    16.66       0.2909E-2    0.9544       0.1695E-2    0.9647   
    16.68       0.2833E-2    0.9550       0.1661E-2    0.9651   
    16.70       0.2760E-2    0.9555       0.1628E-2    0.9654   
    16.72       0.2690E-2    0.9561       0.1597E-2    0.9657   
    16.74       0.2623E-2    0.9566       0.1566E-2    0.9660   
    16.76       0.2558E-2    0.9571       0.1537E-2    0.9663   
    16.78       0.2496E-2    0.9576       0.1508E-2    0.9666   
    16.80       0.2436E-2    0.9581       0.1480E-2    0.9669   
    16.82       0.2378E-2    0.9586       0.1453E-2    0.9672   
    16.84       0.2322E-2    0.9590       0.1427E-2    0.9675   
    16.86       0.2269E-2    0.9595       0.1401E-2    0.9678   
    16.88       0.2217E-2    0.9599       0.1377E-2    0.9681   
    16.90       0.2167E-2    0.9604       0.1352E-2    0.9684   
    16.92       0.2119E-2    0.9608       0.1329E-2    0.9686   
    16.94       0.2073E-2    0.9612       0.1306E-2    0.9689   
    16.96       0.2028E-2    0.9616       0.1284E-2    0.9691   
    16.98       0.1985E-2    0.9620       0.1263E-2    0.9694   
    17.00       0.1943E-2    0.9624       0.1242E-2    0.9696   
    17.02       0.1902E-2    0.9628       0.1221E-2    0.9699   
    17.04       0.1863E-2    0.9632       0.1201E-2    0.9701   
    17.06       0.1825E-2    0.9636       0.1182E-2    0.9704   
    17.08       0.1788E-2    0.9639       0.1163E-2    0.9706   
    17.10       0.1753E-2    0.9643       0.1145E-2    0.9708   
    17.12       0.1718E-2    0.9646       0.1127E-2    0.9711   
    17.14       0.1685E-2    0.9649       0.1109E-2    0.9713   
    17.16       0.1652E-2    0.9653       0.1092E-2    0.9715   
    17.18       0.1621E-2    0.9656       0.1076E-2    0.9717   
    17.20       0.1590E-2    0.9659       0.1059E-2    0.9719   
    17.22       0.1561E-2    0.9662       0.1043E-2    0.9721   
    17.24       0.1532E-2    0.9665       0.1028E-2    0.9724   
    17.26       0.1504E-2    0.9668       0.1013E-2    0.9726   
    17.28       0.1477E-2    0.9671       0.9981E-3    0.9728   
    17.30       0.1450E-2    0.9674       0.9837E-3    0.9730   
    17.32       0.1425E-2    0.9677       0.9696E-3    0.9732   
    17.34       0.1400E-2    0.9680       0.9558E-3    0.9733   
    17.36       0.1376E-2    0.9683       0.9423E-3    0.9735   
    17.38       0.1352E-2    0.9686       0.9292E-3    0.9737   
    17.40       0.1329E-2    0.9688       0.9163E-3    0.9739   
    17.42       0.1307E-2    0.9691       0.9037E-3    0.9741   
    17.44       0.1285E-2    0.9693       0.8914E-3    0.9743   
    17.46       0.1263E-2    0.9696       0.8793E-3    0.9744   
    17.48       0.1243E-2    0.9698       0.8675E-3    0.9746   
    17.50       0.1223E-2    0.9701       0.8560E-3    0.9748   
    17.52       0.1203E-2    0.9703       0.8446E-3    0.9750   
    17.54       0.1184E-2    0.9706       0.8336E-3    0.9751   
    17.56       0.1165E-2    0.9708       0.8227E-3    0.9753   
    17.58       0.1147E-2    0.9710       0.8121E-3    0.9755   
    17.60       0.1129E-2    0.9713       0.8017E-3    0.9756   
    17.62       0.1112E-2    0.9715       0.7915E-3    0.9758   
    17.64       0.1095E-2    0.9717       0.7815E-3    0.9759   
    17.66       0.1078E-2    0.9719       0.7717E-3    0.9761   
    17.68       0.1062E-2    0.9721       0.7621E-3    0.9762   
    17.70       0.1046E-2    0.9724       0.7527E-3    0.9764   
    17.72       0.1031E-2    0.9726       0.7434E-3    0.9765   
    17.74       0.1016E-2    0.9728       0.7344E-3    0.9767   
    17.76       0.1001E-2    0.9730       0.7255E-3    0.9768   
    17.78       0.9866E-3    0.9732       0.7167E-3    0.9770   
    17.80       0.9726E-3    0.9734       0.7082E-3    0.9771   
    17.82       0.9588E-3    0.9736       0.6998E-3    0.9773   
    17.84       0.9453E-3    0.9737       0.6916E-3    0.9774   
    17.86       0.9321E-3    0.9739       0.6835E-3    0.9775   
    17.88       0.9193E-3    0.9741       0.6755E-3    0.9777   
    17.90       0.9066E-3    0.9743       0.6677E-3    0.9778   
    17.92       0.8943E-3    0.9745       0.6601E-3    0.9779   
    17.94       0.8822E-3    0.9747       0.6525E-3    0.9781   
    17.96       0.8704E-3    0.9748       0.6452E-3    0.9782   
    17.98       0.8588E-3    0.9750       0.6379E-3    0.9783   
    18.00       0.8474E-3    0.9752       0.6308E-3    0.9785   
    18.02       0.8363E-3    0.9753       0.6238E-3    0.9786   
    18.04       0.8254E-3    0.9755       0.6169E-3    0.9787   
    18.06       0.8147E-3    0.9757       0.6101E-3    0.9788   
    18.08       0.8043E-3    0.9758       0.6035E-3    0.9789   
    18.10       0.7940E-3    0.9760       0.5969E-3    0.9791   
    18.12       0.7840E-3    0.9761       0.5905E-3    0.9792   
    18.14       0.7741E-3    0.9763       0.5842E-3    0.9793   
    18.16       0.7645E-3    0.9765       0.5780E-3    0.9794   
    18.18       0.7550E-3    0.9766       0.5718E-3    0.9795   
    18.20       0.7457E-3    0.9768       0.5658E-3    0.9797   
    18.22       0.7366E-3    0.9769       0.5599E-3    0.9798   
    18.24       0.7276E-3    0.9771       0.5541E-3    0.9799   
    18.26       0.7188E-3    0.9772       0.5484E-3    0.9800   
    18.28       0.7102E-3    0.9773       0.5427E-3    0.9801   
    18.30       0.7017E-3    0.9775       0.5372E-3    0.9802   
    18.32       0.6934E-3    0.9776       0.5317E-3    0.9803   
    18.34       0.6853E-3    0.9778       0.5264E-3    0.9804   
    18.36       0.6773E-3    0.9779       0.5211E-3    0.9805   
    18.38       0.6694E-3    0.9780       0.5159E-3    0.9806   
    18.40       0.6617E-3    0.9782       0.5107E-3    0.9807   
    18.42       0.6541E-3    0.9783       0.5057E-3    0.9808   
    18.44       0.6467E-3    0.9784       0.5007E-3    0.9809   
    18.46       0.6393E-3    0.9786       0.4958E-3    0.9810   
    18.48       0.6321E-3    0.9787       0.4910E-3    0.9811   
    18.50       0.6251E-3    0.9788       0.4863E-3    0.9812   
    18.52       0.6181E-3    0.9789       0.4816E-3    0.9813   
    18.54       0.6113E-3    0.9791       0.4770E-3    0.9814   
    18.56       0.6046E-3    0.9792       0.4724E-3    0.9815   
    18.58       0.5980E-3    0.9793       0.4680E-3    0.9816   
    18.60       0.5915E-3    0.9794       0.4635E-3    0.9817   
    18.62       0.5851E-3    0.9795       0.4592E-3    0.9818   
    18.64       0.5788E-3    0.9796       0.4549E-3    0.9819   
    18.66       0.5727E-3    0.9798       0.4507E-3    0.9820   
    18.68       0.5666E-3    0.9799       0.4465E-3    0.9821   
    18.70       0.5606E-3    0.9800       0.4424E-3    0.9822   
    18.72       0.5547E-3    0.9801       0.4384E-3    0.9822   
    18.74       0.5489E-3    0.9802       0.4344E-3    0.9823   
    18.76       0.5433E-3    0.9803       0.4305E-3    0.9824   
    18.78       0.5377E-3    0.9804       0.4266E-3    0.9825   
    18.80       0.5321E-3    0.9805       0.4228E-3    0.9826   
    18.82       0.5267E-3    0.9806       0.4190E-3    0.9827   
    18.84       0.5214E-3    0.9807       0.4153E-3    0.9828   
    18.86       0.5161E-3    0.9808       0.4116E-3    0.9828   
    18.88       0.5109E-3    0.9810       0.4080E-3    0.9829   
    18.90       0.5058E-3    0.9811       0.4044E-3    0.9830   
    18.92       0.5008E-3    0.9812       0.4009E-3    0.9831   
    18.94       0.4959E-3    0.9813       0.3974E-3    0.9832   
    18.96       0.4910E-3    0.9814       0.3940E-3    0.9832   
    18.98       0.4862E-3    0.9814       0.3906E-3    0.9833   
    19.00       0.4815E-3    0.9815       0.3872E-3    0.9834   
    19.02       0.4768E-3    0.9816       0.3839E-3    0.9835   
    19.04       0.4722E-3    0.9817       0.3807E-3    0.9835   
    19.06       0.4677E-3    0.9818       0.3775E-3    0.9836   
    19.08       0.4633E-3    0.9819       0.3743E-3    0.9837   
    19.10       0.4589E-3    0.9820       0.3712E-3    0.9838   
    19.12       0.4546E-3    0.9821       0.3681E-3    0.9838   
    19.14       0.4503E-3    0.9822       0.3650E-3    0.9839   
    19.16       0.4461E-3    0.9823       0.3620E-3    0.9840   
    19.18       0.4419E-3    0.9824       0.3590E-3    0.9841   
    19.20       0.4379E-3    0.9825       0.3561E-3    0.9841   
    19.22       0.4338E-3    0.9826       0.3532E-3    0.9842   
    19.24       0.4299E-3    0.9826       0.3503E-3    0.9843   
    19.26       0.4259E-3    0.9827       0.3475E-3    0.9843   
    19.28       0.4221E-3    0.9828       0.3447E-3    0.9844   
    19.30       0.4183E-3    0.9829       0.3419E-3    0.9845   
    19.32       0.4145E-3    0.9830       0.3392E-3    0.9846   
    19.34       0.4108E-3    0.9831       0.3365E-3    0.9846   
    19.36       0.4072E-3    0.9831       0.3339E-3    0.9847   
    19.38       0.4036E-3    0.9832       0.3312E-3    0.9848   
    19.40       0.4000E-3    0.9833       0.3286E-3    0.9848   
    19.42       0.3965E-3    0.9834       0.3261E-3    0.9849   
    19.44       0.3930E-3    0.9835       0.3235E-3    0.9849   
    19.46       0.3896E-3    0.9835       0.3210E-3    0.9850   
    19.48       0.3862E-3    0.9836       0.3185E-3    0.9851   
    19.50       0.3829E-3    0.9837       0.3161E-3    0.9851   
    19.52       0.3796E-3    0.9838       0.3137E-3    0.9852   
    19.54       0.3764E-3    0.9838       0.3113E-3    0.9853   
    19.56       0.3732E-3    0.9839       0.3089E-3    0.9853   
    19.58       0.3700E-3    0.9840       0.3066E-3    0.9854   
    19.60       0.3669E-3    0.9841       0.3043E-3    0.9855   
    19.62       0.3638E-3    0.9841       0.3020E-3    0.9855   
    19.64       0.3608E-3    0.9842       0.2997E-3    0.9856   
    19.66       0.3578E-3    0.9843       0.2975E-3    0.9856   
    19.68       0.3548E-3    0.9844       0.2953E-3    0.9857   
    19.70       0.3519E-3    0.9844       0.2931E-3    0.9858   
    19.72       0.3490E-3    0.9845       0.2909E-3    0.9858   
    19.74       0.3462E-3    0.9846       0.2888E-3    0.9859   
    19.76       0.3434E-3    0.9846       0.2867E-3    0.9859   
    19.78       0.3406E-3    0.9847       0.2846E-3    0.9860   
    19.80       0.3378E-3    0.9848       0.2825E-3    0.9860   
    19.82       0.3351E-3    0.9848       0.2805E-3    0.9861   
    19.84       0.3324E-3    0.9849       0.2785E-3    0.9862   
    19.86       0.3298E-3    0.9850       0.2765E-3    0.9862   
    19.88       0.3272E-3    0.9850       0.2745E-3    0.9863   
    19.90       0.3246E-3    0.9851       0.2725E-3    0.9863   
    19.92       0.3220E-3    0.9852       0.2706E-3    0.9864   
    19.94       0.3195E-3    0.9852       0.2687E-3    0.9864   
    19.96       0.3170E-3    0.9853       0.2668E-3    0.9865   
    19.98       0.3145E-3    0.9854       0.2649E-3    0.9865   
    20.00       0.3121E-3    0.9854       0.2631E-3    0.9866   
# 
# 07/24/2018 at 09:41 YAMBO_RT @ NewLaptop [start]
# 07/24/2018 at 09:41                      [end]
#
# .-Input file : yambo.in
# | optics                         # [R OPT] Optics
# | bse                            # [R BSE] Bethe Salpeter Equation.
# | bsk                            # [R BSK] Bethe Salpeter Equation kernel
# | bss                            # [R BSS] Bethe Salpeter Equation solver
# | tddft                          # [R   K] Use TDDFT kernel
# | BoseTemp= 0.000000     eV      # Bosonic Temperature
# | BSEmod= "coupling"             # [BSE] resonant/retarded/coupling
# | BSKmod= "ALDA"                 # [BSE] IP/Hartree/HF/ALDA/SEX/BSfxc
# | BSSmod= "d"                    # [BSS] (h)aydock/(d)iagonalization/(i)nversion/(t)ddft`
# | BSENGexx=  4945        RL      # [BSK] Exchange components
# | % BEnRange
# |   0.00000 | 20.00000 | eV      # [BSS] Energy range
# | %
# | % BDmRange
# |   0.10000 |  0.10000 | eV      # [BSS] Damping range
# | %
# | BEnSteps= 1000                 # [BSS] Energy steps
# | % BLongDir
# | 0.1000E-4 | 0.000    | 0.000    |        # [BSS] [cc] Electric Field
# | %
# | % BSEBands
# |   1 | 10 |                     # [BSK] Bands range
# | %
